Data from StA_HRD10591_037.txt Node
Date: Fri May 16 15:19:02 EDT 2025
User: Yrep
Spectrometer: HR+D1059
Trigger mode: 1
Integration Time (sec): 1.000000E-1
Scans to average: 1
Electric dark correction enabled: true
Nonlinearity correction enabled: false
Boxcar width: 0
XAxis mode: Wavelengths
Number of Pixels in Spectrum: 2048
>>>>>Begin Spectral Data<<<<<
223.165	-19.19
223.4	-19.19
223.635	-19.19
223.869	-16.19
224.104	-22.19
224.338	-19.19
224.573	-25.19
224.808	-12.19
225.042	-2.19
225.277	-8.19
225.511	-7.19
225.746	0.81
225.98	11.81
226.215	9.81
226.449	23.81
226.683	17.81
226.918	31.81
227.152	35.81
227.387	42.81
227.621	36.81
227.856	41.81
228.09	46.81
228.324	46.81
228.559	53.81
228.793	48.81
229.027	66.81
229.262	75.81
229.496	70.81
229.73	64.81
229.964	78.81
230.199	78.81
230.433	98.81
230.667	98.81
230.901	84.81
231.136	83.81
231.37	88.81
231.604	89.81
231.838	87.81
232.072	86.81
232.306	94.81
232.541	84.81
232.775	82.81
233.009	96.81
233.243	113.81
233.477	87.81
233.711	100.81
233.945	88.81
234.179	102.81
234.413	84.81
234.647	98.81
234.881	98.81
235.115	96.81
235.349	92.81
235.583	82.81
235.817	78.81
236.051	90.81
236.285	92.81
236.519	81.81
236.753	94.81
236.987	85.81
237.221	86.81
237.455	91.81
237.689	87.81
237.922	92.81
238.156	72.81
238.39	100.81
238.624	92.81
238.858	83.81
239.091	80.81
239.325	102.81
239.559	90.81
239.793	89.81
240.027	81.81
240.26	79.81
240.494	80.81
240.728	90.81
240.961	97.81
241.195	95.81
241.429	80.81
241.662	90.81
241.896	95.81
242.13	94.81
242.363	108.81
242.597	95.81
242.83	90.81
243.064	78.81
243.298	85.81
243.531	98.81
243.765	81.81
243.998	95.81
244.232	102.81
244.465	91.81
244.699	88.81
244.932	108.81
245.166	102.81
245.399	102.81
245.633	90.81
245.866	100.81
246.099	94.81
246.333	109.81
246.566	100.81
246.8	109.81
247.033	120.81
247.266	113.81
247.5	110.81
247.733	114.81
247.966	92.81
248.2	102.81
248.433	117.81
248.666	120.81
248.899	117.81
249.133	130.81
249.366	126.81
249.599	127.81
249.832	117.81
250.066	121.81
250.299	132.81
250.532	136.81
250.765	132.81
250.998	126.81
251.231	121.81
251.465	133.81
251.698	136.81
251.931	139.81
252.164	137.81
252.397	143.81
252.63	140.81
252.863	135.81
253.096	143.81
253.329	140.81
253.562	146.81
253.795	136.81
254.028	147.81
254.261	158.81
254.494	151.81
254.727	147.81
254.96	134.81
255.193	159.81
255.426	149.81
255.659	147.81
255.892	138.81
256.124	141.81
256.357	142.81
256.59	159.81
256.823	163.81
257.056	156.81
257.289	163.81
257.521	174.81
257.754	152.81
257.987	181.81
258.22	163.81
258.452	151.81
258.685	169.81
258.918	166.81
259.151	167.81
259.383	174.81
259.616	171.81
259.849	172.81
260.081	167.81
260.314	177.81
260.547	154.81
260.779	169.81
261.012	176.81
261.244	188.81
261.477	168.81
261.71	183.81
261.942	186.81
262.175	193.81
262.407	187.81
262.64	183.81
262.872	177.81
263.105	183.81
263.337	196.81
263.57	193.81
263.802	186.81
264.035	182.81
264.267	176.81
264.499	159.81
264.732	176.81
264.964	171.81
265.197	183.81
265.429	199.81
265.661	214.81
265.894	234.81
266.126	257.81
266.358	268.81
266.591	325.81
266.823	321.81
267.055	311.81
267.287	310.81
267.52	316.81
267.752	349.81
267.984	351.81
268.216	283.81
268.448	251.81
268.681	257.81
268.913	285.81
269.145	279.81
269.377	279.81
269.609	253.81
269.841	280.81
270.073	313.81
270.306	282.81
270.538	234.81
270.77	236.81
271.002	245.81
271.234	249.81
271.466	234.81
271.698	219.81
271.93	249.81
272.162	258.81
272.394	258.81
272.626	251.81
272.858	236.81
273.09	199.81
273.322	198.81
273.553	205.81
273.785	200.81
274.017	217.81
274.249	294.81
274.481	308.81
274.713	300.81
274.945	327.81
275.176	358.81
275.408	368.81
275.64	347.81
275.872	373.81
276.104	433.81
276.335	407.81
276.567	414.81
276.799	401.81
277.031	348.81
277.262	257.81
277.494	276.81
277.726	283.81
277.957	280.81
278.189	330.81
278.421	309.81
278.652	309.81
278.884	286.81
279.115	281.81
279.347	263.81
279.579	254.81
279.81	252.81
280.042	291.81
280.273	284.81
280.505	253.81
280.736	227.81
280.968	246.81
281.199	300.81
281.431	314.81
281.662	310.81
281.894	324.81
282.125	377.81
282.356	376.81
282.588	356.81
282.819	340.81
283.051	394.81
283.282	459.81
283.513	510.81
283.745	568.81
283.976	515.81
284.207	497.81
284.439	507.81
284.67	491.81
284.901	479.81
285.132	500.81
285.364	492.81
285.595	478.81
285.826	514.81
286.057	505.81
286.288	510.81
286.52	564.81
286.751	556.81
286.982	502.81
287.213	408.81
287.444	444.81
287.675	456.81
287.906	441.81
288.138	348.81
288.369	329.81
288.6	292.81
288.831	325.81
289.062	394.81
289.293	389.81
289.524	399.81
289.755	415.81
289.986	416.81
290.217	319.81
290.448	283.81
290.679	279.81
290.91	251.81
291.141	268.81
291.371	256.81
291.602	269.81
291.833	278.81
292.064	297.81
292.295	360.81
292.526	376.81
292.757	377.81
292.987	394.81
293.218	362.81
293.449	354.81
293.68	340.81
293.91	295.81
294.141	281.81
294.372	276.81
294.603	263.81
294.833	287.81
295.064	263.81
295.295	264.81
295.525	265.81
295.756	251.81
295.987	222.81
296.217	240.81
296.448	235.81
296.679	266.81
296.909	287.81
297.14	349.81
297.37	357.81
297.601	320.81
297.831	316.81
298.062	342.81
298.292	360.81
298.523	346.81
298.753	344.81
298.984	338.81
299.214	293.81
299.445	237.81
299.675	224.81
299.905	211.81
300.136	226.81
300.366	223.81
300.597	228.81
300.827	227.81
301.057	230.81
301.288	238.81
301.518	278.81
301.748	300.81
301.979	310.81
302.209	267.81
302.439	276.81
302.669	283.81
302.9	307.81
303.13	250.81
303.36	258.81
303.59	272.81
303.82	279.81
304.051	328.81
304.281	341.81
304.511	300.81
304.741	285.81
304.971	298.81
305.201	327.81
305.431	253.81
305.661	244.81
305.891	227.81
306.121	228.81
306.352	208.81
306.582	215.81
306.812	202.81
307.042	206.81
307.272	209.81
307.502	200.81
307.731	189.81
307.961	206.81
308.191	208.81
308.421	196.81
308.651	213.81
308.881	203.81
309.111	210.81
309.341	221.81
309.571	240.81
309.8	232.81
310.03	191.81
310.26	200.81
310.49	218.81
310.72	237.81
310.949	238.81
311.179	254.81
311.409	292.81
311.639	361.81
311.868	472.81
312.098	528.81
312.328	540.81
312.557	520.81
312.787	516.81
313.017	480.81
313.246	531.81
313.476	514.81
313.706	398.81
313.935	333.81
314.165	279.81
314.394	272.81
314.624	274.81
314.853	293.81
315.083	276.81
315.312	239.81
315.542	228.81
315.771	218.81
316.001	218.81
316.23	202.81
316.46	203.81
316.689	208.81
316.919	202.81
317.148	212.81
317.377	230.81
317.607	252.81
317.836	238.81
318.065	273.81
318.295	305.81
318.524	262.81
318.753	206.81
318.983	226.81
319.212	220.81
319.441	238.81
319.67	277.81
319.9	311.81
320.129	251.81
320.358	225.81
320.587	226.81
320.816	252.81
321.046	269.81
321.275	270.81
321.504	255.81
321.733	262.81
321.962	260.81
322.191	215.81
322.42	214.81
322.649	205.81
322.878	198.81
323.108	224.81
323.337	232.81
323.566	248.81
323.795	245.81
324.024	234.81
324.253	198.81
324.482	198.81
324.71	184.81
324.939	196.81
325.168	214.81
325.397	198.81
325.626	201.81
325.855	209.81
326.084	192.81
326.313	200.81
326.542	200.81
326.77	196.81
326.999	214.81
327.228	216.81
327.457	188.81
327.686	199.81
327.914	174.81
328.143	169.81
328.372	188.81
328.6	206.81
328.829	191.81
329.058	206.81
329.287	227.81
329.515	226.81
329.744	207.81
329.972	205.81
330.201	188.81
330.43	218.81
330.658	242.81
330.887	270.81
331.115	268.81
331.344	272.81
331.572	240.81
331.801	233.81
332.03	226.81
332.258	234.81
332.486	256.81
332.715	238.81
332.943	222.81
333.172	253.81
333.4	279.81
333.629	304.81
333.857	302.81
334.085	314.81
334.314	288.81
334.542	276.81
334.771	262.81
334.999	258.81
335.227	244.81
335.455	264.81
335.684	318.81
335.912	376.81
336.14	363.81
336.369	359.81
336.597	367.81
336.825	405.81
337.053	361.81
337.281	271.81
337.51	255.81
337.738	285.81
337.966	288.81
338.194	296.81
338.422	258.81
338.65	239.81
338.878	215.81
339.106	219.81
339.334	246.81
339.562	265.81
339.79	246.81
340.018	261.81
340.246	274.81
340.474	320.81
340.702	310.81
340.93	324.81
341.158	284.81
341.386	238.81
341.614	234.81
341.842	256.81
342.07	309.81
342.298	356.81
342.526	298.81
342.754	221.81
342.981	222.81
343.209	250.81
343.437	284.81
343.665	244.81
343.893	226.81
344.12	212.81
344.348	210.81
344.576	196.81
344.804	201.81
345.031	202.81
345.259	190.81
345.487	214.81
345.714	218.81
345.942	206.81
346.17	195.81
346.397	191.81
346.625	190.81
346.853	186.81
347.08	201.81
347.308	187.81
347.535	181.81
347.763	186.81
347.99	179.81
348.218	170.81
348.445	186.81
348.673	181.81
348.9	179.81
349.128	189.81
349.355	186.81
349.583	187.81
349.81	192.81
350.037	177.81
350.265	182.81
350.492	160.81
350.72	162.81
350.947	192.81
351.174	195.81
351.402	175.81
351.629	185.81
351.856	171.81
352.083	168.81
352.311	164.81
352.538	188.81
352.765	179.81
352.992	180.81
353.22	178.81
353.447	178.81
353.674	167.81
353.901	181.81
354.128	175.81
354.355	181.81
354.583	180.81
354.81	196.81
355.037	195.81
355.264	186.81
355.491	196.81
355.718	207.81
355.945	189.81
356.172	178.81
356.399	193.81
356.626	192.81
356.853	204.81
357.08	209.81
357.307	218.81
357.534	258.81
357.761	308.81
357.988	325.81
358.215	280.81
358.441	268.81
358.668	252.81
358.895	235.81
359.122	279.81
359.349	287.81
359.576	282.81
359.802	220.81
360.029	223.81
360.256	236.81
360.483	290.81
360.709	306.81
360.936	221.81
361.163	193.81
361.39	210.81
361.616	186.81
361.843	184.81
362.07	184.81
362.296	189.81
362.523	173.81
362.749	177.81
362.976	186.81
363.203	213.81
363.429	219.81
363.656	214.81
363.882	216.81
364.109	207.81
364.335	196.81
364.562	187.81
364.788	199.81
365.015	204.81
365.241	197.81
365.468	198.81
365.694	205.81
365.92	200.81
366.147	195.81
366.373	195.81
366.599	195.81
366.826	174.81
367.052	188.81
367.278	178.81
367.505	191.81
367.731	212.81
367.957	206.81
368.184	204.81
368.41	197.81
368.636	185.81
368.862	178.81
369.089	180.81
369.315	177.81
369.541	188.81
369.767	192.81
369.993	168.81
370.219	188.81
370.445	185.81
370.672	179.81
370.898	184.81
371.124	207.81
371.35	232.81
371.576	179.81
371.802	191.81
372.028	201.81
372.254	194.81
372.48	176.81
372.706	183.81
372.932	171.81
373.158	195.81
373.384	186.81
373.61	184.81
373.835	201.81
374.061	214.81
374.287	200.81
374.513	228.81
374.739	205.81
374.965	219.81
375.191	203.81
375.416	175.81
375.642	202.81
375.868	186.81
376.094	197.81
376.319	182.81
376.545	184.81
376.771	188.81
376.997	190.81
377.222	181.81
377.448	182.81
377.674	179.81
377.899	176.81
378.125	186.81
378.35	186.81
378.576	167.81
378.802	182.81
379.027	206.81
379.253	218.81
379.478	204.81
379.704	207.81
379.929	206.81
380.155	200.81
380.38	210.81
380.606	198.81
380.831	191.81
381.057	188.81
381.282	199.81
381.507	207.81
381.733	205.81
381.958	208.81
382.184	203.81
382.409	208.81
382.634	204.81
382.86	204.81
383.085	193.81
383.31	199.81
383.535	208.81
383.761	215.81
383.986	210.81
384.211	214.81
384.436	204.81
384.662	205.81
384.887	225.81
385.112	230.81
385.337	230.81
385.562	228.81
385.787	210.81
386.013	236.81
386.238	227.81
386.463	232.81
386.688	223.81
386.913	217.81
387.138	207.81
387.363	214.81
387.588	207.81
387.813	214.81
388.038	219.81
388.263	231.81
388.488	228.81
388.713	208.81
388.938	209.81
389.163	210.81
389.387	209.81
389.612	187.81
389.837	191.81
390.062	207.81
390.287	208.81
390.512	223.81
390.736	209.81
390.961	212.81
391.186	203.81
391.411	219.81
391.636	223.81
391.86	229.81
392.085	243.81
392.31	198.81
392.534	204.81
392.759	211.81
392.984	219.81
393.208	208.81
393.433	208.81
393.658	217.81
393.882	199.81
394.107	196.81
394.331	193.81
394.556	210.81
394.78	179.81
395.005	191.81
395.229	192.81
395.454	182.81
395.678	200.81
395.903	222.81
396.127	227.81
396.352	243.81
396.576	243.81
396.801	232.81
397.025	258.81
397.249	244.81
397.474	247.81
397.698	242.81
397.922	236.81
398.147	219.81
398.371	254.81
398.595	263.81
398.82	239.81
399.044	251.81
399.268	269.81
399.492	267.81
399.717	246.81
399.941	245.81
400.165	259.81
400.389	228.81
400.613	239.81
400.837	217.81
401.062	234.81
401.286	224.81
401.51	238.81
401.734	202.81
401.958	215.81
402.182	215.81
402.406	207.81
402.63	227.81
402.854	209.81
403.078	210.81
403.302	235.81
403.526	231.81
403.75	220.81
403.974	247.81
404.198	218.81
404.422	236.81
404.645	228.81
404.869	237.81
405.093	222.81
405.317	233.81
405.541	245.81
405.765	228.81
405.988	229.81
406.212	210.81
406.436	230.81
406.66	233.81
406.883	213.81
407.107	213.81
407.331	230.81
407.555	235.81
407.778	235.81
408.002	227.81
408.226	217.81
408.449	212.81
408.673	227.81
408.896	226.81
409.12	211.81
409.344	232.81
409.567	242.81
409.791	232.81
410.014	220.81
410.238	231.81
410.461	223.81
410.685	217.81
410.908	216.81
411.132	247.81
411.355	245.81
411.578	211.81
411.802	231.81
412.025	232.81
412.249	218.81
412.472	241.81
412.695	230.81
412.919	220.81
413.142	218.81
413.365	240.81
413.589	209.81
413.812	212.81
414.035	211.81
414.258	206.81
414.482	222.81
414.705	231.81
414.928	234.81
415.151	220.81
415.374	210.81
415.597	215.81
415.821	204.81
416.044	209.81
416.267	214.81
416.49	212.81
416.713	200.81
416.936	213.81
417.159	226.81
417.382	218.81
417.605	234.81
417.828	221.81
418.051	245.81
418.274	216.81
418.497	208.81
418.72	223.81
418.943	215.81
419.166	217.81
419.389	230.81
419.611	234.81
419.834	226.81
420.057	217.81
420.28	219.81
420.503	211.81
420.726	228.81
420.948	226.81
421.171	224.81
421.394	213.81
421.617	223.81
421.839	216.81
422.062	240.81
422.285	217.81
422.507	222.81
422.73	221.81
422.953	207.81
423.175	210.81
423.398	204.81
423.621	215.81
423.843	224.81
424.066	236.81
424.288	233.81
424.511	223.81
424.733	221.81
424.956	215.81
425.178	246.81
425.401	300.81
425.623	344.81
425.846	260.81
426.068	230.81
426.291	238.81
426.513	239.81
426.735	245.81
426.958	251.81
427.18	260.81
427.402	316.81
427.625	356.81
427.847	278.81
428.069	212.81
428.292	223.81
428.514	213.81
428.736	229.81
428.958	292.81
429.181	292.81
429.403	231.81
429.625	221.81
429.847	236.81
430.069	230.81
430.292	211.81
430.514	201.81
430.736	222.81
430.958	219.81
431.18	200.81
431.402	201.81
431.624	203.81
431.846	201.81
432.068	202.81
432.29	187.81
432.512	214.81
432.734	206.81
432.956	194.81
433.178	207.81
433.4	212.81
433.622	231.81
433.844	247.81
434.066	278.81
434.287	249.81
434.509	260.81
434.731	265.81
434.953	249.81
435.175	263.81
435.397	252.81
435.618	224.81
435.84	214.81
436.062	223.81
436.284	225.81
436.505	213.81
436.727	195.81
436.949	226.81
437.17	223.81
437.392	221.81
437.614	212.81
437.835	196.81
438.057	207.81
438.278	204.81
438.5	215.81
438.721	200.81
438.943	215.81
439.165	211.81
439.386	190.81
439.608	198.81
439.829	196.81
440.05	198.81
440.272	193.81
440.493	203.81
440.715	197.81
440.936	214.81
441.158	196.81
441.379	216.81
441.6	210.81
441.822	220.81
442.043	206.81
442.264	202.81
442.486	233.81
442.707	210.81
442.928	220.81
443.149	229.81
443.371	223.81
443.592	218.81
443.813	212.81
444.034	196.81
444.255	200.81
444.476	212.81
444.698	230.81
444.919	205.81
445.14	313.81
445.361	252.81
445.582	218.81
445.803	215.81
446.024	239.81
446.245	223.81
446.466	208.81
446.687	210.81
446.908	191.81
447.129	217.81
447.35	190.81
447.571	223.81
447.792	188.81
448.013	206.81
448.234	195.81
448.455	207.81
448.675	204.81
448.896	189.81
449.117	207.81
449.338	217.81
449.559	220.81
449.779	222.81
450	222.81
450.221	210.81
450.442	197.81
450.662	222.81
450.883	193.81
451.104	211.81
451.324	203.81
451.545	186.81
451.766	221.81
451.986	223.81
452.207	190.81
452.428	204.81
452.648	207.81
452.869	226.81
453.089	219.81
453.31	216.81
453.53	206.81
453.751	199.81
453.971	196.81
454.192	220.81
454.412	215.81
454.633	207.81
454.853	218.81
455.073	177.81
455.294	196.81
455.514	212.81
455.734	216.81
455.955	213.81
456.175	213.81
456.395	191.81
456.616	207.81
456.836	202.81
457.056	201.81
457.276	203.81
457.497	199.81
457.717	176.81
457.937	198.81
458.157	198.81
458.377	210.81
458.598	203.81
458.818	211.81
459.038	228.81
459.258	215.81
459.478	226.81
459.698	209.81
459.918	230.81
460.138	228.81
460.358	220.81
460.578	226.81
460.798	209.81
461.018	199.81
461.238	207.81
461.458	243.81
461.678	263.81
461.898	243.81
462.118	246.81
462.338	243.81
462.558	255.81
462.777	257.81
462.997	235.81
463.217	252.81
463.437	247.81
463.657	247.81
463.876	254.81
464.096	239.81
464.316	241.81
464.536	259.81
464.755	278.81
464.975	265.81
465.195	267.81
465.414	270.81
465.634	225.81
465.854	201.81
466.073	216.81
466.293	221.81
466.512	221.81
466.732	214.81
466.951	207.81
467.171	218.81
467.391	195.81
467.61	204.81
467.829	197.81
468.049	204.81
468.268	182.81
468.488	191.81
468.707	190.81
468.927	217.81
469.146	197.81
469.365	212.81
469.585	214.81
469.804	211.81
470.023	215.81
470.243	196.81
470.462	205.81
470.681	202.81
470.901	194.81
471.12	189.81
471.339	202.81
471.558	216.81
471.777	202.81
471.997	232.81
472.216	218.81
472.435	197.81
472.654	214.81
472.873	214.81
473.092	198.81
473.311	197.81
473.53	205.81
473.749	205.81
473.968	203.81
474.187	213.81
474.406	199.81
474.625	180.81
474.844	192.81
475.063	197.81
475.282	216.81
475.501	206.81
475.72	242.81
475.939	221.81
476.158	196.81
476.377	221.81
476.596	198.81
476.814	213.81
477.033	222.81
477.252	199.81
477.471	207.81
477.69	197.81
477.908	208.81
478.127	218.81
478.346	234.81
478.564	206.81
478.783	208.81
479.002	223.81
479.22	236.81
479.439	248.81
479.658	232.81
479.876	229.81
480.095	247.81
480.313	234.81
480.532	218.81
480.751	233.81
480.969	242.81
481.188	235.81
481.406	230.81
481.624	226.81
481.843	211.81
482.061	204.81
482.28	226.81
482.498	244.81
482.717	242.81
482.935	229.81
483.153	225.81
483.372	236.81
483.59	228.81
483.808	236.81
484.027	239.81
484.245	222.81
484.463	236.81
484.681	249.81
484.9	240.81
485.118	244.81
485.336	215.81
485.554	227.81
485.772	227.81
485.99	234.81
486.209	255.81
486.427	269.81
486.645	255.81
486.863	231.81
487.081	252.81
487.299	244.81
487.517	239.81
487.735	211.81
487.953	213.81
488.171	231.81
488.389	223.81
488.607	237.81
488.825	264.81
489.043	247.81
489.261	209.81
489.479	219.81
489.696	224.81
489.914	223.81
490.132	245.81
490.35	245.81
490.568	236.81
490.786	227.81
491.003	234.81
491.221	221.81
491.439	238.81
491.657	226.81
491.874	240.81
492.092	239.81
492.31	276.81
492.527	290.81
492.745	254.81
492.963	252.81
493.18	252.81
493.398	251.81
493.615	251.81
493.833	254.81
494.05	229.81
494.268	243.81
494.485	250.81
494.703	238.81
494.92	255.81
495.138	247.81
495.355	253.81
495.573	272.81
495.79	271.81
496.008	255.81
496.225	253.81
496.442	254.81
496.66	259.81
496.877	256.81
497.094	266.81
497.312	265.81
497.529	266.81
497.746	263.81
497.963	284.81
498.181	271.81
498.398	284.81
498.615	292.81
498.832	278.81
499.049	302.81
499.267	320.81
499.484	323.81
499.701	348.81
499.918	337.81
500.135	357.81
500.352	398.81
500.569	380.81
500.786	381.81
501.003	367.81
501.22	328.81
501.437	345.81
501.654	327.81
501.871	308.81
502.088	303.81
502.305	286.81
502.522	284.81
502.739	263.81
502.956	261.81
503.172	267.81
503.389	262.81
503.606	259.81
