Data from StA_HRD10591_029.txt Node
Date: Fri May 16 15:18:58 EDT 2025
User: Yrep
Spectrometer: HR+D1059
Trigger mode: 1
Integration Time (sec): 1.000000E-1
Scans to average: 1
Electric dark correction enabled: true
Nonlinearity correction enabled: false
Boxcar width: 0
XAxis mode: Wavelengths
Number of Pixels in Spectrum: 2048
>>>>>Begin Spectral Data<<<<<
223.165	-7.56
223.4	-7.56
223.635	-7.56
223.869	-15.56
224.104	-18.56
224.338	-7.56
224.573	-19.56
224.808	-7.56
225.042	-13.56
225.277	-1.56
225.511	-2.56
225.746	-0.56
225.98	8.44
226.215	15.44
226.449	4.44
226.683	22.44
226.918	14.44
227.152	29.44
227.387	27.44
227.621	34.44
227.856	36.44
228.09	46.44
228.324	53.44
228.559	59.44
228.793	52.44
229.027	54.44
229.262	70.44
229.496	75.44
229.73	87.44
229.964	70.44
230.199	92.44
230.433	86.44
230.667	83.44
230.901	95.44
231.136	85.44
231.37	88.44
231.604	73.44
231.838	79.44
232.072	93.44
232.306	84.44
232.541	90.44
232.775	79.44
233.009	94.44
233.243	87.44
233.477	86.44
233.711	91.44
233.945	102.44
234.179	78.44
234.413	98.44
234.647	92.44
234.881	79.44
235.115	98.44
235.349	91.44
235.583	106.44
235.817	84.44
236.051	84.44
236.285	93.44
236.519	95.44
236.753	88.44
236.987	91.44
237.221	91.44
237.455	90.44
237.689	91.44
237.922	87.44
238.156	82.44
238.39	89.44
238.624	103.44
238.858	90.44
239.091	87.44
239.325	83.44
239.559	94.44
239.793	90.44
240.027	88.44
240.26	100.44
240.494	91.44
240.728	87.44
240.961	84.44
241.195	84.44
241.429	90.44
241.662	79.44
241.896	86.44
242.13	93.44
242.363	92.44
242.597	93.44
242.83	111.44
243.064	87.44
243.298	85.44
243.531	88.44
243.765	95.44
243.998	105.44
244.232	100.44
244.465	95.44
244.699	92.44
244.932	99.44
245.166	102.44
245.399	95.44
245.633	107.44
245.866	99.44
246.099	105.44
246.333	102.44
246.566	110.44
246.8	103.44
247.033	104.44
247.266	114.44
247.5	100.44
247.733	122.44
247.966	96.44
248.2	106.44
248.433	111.44
248.666	134.44
248.899	132.44
249.133	114.44
249.366	138.44
249.599	110.44
249.832	134.44
250.066	148.44
250.299	114.44
250.532	126.44
250.765	121.44
250.998	118.44
251.231	114.44
251.465	115.44
251.698	138.44
251.931	140.44
252.164	147.44
252.397	149.44
252.63	131.44
252.863	141.44
253.096	148.44
253.329	154.44
253.562	151.44
253.795	150.44
254.028	148.44
254.261	124.44
254.494	153.44
254.727	143.44
254.96	143.44
255.193	154.44
255.426	140.44
255.659	154.44
255.892	152.44
256.124	151.44
256.357	144.44
256.59	162.44
256.823	162.44
257.056	167.44
257.289	168.44
257.521	158.44
257.754	143.44
257.987	149.44
258.22	151.44
258.452	155.44
258.685	150.44
258.918	157.44
259.151	176.44
259.383	182.44
259.616	168.44
259.849	148.44
260.081	162.44
260.314	158.44
260.547	167.44
260.779	176.44
261.012	171.44
261.244	169.44
261.477	184.44
261.71	184.44
261.942	171.44
262.175	178.44
262.407	188.44
262.64	171.44
262.872	174.44
263.105	182.44
263.337	174.44
263.57	192.44
263.802	182.44
264.035	174.44
264.267	157.44
264.499	168.44
264.732	163.44
264.964	166.44
265.197	172.44
265.429	210.44
265.661	209.44
265.894	198.44
266.126	261.44
266.358	265.44
266.591	299.44
266.823	287.44
267.055	289.44
267.287	308.44
267.52	316.44
267.752	317.44
267.984	355.44
268.216	265.44
268.448	236.44
268.681	244.44
268.913	261.44
269.145	284.44
269.377	253.44
269.609	244.44
269.841	285.44
270.073	311.44
270.306	263.44
270.538	230.44
270.77	221.44
271.002	240.44
271.234	252.44
271.466	244.44
271.698	229.44
271.93	226.44
272.162	253.44
272.394	262.44
272.626	249.44
272.858	221.44
273.09	214.44
273.322	202.44
273.553	173.44
273.785	198.44
274.017	219.44
274.249	239.44
274.481	293.44
274.713	310.44
274.945	337.44
275.176	352.44
275.408	357.44
275.64	335.44
275.872	391.44
276.104	418.44
276.335	426.44
276.567	424.44
276.799	384.44
277.031	338.44
277.262	275.44
277.494	263.44
277.726	259.44
277.957	286.44
278.189	322.44
278.421	296.44
278.652	298.44
278.884	308.44
279.115	295.44
279.347	264.44
279.579	252.44
279.81	244.44
280.042	260.44
280.273	283.44
280.505	239.44
280.736	238.44
280.968	262.44
281.199	288.44
281.431	287.44
281.662	292.44
281.894	318.44
282.125	356.44
282.356	378.44
282.588	320.44
282.819	339.44
283.051	383.44
283.282	463.44
283.513	516.44
283.745	556.44
283.976	512.44
284.207	494.44
284.439	500.44
284.67	463.44
284.901	439.44
285.132	494.44
285.364	494.44
285.595	488.44
285.826	480.44
286.057	492.44
286.288	503.44
286.52	534.44
286.751	526.44
286.982	504.44
287.213	421.44
287.444	419.44
287.675	473.44
287.906	423.44
288.138	340.44
288.369	305.44
288.6	297.44
288.831	307.44
289.062	396.44
289.293	376.44
289.524	403.44
289.755	392.44
289.986	393.44
290.217	326.44
290.448	262.44
290.679	260.44
290.91	271.44
291.141	256.44
291.371	250.44
291.602	248.44
291.833	268.44
292.064	316.44
292.295	374.44
292.526	374.44
292.757	382.44
292.987	377.44
293.218	340.44
293.449	329.44
293.68	340.44
293.91	292.44
294.141	283.44
294.372	275.44
294.603	272.44
294.833	266.44
295.064	271.44
295.295	251.44
295.525	266.44
295.756	248.44
295.987	235.44
296.217	257.44
296.448	238.44
296.679	248.44
296.909	275.44
297.14	334.44
297.37	346.44
297.601	326.44
297.831	285.44
298.062	345.44
298.292	324.44
298.523	345.44
298.753	354.44
298.984	330.44
299.214	293.44
299.445	234.44
299.675	224.44
299.905	224.44
300.136	225.44
300.366	230.44
300.597	220.44
300.827	232.44
301.057	224.44
301.288	239.44
301.518	283.44
301.748	293.44
301.979	290.44
302.209	284.44
302.439	285.44
302.669	295.44
302.9	268.44
303.13	263.44
303.36	232.44
303.59	245.44
303.82	269.44
304.051	308.44
304.281	346.44
304.511	299.44
304.741	280.44
304.971	296.44
305.201	298.44
305.431	253.44
305.661	239.44
305.891	230.44
306.121	228.44
306.352	207.44
306.582	204.44
306.812	214.44
307.042	198.44
307.272	202.44
307.502	203.44
307.731	204.44
307.961	213.44
308.191	206.44
308.421	219.44
308.651	208.44
308.881	202.44
309.111	200.44
309.341	211.44
309.571	228.44
309.8	223.44
310.03	212.44
310.26	210.44
310.49	215.44
310.72	226.44
310.949	238.44
311.179	244.44
311.409	283.44
311.639	357.44
311.868	468.44
312.098	546.44
312.328	520.44
312.557	516.44
312.787	508.44
313.017	484.44
313.246	519.44
313.476	485.44
313.706	378.44
313.935	314.44
314.165	295.44
314.394	251.44
314.624	279.44
314.853	297.44
315.083	262.44
315.312	248.44
315.542	214.44
315.771	207.44
316.001	194.44
316.23	204.44
316.46	222.44
316.689	193.44
316.919	202.44
317.148	218.44
317.377	220.44
317.607	229.44
317.836	240.44
318.065	277.44
318.295	298.44
318.524	247.44
318.753	218.44
318.983	219.44
319.212	214.44
319.441	232.44
319.67	271.44
319.9	282.44
320.129	242.44
320.358	229.44
320.587	230.44
320.816	245.44
321.046	260.44
321.275	257.44
321.504	254.44
321.733	241.44
321.962	252.44
322.191	213.44
322.42	192.44
322.649	199.44
322.878	202.44
323.108	205.44
323.337	207.44
323.566	244.44
323.795	232.44
324.024	233.44
324.253	196.44
324.482	198.44
324.71	188.44
324.939	182.44
325.168	202.44
325.397	199.44
325.626	203.44
325.855	199.44
326.084	196.44
326.313	198.44
326.542	202.44
326.77	230.44
326.999	211.44
327.228	208.44
327.457	195.44
327.686	191.44
327.914	187.44
328.143	191.44
328.372	180.44
328.6	191.44
328.829	210.44
329.058	221.44
329.287	215.44
329.515	226.44
329.744	203.44
329.972	222.44
330.201	207.44
330.43	218.44
330.658	234.44
330.887	263.44
331.115	263.44
331.344	252.44
331.572	220.44
331.801	215.44
332.03	221.44
332.258	248.44
332.486	247.44
332.715	263.44
332.943	238.44
333.172	255.44
333.4	252.44
333.629	281.44
333.857	292.44
334.085	287.44
334.314	274.44
334.542	280.44
334.771	256.44
334.999	255.44
335.227	245.44
335.455	276.44
335.684	302.44
335.912	343.44
336.14	354.44
336.369	335.44
336.597	368.44
336.825	379.44
337.053	349.44
337.281	277.44
337.51	276.44
337.738	263.44
337.966	285.44
338.194	279.44
338.422	257.44
338.65	239.44
338.878	223.44
339.106	248.44
339.334	256.44
339.562	245.44
339.79	225.44
340.018	240.44
340.246	272.44
340.474	309.44
340.702	293.44
340.93	300.44
341.158	267.44
341.386	209.44
341.614	222.44
341.842	246.44
342.07	293.44
342.298	335.44
342.526	288.44
342.754	223.44
342.981	238.44
343.209	258.44
343.437	272.44
343.665	252.44
343.893	215.44
344.12	202.44
344.348	206.44
344.576	200.44
344.804	216.44
345.031	204.44
345.259	221.44
345.487	202.44
345.714	209.44
345.942	204.44
346.17	174.44
346.397	174.44
346.625	185.44
346.853	190.44
347.08	192.44
347.308	183.44
347.535	203.44
347.763	198.44
347.99	176.44
348.218	165.44
348.445	180.44
348.673	173.44
348.9	171.44
349.128	186.44
349.355	169.44
349.583	178.44
349.81	178.44
350.037	176.44
350.265	183.44
350.492	184.44
350.72	185.44
350.947	195.44
351.174	209.44
351.402	167.44
351.629	183.44
351.856	168.44
352.083	173.44
352.311	164.44
352.538	166.44
352.765	164.44
352.992	172.44
353.22	188.44
353.447	174.44
353.674	177.44
353.901	181.44
354.128	191.44
354.355	174.44
354.583	164.44
354.81	189.44
355.037	182.44
355.264	190.44
355.491	197.44
355.718	188.44
355.945	186.44
356.172	188.44
356.399	180.44
356.626	215.44
356.853	203.44
357.08	219.44
357.307	222.44
357.534	270.44
357.761	290.44
357.988	330.44
358.215	273.44
358.441	255.44
358.668	260.44
358.895	242.44
359.122	252.44
359.349	300.44
359.576	287.44
359.802	230.44
360.029	228.44
360.256	259.44
360.483	284.44
360.709	285.44
360.936	234.44
361.163	204.44
361.39	195.44
361.616	194.44
361.843	179.44
362.07	194.44
362.296	178.44
362.523	189.44
362.749	190.44
362.976	189.44
363.203	218.44
363.429	219.44
363.656	203.44
363.882	223.44
364.109	229.44
364.335	212.44
364.562	200.44
364.788	204.44
365.015	212.44
365.241	206.44
365.468	207.44
365.694	215.44
365.92	194.44
366.147	184.44
366.373	186.44
366.599	182.44
366.826	187.44
367.052	187.44
367.278	193.44
367.505	191.44
367.731	218.44
367.957	202.44
368.184	211.44
368.41	190.44
368.636	209.44
368.862	196.44
369.089	189.44
369.315	194.44
369.541	192.44
369.767	196.44
369.993	195.44
370.219	182.44
370.445	183.44
370.672	167.44
370.898	204.44
371.124	187.44
371.35	198.44
371.576	206.44
371.802	203.44
372.028	197.44
372.254	182.44
372.48	198.44
372.706	181.44
372.932	182.44
373.158	179.44
373.384	206.44
373.61	194.44
373.835	187.44
374.061	198.44
374.287	222.44
374.513	227.44
374.739	208.44
374.965	218.44
375.191	201.44
375.416	194.44
375.642	207.44
375.868	207.44
376.094	192.44
376.319	183.44
376.545	190.44
376.771	169.44
376.997	194.44
377.222	176.44
377.448	178.44
377.674	191.44
377.899	193.44
378.125	184.44
378.35	181.44
378.576	180.44
378.802	184.44
379.027	195.44
379.253	198.44
379.478	197.44
379.704	201.44
379.929	207.44
380.155	186.44
380.38	198.44
380.606	199.44
380.831	203.44
381.057	221.44
381.282	190.44
381.507	199.44
381.733	206.44
381.958	207.44
382.184	204.44
382.409	191.44
382.634	204.44
382.86	213.44
383.085	213.44
383.31	204.44
383.535	207.44
383.761	205.44
383.986	205.44
384.211	205.44
384.436	204.44
384.662	190.44
384.887	239.44
385.112	241.44
385.337	226.44
385.562	216.44
385.787	229.44
386.013	221.44
386.238	204.44
386.463	203.44
386.688	221.44
386.913	216.44
387.138	226.44
387.363	235.44
387.588	221.44
387.813	206.44
388.038	230.44
388.263	237.44
388.488	226.44
388.713	239.44
388.938	213.44
389.163	207.44
389.387	203.44
389.612	207.44
389.837	193.44
390.062	200.44
390.287	214.44
390.512	202.44
390.736	224.44
390.961	207.44
391.186	221.44
391.411	217.44
391.636	219.44
391.86	226.44
392.085	238.44
392.31	215.44
392.534	214.44
392.759	210.44
392.984	217.44
393.208	203.44
393.433	189.44
393.658	190.44
393.882	203.44
394.107	195.44
394.331	200.44
394.556	218.44
394.78	210.44
395.005	201.44
395.229	191.44
395.454	214.44
395.678	202.44
395.903	216.44
396.127	218.44
396.352	244.44
396.576	233.44
396.801	257.44
397.025	233.44
397.249	249.44
397.474	221.44
397.698	243.44
397.922	244.44
398.147	233.44
398.371	253.44
398.595	249.44
398.82	230.44
399.044	262.44
399.268	255.44
399.492	264.44
399.717	246.44
399.941	255.44
400.165	250.44
400.389	244.44
400.613	234.44
400.837	225.44
401.062	228.44
401.286	220.44
401.51	209.44
401.734	211.44
401.958	222.44
402.182	215.44
402.406	227.44
402.63	222.44
402.854	231.44
403.078	218.44
403.302	214.44
403.526	230.44
403.75	233.44
403.974	221.44
404.198	234.44
404.422	220.44
404.645	200.44
404.869	223.44
405.093	257.44
405.317	234.44
405.541	219.44
405.765	241.44
405.988	212.44
406.212	233.44
406.436	204.44
406.66	233.44
406.883	228.44
407.107	227.44
407.331	222.44
407.555	248.44
407.778	243.44
408.002	241.44
408.226	230.44
408.449	229.44
408.673	230.44
408.896	228.44
409.12	223.44
409.344	213.44
409.567	236.44
409.791	232.44
410.014	230.44
410.238	212.44
410.461	208.44
410.685	216.44
410.908	228.44
411.132	221.44
411.355	238.44
411.578	215.44
411.802	234.44
412.025	218.44
412.249	215.44
412.472	224.44
412.695	241.44
412.919	228.44
413.142	222.44
413.365	223.44
413.589	224.44
413.812	205.44
414.035	234.44
414.258	200.44
414.482	207.44
414.705	205.44
414.928	230.44
415.151	231.44
415.374	214.44
415.597	207.44
415.821	216.44
416.044	212.44
416.267	230.44
416.49	215.44
416.713	213.44
416.936	236.44
417.159	214.44
417.382	207.44
417.605	208.44
417.828	222.44
418.051	214.44
418.274	221.44
418.497	204.44
418.72	212.44
418.943	215.44
419.166	243.44
419.389	226.44
419.611	234.44
419.834	209.44
420.057	219.44
420.28	208.44
420.503	186.44
420.726	211.44
420.948	218.44
421.171	223.44
421.394	224.44
421.617	200.44
421.839	226.44
422.062	212.44
422.285	208.44
422.507	231.44
422.73	217.44
422.953	201.44
423.175	228.44
423.398	229.44
423.621	234.44
423.843	217.44
424.066	216.44
424.288	213.44
424.511	229.44
424.733	231.44
424.956	227.44
425.178	256.44
425.401	318.44
425.623	366.44
425.846	255.44
426.068	246.44
426.291	238.44
426.513	238.44
426.735	236.44
426.958	246.44
427.18	256.44
427.402	303.44
427.625	347.44
427.847	279.44
428.069	230.44
428.292	215.44
428.514	242.44
428.736	232.44
428.958	281.44
429.181	306.44
429.403	232.44
429.625	212.44
429.847	214.44
430.069	228.44
430.292	225.44
430.514	213.44
430.736	218.44
430.958	202.44
431.18	213.44
431.402	208.44
431.624	191.44
431.846	218.44
432.068	212.44
432.29	208.44
432.512	207.44
432.734	205.44
432.956	220.44
433.178	217.44
433.4	195.44
433.622	221.44
433.844	241.44
434.066	271.44
434.287	240.44
434.509	247.44
434.731	248.44
434.953	233.44
435.175	250.44
435.397	263.44
435.618	226.44
435.84	228.44
436.062	223.44
436.284	221.44
436.505	214.44
436.727	207.44
436.949	223.44
437.17	217.44
437.392	213.44
437.614	220.44
437.835	201.44
438.057	203.44
438.278	180.44
438.5	210.44
438.721	209.44
438.943	215.44
439.165	193.44
439.386	195.44
439.608	205.44
439.829	199.44
440.05	221.44
440.272	208.44
440.493	205.44
440.715	199.44
440.936	211.44
441.158	216.44
441.379	211.44
441.6	212.44
441.822	206.44
442.043	222.44
442.264	223.44
442.486	215.44
442.707	204.44
442.928	216.44
443.149	220.44
443.371	234.44
443.592	214.44
443.813	233.44
444.034	220.44
444.255	231.44
444.476	230.44
444.698	222.44
444.919	223.44
445.14	327.44
445.361	264.44
445.582	225.44
445.803	196.44
446.024	224.44
446.245	210.44
446.466	204.44
446.687	227.44
446.908	202.44
447.129	208.44
447.35	211.44
447.571	195.44
447.792	199.44
448.013	188.44
448.234	187.44
448.455	201.44
448.675	192.44
448.896	206.44
449.117	193.44
449.338	208.44
449.559	205.44
449.779	226.44
450	222.44
450.221	202.44
450.442	214.44
450.662	189.44
450.883	194.44
451.104	204.44
451.324	212.44
451.545	220.44
451.766	208.44
451.986	195.44
452.207	190.44
452.428	204.44
452.648	231.44
452.869	223.44
453.089	216.44
453.31	203.44
453.53	200.44
453.751	200.44
453.971	211.44
454.192	201.44
454.412	206.44
454.633	217.44
454.853	215.44
455.073	192.44
455.294	192.44
455.514	194.44
455.734	203.44
455.955	221.44
456.175	223.44
456.395	199.44
456.616	198.44
456.836	202.44
457.056	203.44
457.276	198.44
457.497	212.44
457.717	200.44
457.937	202.44
458.157	200.44
458.377	208.44
458.598	209.44
458.818	203.44
459.038	223.44
459.258	232.44
459.478	220.44
459.698	226.44
459.918	216.44
460.138	240.44
460.358	229.44
460.578	215.44
460.798	228.44
461.018	215.44
461.238	228.44
461.458	251.44
461.678	259.44
461.898	247.44
462.118	248.44
462.338	257.44
462.558	265.44
462.777	269.44
462.997	234.44
463.217	270.44
463.437	270.44
463.657	234.44
463.876	229.44
464.096	249.44
464.316	230.44
464.536	263.44
464.755	275.44
464.975	253.44
465.195	271.44
465.414	252.44
465.634	222.44
465.854	198.44
466.073	207.44
466.293	203.44
466.512	219.44
466.732	227.44
466.951	218.44
467.171	206.44
467.391	214.44
467.61	208.44
467.829	197.44
468.049	191.44
468.268	203.44
468.488	191.44
468.707	204.44
468.927	195.44
469.146	228.44
469.365	204.44
469.585	199.44
469.804	198.44
470.023	226.44
470.243	219.44
470.462	206.44
470.681	201.44
470.901	198.44
471.12	213.44
471.339	215.44
471.558	203.44
471.777	210.44
471.997	220.44
472.216	231.44
472.435	209.44
472.654	210.44
472.873	197.44
473.092	196.44
473.311	216.44
473.53	209.44
473.749	210.44
473.968	230.44
474.187	219.44
474.406	198.44
474.625	197.44
474.844	196.44
475.063	196.44
475.282	215.44
475.501	224.44
475.72	222.44
475.939	237.44
476.158	210.44
476.377	220.44
476.596	218.44
476.814	218.44
477.033	212.44
477.252	218.44
477.471	193.44
477.69	223.44
477.908	213.44
478.127	211.44
478.346	212.44
478.564	213.44
478.783	216.44
479.002	236.44
479.22	248.44
479.439	232.44
479.658	216.44
479.876	244.44
480.095	230.44
480.313	235.44
480.532	238.44
480.751	226.44
480.969	215.44
481.188	234.44
481.406	226.44
481.624	219.44
481.843	222.44
482.061	205.44
482.28	237.44
482.498	242.44
482.717	240.44
482.935	217.44
483.153	260.44
483.372	238.44
483.59	224.44
483.808	233.44
484.027	220.44
484.245	239.44
484.463	210.44
484.681	219.44
484.9	219.44
485.118	243.44
485.336	212.44
485.554	216.44
485.772	230.44
485.99	237.44
486.209	220.44
486.427	249.44
486.645	238.44
486.863	242.44
487.081	249.44
487.299	251.44
487.517	226.44
487.735	241.44
487.953	244.44
488.171	234.44
488.389	236.44
488.607	231.44
488.825	265.44
489.043	256.44
489.261	230.44
489.479	221.44
489.696	238.44
489.914	222.44
490.132	233.44
490.35	228.44
490.568	251.44
490.786	242.44
491.003	233.44
491.221	235.44
491.439	230.44
491.657	238.44
491.874	242.44
492.092	254.44
492.31	301.44
492.527	279.44
492.745	240.44
492.963	242.44
493.18	250.44
493.398	249.44
493.615	243.44
493.833	255.44
494.05	268.44
494.268	265.44
494.485	254.44
494.703	235.44
494.92	244.44
495.138	239.44
495.355	257.44
495.573	274.44
495.79	261.44
496.008	248.44
496.225	234.44
496.442	255.44
496.66	254.44
496.877	278.44
497.094	268.44
497.312	266.44
497.529	273.44
497.746	266.44
497.963	269.44
498.181	255.44
498.398	267.44
498.615	287.44
498.832	313.44
499.049	300.44
499.267	310.44
499.484	339.44
499.701	331.44
499.918	344.44
500.135	352.44
500.352	351.44
500.569	391.44
500.786	374.44
501.003	382.44
501.22	343.44
501.437	323.44
501.654	320.44
501.871	304.44
502.088	308.44
502.305	284.44
502.522	278.44
502.739	279.44
502.956	260.44
503.172	271.44
503.389	271.44
503.606	245.44
