Data from StA_HRD10591_062.txt Node
Date: Fri May 16 15:19:14 EDT 2025
User: Yrep
Spectrometer: HR+D1059
Trigger mode: 1
Integration Time (sec): 1.000000E-1
Scans to average: 1
Electric dark correction enabled: true
Nonlinearity correction enabled: false
Boxcar width: 0
XAxis mode: Wavelengths
Number of Pixels in Spectrum: 2048
>>>>>Begin Spectral Data<<<<<
223.165	-28.38
223.4	-28.38
223.635	-28.38
223.869	-13.38
224.104	-24.38
224.338	-17.38
224.573	-22.38
224.808	-26.38
225.042	2.62
225.277	-0.38
225.511	-5.38
225.746	10.62
225.98	8.62
226.215	18.62
226.449	23.62
226.683	23.62
226.918	29.62
227.152	20.62
227.387	29.62
227.621	37.62
227.856	43.62
228.09	40.62
228.324	42.62
228.559	67.62
228.793	63.62
229.027	56.62
229.262	67.62
229.496	74.62
229.73	67.62
229.964	97.62
230.199	93.62
230.433	73.62
230.667	78.62
230.901	101.62
231.136	91.62
231.37	77.62
231.604	97.62
231.838	99.62
232.072	83.62
232.306	94.62
232.541	95.62
232.775	82.62
233.009	93.62
233.243	78.62
233.477	106.62
233.711	87.62
233.945	97.62
234.179	94.62
234.413	109.62
234.647	85.62
234.881	85.62
235.115	77.62
235.349	91.62
235.583	79.62
235.817	88.62
236.051	83.62
236.285	90.62
236.519	91.62
236.753	99.62
236.987	86.62
237.221	77.62
237.455	91.62
237.689	90.62
237.922	73.62
238.156	89.62
238.39	98.62
238.624	103.62
238.858	84.62
239.091	77.62
239.325	89.62
239.559	86.62
239.793	103.62
240.027	101.62
240.26	105.62
240.494	92.62
240.728	84.62
240.961	83.62
241.195	88.62
241.429	91.62
241.662	93.62
241.896	98.62
242.13	78.62
242.363	92.62
242.597	89.62
242.83	90.62
243.064	97.62
243.298	81.62
243.531	84.62
243.765	102.62
243.998	95.62
244.232	95.62
244.465	89.62
244.699	96.62
244.932	94.62
245.166	100.62
245.399	105.62
245.633	110.62
245.866	94.62
246.099	103.62
246.333	107.62
246.566	110.62
246.8	113.62
247.033	107.62
247.266	116.62
247.5	116.62
247.733	114.62
247.966	113.62
248.2	110.62
248.433	114.62
248.666	118.62
248.899	145.62
249.133	140.62
249.366	136.62
249.599	132.62
249.832	114.62
250.066	117.62
250.299	133.62
250.532	130.62
250.765	117.62
250.998	119.62
251.231	120.62
251.465	126.62
251.698	126.62
251.931	126.62
252.164	148.62
252.397	148.62
252.63	149.62
252.863	136.62
253.096	137.62
253.329	164.62
253.562	162.62
253.795	133.62
254.028	141.62
254.261	149.62
254.494	162.62
254.727	153.62
254.96	135.62
255.193	140.62
255.426	141.62
255.659	144.62
255.892	138.62
256.124	153.62
256.357	151.62
256.59	143.62
256.823	147.62
257.056	156.62
257.289	158.62
257.521	163.62
257.754	158.62
257.987	165.62
258.22	190.62
258.452	158.62
258.685	150.62
258.918	161.62
259.151	158.62
259.383	161.62
259.616	157.62
259.849	155.62
260.081	155.62
260.314	158.62
260.547	159.62
260.779	148.62
261.012	175.62
261.244	177.62
261.477	171.62
261.71	177.62
261.942	160.62
262.175	185.62
262.407	195.62
262.64	189.62
262.872	191.62
263.105	182.62
263.337	176.62
263.57	177.62
263.802	173.62
264.035	170.62
264.267	183.62
264.499	172.62
264.732	187.62
264.964	169.62
265.197	175.62
265.429	182.62
265.661	222.62
265.894	233.62
266.126	261.62
266.358	291.62
266.591	310.62
266.823	303.62
267.055	320.62
267.287	311.62
267.52	335.62
267.752	342.62
267.984	369.62
268.216	285.62
268.448	215.62
268.681	252.62
268.913	273.62
269.145	284.62
269.377	299.62
269.609	254.62
269.841	259.62
270.073	309.62
270.306	269.62
270.538	233.62
270.77	238.62
271.002	258.62
271.234	255.62
271.466	231.62
271.698	219.62
271.93	217.62
272.162	243.62
272.394	249.62
272.626	244.62
272.858	230.62
273.09	210.62
273.322	201.62
273.553	196.62
273.785	200.62
274.017	226.62
274.249	286.62
274.481	310.62
274.713	305.62
274.945	344.62
275.176	363.62
275.408	344.62
275.64	334.62
275.872	379.62
276.104	429.62
276.335	421.62
276.567	425.62
276.799	427.62
277.031	357.62
277.262	275.62
277.494	276.62
277.726	260.62
277.957	284.62
278.189	291.62
278.421	327.62
278.652	293.62
278.884	298.62
279.115	274.62
279.347	278.62
279.579	257.62
279.81	245.62
280.042	265.62
280.273	281.62
280.505	241.62
280.736	245.62
280.968	246.62
281.199	283.62
281.431	311.62
281.662	287.62
281.894	333.62
282.125	355.62
282.356	375.62
282.588	359.62
282.819	340.62
283.051	389.62
283.282	456.62
283.513	521.62
283.745	565.62
283.976	518.62
284.207	517.62
284.439	535.62
284.67	469.62
284.901	467.62
285.132	525.62
285.364	501.62
285.595	505.62
285.826	522.62
286.057	542.62
286.288	513.62
286.52	541.62
286.751	550.62
286.982	499.62
287.213	440.62
287.444	447.62
287.675	466.62
287.906	428.62
288.138	349.62
288.369	327.62
288.6	319.62
288.831	319.62
289.062	404.62
289.293	413.62
289.524	397.62
289.755	414.62
289.986	399.62
290.217	335.62
290.448	258.62
290.679	268.62
290.91	247.62
291.141	268.62
291.371	268.62
291.602	277.62
291.833	274.62
292.064	293.62
292.295	361.62
292.526	380.62
292.757	395.62
292.987	396.62
293.218	356.62
293.449	346.62
293.68	346.62
293.91	294.62
294.141	275.62
294.372	259.62
294.603	243.62
294.833	268.62
295.064	265.62
295.295	260.62
295.525	248.62
295.756	229.62
295.987	231.62
296.217	247.62
296.448	258.62
296.679	281.62
296.909	281.62
297.14	318.62
297.37	373.62
297.601	322.62
297.831	301.62
298.062	335.62
298.292	353.62
298.523	355.62
298.753	374.62
298.984	345.62
299.214	291.62
299.445	258.62
299.675	252.62
299.905	243.62
300.136	232.62
300.366	215.62
300.597	212.62
300.827	233.62
301.057	211.62
301.288	253.62
301.518	271.62
301.748	281.62
301.979	291.62
302.209	265.62
302.439	293.62
302.669	300.62
302.9	314.62
303.13	254.62
303.36	255.62
303.59	264.62
303.82	269.62
304.051	316.62
304.281	331.62
304.511	294.62
304.741	282.62
304.971	301.62
305.201	304.62
305.431	259.62
305.661	250.62
305.891	226.62
306.121	203.62
306.352	207.62
306.582	200.62
306.812	191.62
307.042	196.62
307.272	199.62
307.502	185.62
307.731	200.62
307.961	207.62
308.191	203.62
308.421	195.62
308.651	197.62
308.881	221.62
309.111	218.62
309.341	229.62
309.571	247.62
309.8	219.62
310.03	214.62
310.26	209.62
310.49	243.62
310.72	237.62
310.949	247.62
311.179	261.62
311.409	303.62
311.639	349.62
311.868	484.62
312.098	557.62
312.328	555.62
312.557	514.62
312.787	532.62
313.017	505.62
313.246	551.62
313.476	517.62
313.706	398.62
313.935	309.62
314.165	281.62
314.394	259.62
314.624	279.62
314.853	270.62
315.083	278.62
315.312	251.62
315.542	229.62
315.771	198.62
316.001	214.62
316.23	213.62
316.46	198.62
316.689	198.62
316.919	221.62
317.148	201.62
317.377	224.62
317.607	229.62
317.836	245.62
318.065	290.62
318.295	318.62
318.524	270.62
318.753	233.62
318.983	199.62
319.212	221.62
319.441	231.62
319.67	261.62
319.9	292.62
320.129	239.62
320.358	231.62
320.587	236.62
320.816	263.62
321.046	263.62
321.275	269.62
321.504	237.62
321.733	258.62
321.962	260.62
322.191	234.62
322.42	187.62
322.649	200.62
322.878	216.62
323.108	218.62
323.337	213.62
323.566	237.62
323.795	217.62
324.024	223.62
324.253	209.62
324.482	195.62
324.71	195.62
324.939	193.62
325.168	206.62
325.397	197.62
325.626	198.62
325.855	187.62
326.084	201.62
326.313	190.62
326.542	196.62
326.77	219.62
326.999	227.62
327.228	217.62
327.457	187.62
327.686	177.62
327.914	189.62
328.143	165.62
328.372	172.62
328.6	197.62
328.829	197.62
329.058	209.62
329.287	221.62
329.515	226.62
329.744	209.62
329.972	206.62
330.201	203.62
330.43	225.62
330.658	241.62
330.887	249.62
331.115	272.62
331.344	267.62
331.572	251.62
331.801	218.62
332.03	237.62
332.258	238.62
332.486	254.62
332.715	236.62
332.943	227.62
333.172	242.62
333.4	268.62
333.629	291.62
333.857	301.62
334.085	309.62
334.314	279.62
334.542	272.62
334.771	258.62
334.999	253.62
335.227	249.62
335.455	274.62
335.684	319.62
335.912	349.62
336.14	380.62
336.369	345.62
336.597	352.62
336.825	394.62
337.053	358.62
337.281	267.62
337.51	262.62
337.738	258.62
337.966	297.62
338.194	280.62
338.422	256.62
338.65	228.62
338.878	217.62
339.106	244.62
339.334	255.62
339.562	252.62
339.79	245.62
340.018	258.62
340.246	291.62
340.474	312.62
340.702	299.62
340.93	309.62
341.158	301.62
341.386	235.62
341.614	223.62
341.842	246.62
342.07	281.62
342.298	339.62
342.526	300.62
342.754	225.62
342.981	243.62
343.209	259.62
343.437	269.62
343.665	236.62
343.893	211.62
344.12	205.62
344.348	209.62
344.576	198.62
344.804	202.62
345.031	194.62
345.259	200.62
345.487	220.62
345.714	226.62
345.942	205.62
346.17	192.62
346.397	198.62
346.625	165.62
346.853	191.62
347.08	177.62
347.308	190.62
347.535	177.62
347.763	179.62
347.99	194.62
348.218	185.62
348.445	195.62
348.673	195.62
348.9	192.62
349.128	185.62
349.355	186.62
349.583	156.62
349.81	182.62
350.037	176.62
350.265	168.62
350.492	177.62
350.72	170.62
350.947	165.62
351.174	186.62
351.402	197.62
351.629	195.62
351.856	181.62
352.083	169.62
352.311	177.62
352.538	180.62
352.765	168.62
352.992	158.62
353.22	187.62
353.447	189.62
353.674	186.62
353.901	183.62
354.128	171.62
354.355	165.62
354.583	170.62
354.81	181.62
355.037	201.62
355.264	191.62
355.491	205.62
355.718	200.62
355.945	195.62
356.172	192.62
356.399	167.62
356.626	195.62
356.853	204.62
357.08	206.62
357.307	237.62
357.534	263.62
357.761	316.62
357.988	347.62
358.215	266.62
358.441	247.62
358.668	241.62
358.895	248.62
359.122	258.62
359.349	293.62
359.576	307.62
359.802	231.62
360.029	213.62
360.256	241.62
360.483	286.62
360.709	283.62
360.936	237.62
361.163	196.62
361.39	185.62
361.616	187.62
361.843	162.62
362.07	181.62
362.296	189.62
362.523	180.62
362.749	198.62
362.976	191.62
363.203	219.62
363.429	210.62
363.656	213.62
363.882	219.62
364.109	224.62
364.335	207.62
364.562	197.62
364.788	198.62
365.015	199.62
365.241	190.62
365.468	215.62
365.694	199.62
365.92	187.62
366.147	180.62
366.373	189.62
366.599	189.62
366.826	191.62
367.052	191.62
367.278	172.62
367.505	200.62
367.731	211.62
367.957	214.62
368.184	182.62
368.41	202.62
368.636	205.62
368.862	185.62
369.089	180.62
369.315	172.62
369.541	181.62
369.767	179.62
369.993	188.62
370.219	194.62
370.445	201.62
370.672	189.62
370.898	179.62
371.124	200.62
371.35	202.62
371.576	198.62
371.802	201.62
372.028	168.62
372.254	168.62
372.48	162.62
372.706	170.62
372.932	186.62
373.158	188.62
373.384	195.62
373.61	188.62
373.835	185.62
374.061	211.62
374.287	212.62
374.513	227.62
374.739	217.62
374.965	218.62
375.191	201.62
375.416	191.62
375.642	197.62
375.868	205.62
376.094	195.62
376.319	174.62
376.545	192.62
376.771	175.62
376.997	185.62
377.222	185.62
377.448	168.62
377.674	176.62
377.899	171.62
378.125	198.62
378.35	168.62
378.576	202.62
378.802	193.62
379.027	188.62
379.253	217.62
379.478	184.62
379.704	197.62
379.929	199.62
380.155	186.62
380.38	188.62
380.606	200.62
380.831	197.62
381.057	196.62
381.282	200.62
381.507	191.62
381.733	199.62
381.958	190.62
382.184	222.62
382.409	210.62
382.634	215.62
382.86	205.62
383.085	189.62
383.31	206.62
383.535	216.62
383.761	206.62
383.986	225.62
384.211	221.62
384.436	181.62
384.662	216.62
384.887	227.62
385.112	245.62
385.337	245.62
385.562	212.62
385.787	209.62
386.013	220.62
386.238	197.62
386.463	215.62
386.688	241.62
386.913	218.62
387.138	217.62
387.363	229.62
387.588	223.62
387.813	220.62
388.038	205.62
388.263	215.62
388.488	225.62
388.713	199.62
388.938	207.62
389.163	217.62
389.387	205.62
389.612	201.62
389.837	197.62
390.062	203.62
390.287	223.62
390.512	218.62
390.736	212.62
390.961	211.62
391.186	213.62
391.411	233.62
391.636	237.62
391.86	236.62
392.085	225.62
392.31	219.62
392.534	223.62
392.759	208.62
392.984	200.62
393.208	190.62
393.433	201.62
393.658	199.62
393.882	200.62
394.107	190.62
394.331	217.62
394.556	200.62
394.78	189.62
395.005	202.62
395.229	205.62
395.454	199.62
395.678	192.62
395.903	194.62
396.127	207.62
396.352	232.62
396.576	233.62
396.801	254.62
397.025	269.62
397.249	245.62
397.474	212.62
397.698	232.62
397.922	265.62
398.147	238.62
398.371	242.62
398.595	241.62
398.82	235.62
399.044	252.62
399.268	277.62
399.492	266.62
399.717	249.62
399.941	231.62
400.165	244.62
400.389	229.62
400.613	223.62
400.837	203.62
401.062	211.62
401.286	225.62
401.51	227.62
401.734	209.62
401.958	211.62
402.182	224.62
402.406	221.62
402.63	205.62
402.854	220.62
403.078	233.62
403.302	220.62
403.526	217.62
403.75	228.62
403.974	237.62
404.198	226.62
404.422	213.62
404.645	227.62
404.869	247.62
405.093	232.62
405.317	244.62
405.541	242.62
405.765	245.62
405.988	225.62
406.212	219.62
406.436	239.62
406.66	214.62
406.883	234.62
407.107	220.62
407.331	225.62
407.555	238.62
407.778	247.62
408.002	237.62
408.226	234.62
408.449	239.62
408.673	227.62
408.896	233.62
409.12	226.62
409.344	222.62
409.567	215.62
409.791	221.62
410.014	230.62
410.238	227.62
410.461	238.62
410.685	227.62
410.908	225.62
411.132	226.62
411.355	215.62
411.578	226.62
411.802	239.62
412.025	236.62
412.249	202.62
412.472	227.62
412.695	244.62
412.919	245.62
413.142	236.62
413.365	226.62
413.589	245.62
413.812	222.62
414.035	210.62
414.258	209.62
414.482	223.62
414.705	228.62
414.928	214.62
415.151	230.62
415.374	225.62
415.597	211.62
415.821	221.62
416.044	214.62
416.267	226.62
416.49	230.62
416.713	202.62
416.936	222.62
417.159	225.62
417.382	222.62
417.605	213.62
417.828	207.62
418.051	197.62
418.274	198.62
418.497	210.62
418.72	222.62
418.943	225.62
419.166	237.62
419.389	238.62
419.611	218.62
419.834	232.62
420.057	211.62
420.28	213.62
420.503	237.62
420.726	217.62
420.948	227.62
421.171	219.62
421.394	205.62
421.617	219.62
421.839	225.62
422.062	228.62
422.285	220.62
422.507	226.62
422.73	222.62
422.953	220.62
423.175	220.62
423.398	202.62
423.621	213.62
423.843	222.62
424.066	231.62
424.288	225.62
424.511	225.62
424.733	221.62
424.956	226.62
425.178	257.62
425.401	313.62
425.623	355.62
425.846	264.62
426.068	230.62
426.291	236.62
426.513	229.62
426.735	229.62
426.958	235.62
427.18	240.62
427.402	289.62
427.625	347.62
427.847	272.62
428.069	246.62
428.292	223.62
428.514	216.62
428.736	233.62
428.958	295.62
429.181	310.62
429.403	253.62
429.625	232.62
429.847	216.62
430.069	218.62
430.292	219.62
430.514	225.62
430.736	205.62
430.958	206.62
431.18	209.62
431.402	197.62
431.624	187.62
431.846	209.62
432.068	187.62
432.29	204.62
432.512	192.62
432.734	210.62
432.956	201.62
433.178	202.62
433.4	191.62
433.622	235.62
433.844	241.62
434.066	260.62
434.287	253.62
434.509	258.62
434.731	244.62
434.953	246.62
435.175	261.62
435.397	244.62
435.618	209.62
435.84	215.62
436.062	208.62
436.284	204.62
436.505	207.62
436.727	216.62
436.949	226.62
437.17	219.62
437.392	214.62
437.614	208.62
437.835	197.62
438.057	199.62
438.278	194.62
438.5	210.62
438.721	228.62
438.943	197.62
439.165	202.62
439.386	218.62
439.608	201.62
439.829	209.62
440.05	198.62
440.272	197.62
440.493	208.62
440.715	203.62
440.936	202.62
441.158	226.62
441.379	228.62
441.6	213.62
441.822	215.62
442.043	215.62
442.264	213.62
442.486	218.62
442.707	209.62
442.928	221.62
443.149	215.62
443.371	219.62
443.592	220.62
443.813	216.62
444.034	209.62
444.255	201.62
444.476	204.62
444.698	237.62
444.919	215.62
445.14	306.62
445.361	261.62
445.582	219.62
445.803	220.62
446.024	209.62
446.245	212.62
446.466	212.62
446.687	211.62
446.908	204.62
447.129	222.62
447.35	209.62
447.571	201.62
447.792	191.62
448.013	212.62
448.234	186.62
448.455	207.62
448.675	201.62
448.896	202.62
449.117	210.62
449.338	228.62
449.559	208.62
449.779	225.62
450	227.62
450.221	229.62
450.442	210.62
450.662	202.62
450.883	193.62
451.104	198.62
451.324	201.62
451.545	223.62
451.766	212.62
451.986	228.62
452.207	203.62
452.428	199.62
452.648	218.62
452.869	217.62
453.089	205.62
453.31	216.62
453.53	203.62
453.751	206.62
453.971	211.62
454.192	214.62
454.412	197.62
454.633	217.62
454.853	218.62
455.073	192.62
455.294	180.62
455.514	202.62
455.734	223.62
455.955	217.62
456.175	211.62
456.395	198.62
456.616	191.62
456.836	197.62
457.056	187.62
457.276	191.62
457.497	185.62
457.717	182.62
457.937	179.62
458.157	209.62
458.377	197.62
458.598	184.62
458.818	211.62
459.038	228.62
459.258	227.62
459.478	229.62
459.698	218.62
459.918	219.62
460.138	233.62
460.358	233.62
460.578	212.62
460.798	214.62
461.018	202.62
461.238	231.62
461.458	233.62
461.678	246.62
461.898	267.62
462.118	245.62
462.338	247.62
462.558	245.62
462.777	258.62
462.997	243.62
463.217	252.62
463.437	248.62
463.657	258.62
463.876	221.62
464.096	239.62
464.316	248.62
464.536	256.62
464.755	295.62
464.975	278.62
465.195	276.62
465.414	264.62
465.634	220.62
465.854	186.62
466.073	204.62
466.293	196.62
466.512	219.62
466.732	227.62
466.951	221.62
467.171	210.62
467.391	203.62
467.61	183.62
467.829	197.62
468.049	185.62
468.268	195.62
468.488	191.62
468.707	209.62
468.927	194.62
469.146	196.62
469.365	185.62
469.585	200.62
469.804	210.62
470.023	211.62
470.243	216.62
470.462	213.62
470.681	209.62
470.901	207.62
471.12	198.62
471.339	192.62
471.558	195.62
471.777	223.62
471.997	221.62
472.216	223.62
472.435	204.62
472.654	205.62
472.873	205.62
473.092	216.62
473.311	204.62
473.53	198.62
473.749	197.62
473.968	213.62
474.187	199.62
474.406	197.62
474.625	185.62
474.844	202.62
475.063	195.62
475.282	210.62
475.501	206.62
475.72	254.62
475.939	234.62
476.158	199.62
476.377	212.62
476.596	219.62
476.814	210.62
477.033	209.62
477.252	226.62
477.471	235.62
477.69	207.62
477.908	214.62
478.127	229.62
478.346	220.62
478.564	222.62
478.783	218.62
479.002	249.62
479.22	252.62
479.439	229.62
479.658	237.62
479.876	220.62
480.095	218.62
480.313	248.62
480.532	240.62
480.751	240.62
480.969	229.62
481.188	223.62
481.406	226.62
481.624	206.62
481.843	215.62
482.061	209.62
482.28	225.62
482.498	236.62
482.717	237.62
482.935	213.62
483.153	222.62
483.372	213.62
483.59	238.62
483.808	229.62
484.027	206.62
484.245	222.62
484.463	225.62
484.681	237.62
484.9	209.62
485.118	214.62
485.336	231.62
485.554	247.62
485.772	220.62
485.99	238.62
486.209	243.62
486.427	247.62
486.645	241.62
486.863	242.62
487.081	244.62
487.299	233.62
487.517	251.62
487.735	252.62
487.953	245.62
488.171	252.62
488.389	238.62
488.607	225.62
488.825	247.62
489.043	259.62
489.261	232.62
489.479	214.62
489.696	226.62
489.914	229.62
490.132	233.62
490.35	240.62
490.568	236.62
490.786	230.62
491.003	246.62
491.221	239.62
491.439	223.62
491.657	231.62
491.874	227.62
492.092	238.62
492.31	294.62
492.527	291.62
492.745	247.62
492.963	241.62
493.18	242.62
493.398	241.62
493.615	261.62
493.833	237.62
494.05	253.62
494.268	243.62
494.485	254.62
494.703	244.62
494.92	232.62
495.138	231.62
495.355	228.62
495.573	264.62
495.79	248.62
496.008	236.62
496.225	242.62
496.442	247.62
496.66	255.62
496.877	238.62
497.094	243.62
497.312	255.62
497.529	256.62
497.746	274.62
497.963	280.62
498.181	263.62
498.398	283.62
498.615	290.62
498.832	299.62
499.049	318.62
499.267	318.62
499.484	325.62
499.701	348.62
499.918	354.62
500.135	357.62
500.352	357.62
500.569	342.62
500.786	363.62
501.003	367.62
501.22	361.62
501.437	336.62
501.654	309.62
501.871	298.62
502.088	293.62
502.305	289.62
502.522	262.62
502.739	281.62
502.956	278.62
503.172	265.62
503.389	257.62
503.606	250.62
