Data from StA_HRD10591_010.txt Node
Date: Fri May 16 15:18:49 EDT 2025
User: Yrep
Spectrometer: HR+D1059
Trigger mode: 1
Integration Time (sec): 1.000000E-1
Scans to average: 1
Electric dark correction enabled: true
Nonlinearity correction enabled: false
Boxcar width: 0
XAxis mode: Wavelengths
Number of Pixels in Spectrum: 2048
>>>>>Begin Spectral Data<<<<<
223.165	-16.12
223.4	-16.12
223.635	-16.12
223.869	-13.12
224.104	-38.12
224.338	-4.12
224.573	5.88
224.808	-22.12
225.042	-16.12
225.277	-18.12
225.511	-6.12
225.746	0.88
225.98	14.88
226.215	6.88
226.449	16.88
226.683	14.88
226.918	31.88
227.152	41.88
227.387	42.88
227.621	46.88
227.856	42.88
228.09	45.88
228.324	55.88
228.559	65.88
228.793	66.88
229.027	71.88
229.262	69.88
229.496	103.88
229.73	74.88
229.964	94.88
230.199	86.88
230.433	82.88
230.667	92.88
230.901	77.88
231.136	89.88
231.37	94.88
231.604	91.88
231.838	102.88
232.072	86.88
232.306	86.88
232.541	90.88
232.775	86.88
233.009	92.88
233.243	100.88
233.477	99.88
233.711	104.88
233.945	103.88
234.179	87.88
234.413	92.88
234.647	78.88
234.881	77.88
235.115	99.88
235.349	94.88
235.583	87.88
235.817	81.88
236.051	85.88
236.285	70.88
236.519	88.88
236.753	99.88
236.987	104.88
237.221	85.88
237.455	85.88
237.689	95.88
237.922	99.88
238.156	87.88
238.39	97.88
238.624	100.88
238.858	79.88
239.091	86.88
239.325	95.88
239.559	91.88
239.793	95.88
240.027	100.88
240.26	97.88
240.494	95.88
240.728	80.88
240.961	97.88
241.195	107.88
241.429	104.88
241.662	83.88
241.896	95.88
242.13	86.88
242.363	104.88
242.597	79.88
242.83	97.88
243.064	101.88
243.298	89.88
243.531	94.88
243.765	85.88
243.998	84.88
244.232	104.88
244.465	109.88
244.699	92.88
244.932	97.88
245.166	107.88
245.399	102.88
245.633	101.88
245.866	110.88
246.099	101.88
246.333	109.88
246.566	111.88
246.8	110.88
247.033	110.88
247.266	118.88
247.5	110.88
247.733	117.88
247.966	109.88
248.2	122.88
248.433	127.88
248.666	122.88
248.899	116.88
249.133	125.88
249.366	133.88
249.599	141.88
249.832	126.88
250.066	137.88
250.299	131.88
250.532	118.88
250.765	126.88
250.998	128.88
251.231	137.88
251.465	117.88
251.698	116.88
251.931	135.88
252.164	135.88
252.397	146.88
252.63	152.88
252.863	142.88
253.096	147.88
253.329	131.88
253.562	148.88
253.795	134.88
254.028	137.88
254.261	151.88
254.494	141.88
254.727	140.88
254.96	143.88
255.193	143.88
255.426	149.88
255.659	129.88
255.892	130.88
256.124	148.88
256.357	144.88
256.59	162.88
256.823	148.88
257.056	162.88
257.289	166.88
257.521	159.88
257.754	139.88
257.987	142.88
258.22	168.88
258.452	155.88
258.685	158.88
258.918	151.88
259.151	167.88
259.383	164.88
259.616	148.88
259.849	159.88
260.081	159.88
260.314	156.88
260.547	175.88
260.779	173.88
261.012	172.88
261.244	194.88
261.477	168.88
261.71	183.88
261.942	172.88
262.175	192.88
262.407	189.88
262.64	181.88
262.872	174.88
263.105	183.88
263.337	187.88
263.57	182.88
263.802	172.88
264.035	171.88
264.267	156.88
264.499	170.88
264.732	151.88
264.964	182.88
265.197	190.88
265.429	192.88
265.661	209.88
265.894	220.88
266.126	236.88
266.358	267.88
266.591	299.88
266.823	321.88
267.055	301.88
267.287	310.88
267.52	313.88
267.752	331.88
267.984	354.88
268.216	302.88
268.448	238.88
268.681	232.88
268.913	270.88
269.145	268.88
269.377	262.88
269.609	265.88
269.841	259.88
270.073	309.88
270.306	276.88
270.538	241.88
270.77	220.88
271.002	252.88
271.234	254.88
271.466	227.88
271.698	211.88
271.93	231.88
272.162	260.88
272.394	258.88
272.626	249.88
272.858	231.88
273.09	208.88
273.322	197.88
273.553	188.88
273.785	210.88
274.017	236.88
274.249	266.88
274.481	298.88
274.713	319.88
274.945	303.88
275.176	359.88
275.408	354.88
275.64	340.88
275.872	385.88
276.104	412.88
276.335	426.88
276.567	414.88
276.799	403.88
277.031	341.88
277.262	274.88
277.494	259.88
277.726	254.88
277.957	292.88
278.189	310.88
278.421	287.88
278.652	289.88
278.884	285.88
279.115	274.88
279.347	270.88
279.579	242.88
279.81	233.88
280.042	275.88
280.273	278.88
280.505	220.88
280.736	245.88
280.968	241.88
281.199	298.88
281.431	295.88
281.662	292.88
281.894	326.88
282.125	358.88
282.356	373.88
282.588	345.88
282.819	324.88
283.051	380.88
283.282	449.88
283.513	516.88
283.745	552.88
283.976	517.88
284.207	487.88
284.439	495.88
284.67	468.88
284.901	447.88
285.132	510.88
285.364	491.88
285.595	501.88
285.826	517.88
286.057	478.88
286.288	505.88
286.52	540.88
286.751	547.88
286.982	482.88
287.213	442.88
287.444	423.88
287.675	463.88
287.906	429.88
288.138	342.88
288.369	315.88
288.6	297.88
288.831	320.88
289.062	395.88
289.293	390.88
289.524	389.88
289.755	418.88
289.986	414.88
290.217	329.88
290.448	263.88
290.679	259.88
290.91	239.88
291.141	266.88
291.371	286.88
291.602	271.88
291.833	281.88
292.064	282.88
292.295	369.88
292.526	367.88
292.757	367.88
292.987	406.88
293.218	363.88
293.449	347.88
293.68	340.88
293.91	301.88
294.141	289.88
294.372	263.88
294.603	241.88
294.833	285.88
295.064	265.88
295.295	269.88
295.525	248.88
295.756	258.88
295.987	225.88
296.217	235.88
296.448	231.88
296.679	237.88
296.909	281.88
297.14	314.88
297.37	345.88
297.601	331.88
297.831	292.88
298.062	325.88
298.292	318.88
298.523	344.88
298.753	355.88
298.984	327.88
299.214	282.88
299.445	255.88
299.675	221.88
299.905	236.88
300.136	229.88
300.366	211.88
300.597	215.88
300.827	227.88
301.057	223.88
301.288	254.88
301.518	264.88
301.748	297.88
301.979	291.88
302.209	277.88
302.439	283.88
302.669	286.88
302.9	309.88
303.13	255.88
303.36	239.88
303.59	263.88
303.82	284.88
304.051	331.88
304.281	340.88
304.511	317.88
304.741	282.88
304.971	297.88
305.201	304.88
305.431	258.88
305.661	229.88
305.891	225.88
306.121	216.88
306.352	187.88
306.582	194.88
306.812	185.88
307.042	195.88
307.272	216.88
307.502	203.88
307.731	190.88
307.961	221.88
308.191	206.88
308.421	196.88
308.651	218.88
308.881	212.88
309.111	208.88
309.341	222.88
309.571	234.88
309.8	219.88
310.03	207.88
310.26	212.88
310.49	229.88
310.72	229.88
310.949	230.88
311.179	241.88
311.409	297.88
311.639	351.88
311.868	480.88
312.098	532.88
312.328	533.88
312.557	543.88
312.787	491.88
313.017	460.88
313.246	532.88
313.476	506.88
313.706	392.88
313.935	313.88
314.165	266.88
314.394	245.88
314.624	255.88
314.853	277.88
315.083	280.88
315.312	246.88
315.542	213.88
315.771	199.88
316.001	203.88
316.23	204.88
316.46	200.88
316.689	206.88
316.919	223.88
317.148	198.88
317.377	213.88
317.607	212.88
317.836	244.88
318.065	291.88
318.295	307.88
318.524	254.88
318.753	209.88
318.983	204.88
319.212	206.88
319.441	231.88
319.67	274.88
319.9	278.88
320.129	246.88
320.358	249.88
320.587	243.88
320.816	268.88
321.046	286.88
321.275	252.88
321.504	221.88
321.733	268.88
321.962	260.88
322.191	212.88
322.42	191.88
322.649	200.88
322.878	206.88
323.108	207.88
323.337	220.88
323.566	229.88
323.795	251.88
324.024	243.88
324.253	197.88
324.482	187.88
324.71	197.88
324.939	185.88
325.168	190.88
325.397	205.88
325.626	173.88
325.855	184.88
326.084	213.88
326.313	211.88
326.542	185.88
326.77	201.88
326.999	204.88
327.228	211.88
327.457	189.88
327.686	189.88
327.914	182.88
328.143	204.88
328.372	190.88
328.6	183.88
328.829	206.88
329.058	198.88
329.287	234.88
329.515	210.88
329.744	221.88
329.972	203.88
330.201	198.88
330.43	214.88
330.658	240.88
330.887	254.88
331.115	265.88
331.344	250.88
331.572	248.88
331.801	231.88
332.03	216.88
332.258	243.88
332.486	254.88
332.715	237.88
332.943	219.88
333.172	245.88
333.4	252.88
333.629	294.88
333.857	292.88
334.085	317.88
334.314	301.88
334.542	253.88
334.771	246.88
334.999	253.88
335.227	238.88
335.455	272.88
335.684	299.88
335.912	335.88
336.14	353.88
336.369	347.88
336.597	353.88
336.825	395.88
337.053	363.88
337.281	277.88
337.51	236.88
337.738	250.88
337.966	254.88
338.194	282.88
338.422	245.88
338.65	218.88
338.878	201.88
339.106	231.88
339.334	234.88
339.562	255.88
339.79	245.88
340.018	230.88
340.246	277.88
340.474	320.88
340.702	301.88
340.93	302.88
341.158	270.88
341.386	227.88
341.614	217.88
341.842	252.88
342.07	286.88
342.298	330.88
342.526	286.88
342.754	220.88
342.981	236.88
343.209	234.88
343.437	269.88
343.665	242.88
343.893	231.88
344.12	209.88
344.348	208.88
344.576	197.88
344.804	203.88
345.031	197.88
345.259	202.88
345.487	213.88
345.714	207.88
345.942	197.88
346.17	191.88
346.397	179.88
346.625	193.88
346.853	186.88
347.08	188.88
347.308	196.88
347.535	189.88
347.763	183.88
347.99	176.88
348.218	170.88
348.445	170.88
348.673	161.88
348.9	173.88
349.128	181.88
349.355	164.88
349.583	186.88
349.81	181.88
350.037	163.88
350.265	166.88
350.492	159.88
350.72	201.88
350.947	165.88
351.174	186.88
351.402	176.88
351.629	167.88
351.856	186.88
352.083	155.88
352.311	177.88
352.538	173.88
352.765	170.88
352.992	174.88
353.22	175.88
353.447	175.88
353.674	186.88
353.901	170.88
354.128	180.88
354.355	165.88
354.583	172.88
354.81	191.88
355.037	203.88
355.264	205.88
355.491	199.88
355.718	192.88
355.945	178.88
356.172	190.88
356.399	203.88
356.626	185.88
356.853	191.88
357.08	206.88
357.307	218.88
357.534	254.88
357.761	295.88
357.988	321.88
358.215	279.88
358.441	250.88
358.668	245.88
358.895	217.88
359.122	243.88
359.349	282.88
359.576	292.88
359.802	194.88
360.029	221.88
360.256	247.88
360.483	275.88
360.709	295.88
360.936	219.88
361.163	211.88
361.39	197.88
361.616	191.88
361.843	203.88
362.07	181.88
362.296	168.88
362.523	179.88
362.749	207.88
362.976	189.88
363.203	210.88
363.429	201.88
363.656	211.88
363.882	230.88
364.109	214.88
364.335	193.88
364.562	200.88
364.788	194.88
365.015	209.88
365.241	203.88
365.468	204.88
365.694	187.88
365.92	185.88
366.147	178.88
366.373	191.88
366.599	191.88
366.826	198.88
367.052	197.88
367.278	177.88
367.505	202.88
367.731	210.88
367.957	216.88
368.184	197.88
368.41	188.88
368.636	198.88
368.862	199.88
369.089	188.88
369.315	187.88
369.541	168.88
369.767	178.88
369.993	185.88
370.219	168.88
370.445	176.88
370.672	197.88
370.898	196.88
371.124	185.88
371.35	205.88
371.576	188.88
371.802	186.88
372.028	165.88
372.254	186.88
372.48	175.88
372.706	185.88
372.932	185.88
373.158	185.88
373.384	183.88
373.61	185.88
373.835	199.88
374.061	197.88
374.287	200.88
374.513	233.88
374.739	207.88
374.965	202.88
375.191	175.88
375.416	182.88
375.642	191.88
375.868	179.88
376.094	170.88
376.319	174.88
376.545	198.88
376.771	200.88
376.997	199.88
377.222	175.88
377.448	164.88
377.674	181.88
377.899	180.88
378.125	195.88
378.35	190.88
378.576	186.88
378.802	194.88
379.027	189.88
379.253	193.88
379.478	201.88
379.704	204.88
379.929	194.88
380.155	195.88
380.38	187.88
380.606	190.88
380.831	191.88
381.057	185.88
381.282	185.88
381.507	202.88
381.733	194.88
381.958	218.88
382.184	210.88
382.409	194.88
382.634	202.88
382.86	194.88
383.085	195.88
383.31	200.88
383.535	203.88
383.761	197.88
383.986	222.88
384.211	213.88
384.436	206.88
384.662	205.88
384.887	225.88
385.112	242.88
385.337	216.88
385.562	232.88
385.787	199.88
386.013	201.88
386.238	215.88
386.463	215.88
386.688	219.88
386.913	213.88
387.138	221.88
387.363	205.88
387.588	207.88
387.813	225.88
388.038	223.88
388.263	225.88
388.488	219.88
388.713	225.88
388.938	209.88
389.163	199.88
389.387	201.88
389.612	230.88
389.837	199.88
390.062	199.88
390.287	210.88
390.512	204.88
390.736	223.88
390.961	231.88
391.186	227.88
391.411	213.88
391.636	214.88
391.86	233.88
392.085	232.88
392.31	221.88
392.534	211.88
392.759	199.88
392.984	201.88
393.208	204.88
393.433	206.88
393.658	188.88
393.882	198.88
394.107	209.88
394.331	199.88
394.556	203.88
394.78	186.88
395.005	195.88
395.229	205.88
395.454	209.88
395.678	197.88
395.903	223.88
396.127	213.88
396.352	239.88
396.576	257.88
396.801	231.88
397.025	259.88
397.249	239.88
397.474	226.88
397.698	235.88
397.922	255.88
398.147	235.88
398.371	230.88
398.595	249.88
398.82	226.88
399.044	254.88
399.268	269.88
399.492	247.88
399.717	252.88
399.941	244.88
400.165	247.88
400.389	247.88
400.613	235.88
400.837	231.88
401.062	218.88
401.286	218.88
401.51	226.88
401.734	227.88
401.958	232.88
402.182	209.88
402.406	219.88
402.63	207.88
402.854	222.88
403.078	237.88
403.302	235.88
403.526	213.88
403.75	231.88
403.974	229.88
404.198	232.88
404.422	222.88
404.645	218.88
404.869	220.88
405.093	237.88
405.317	217.88
405.541	244.88
405.765	249.88
405.988	236.88
406.212	212.88
406.436	218.88
406.66	229.88
406.883	220.88
407.107	233.88
407.331	217.88
407.555	229.88
407.778	241.88
408.002	229.88
408.226	212.88
408.449	243.88
408.673	217.88
408.896	224.88
409.12	215.88
409.344	225.88
409.567	204.88
409.791	216.88
410.014	218.88
410.238	204.88
410.461	214.88
410.685	228.88
410.908	246.88
411.132	237.88
411.355	241.88
411.578	210.88
411.802	212.88
412.025	234.88
412.249	226.88
412.472	234.88
412.695	239.88
412.919	230.88
413.142	218.88
413.365	221.88
413.589	228.88
413.812	185.88
414.035	206.88
414.258	211.88
414.482	205.88
414.705	226.88
414.928	217.88
415.151	209.88
415.374	220.88
415.597	221.88
415.821	211.88
416.044	211.88
416.267	211.88
416.49	222.88
416.713	212.88
416.936	217.88
417.159	197.88
417.382	223.88
417.605	211.88
417.828	233.88
418.051	231.88
418.274	194.88
418.497	216.88
418.72	218.88
418.943	238.88
419.166	236.88
419.389	253.88
419.611	230.88
419.834	220.88
420.057	210.88
420.28	223.88
420.503	211.88
420.726	225.88
420.948	214.88
421.171	194.88
421.394	190.88
421.617	227.88
421.839	213.88
422.062	208.88
422.285	215.88
422.507	213.88
422.73	207.88
422.953	225.88
423.175	225.88
423.398	210.88
423.621	210.88
423.843	204.88
424.066	232.88
424.288	221.88
424.511	227.88
424.733	213.88
424.956	210.88
425.178	249.88
425.401	297.88
425.623	355.88
425.846	250.88
426.068	242.88
426.291	241.88
426.513	234.88
426.735	208.88
426.958	230.88
427.18	267.88
427.402	303.88
427.625	359.88
427.847	271.88
428.069	225.88
428.292	219.88
428.514	222.88
428.736	233.88
428.958	275.88
429.181	292.88
429.403	229.88
429.625	219.88
429.847	227.88
430.069	202.88
430.292	225.88
430.514	209.88
430.736	201.88
430.958	194.88
431.18	203.88
431.402	203.88
431.624	198.88
431.846	197.88
432.068	189.88
432.29	201.88
432.512	202.88
432.734	198.88
432.956	208.88
433.178	199.88
433.4	216.88
433.622	225.88
433.844	250.88
434.066	275.88
434.287	246.88
434.509	264.88
434.731	256.88
434.953	230.88
435.175	251.88
435.397	274.88
435.618	216.88
435.84	220.88
436.062	219.88
436.284	217.88
436.505	218.88
436.727	215.88
436.949	225.88
437.17	218.88
437.392	227.88
437.614	221.88
437.835	202.88
438.057	211.88
438.278	206.88
438.5	214.88
438.721	230.88
438.943	213.88
439.165	192.88
439.386	207.88
439.608	211.88
439.829	190.88
440.05	206.88
440.272	199.88
440.493	214.88
440.715	211.88
440.936	214.88
441.158	205.88
441.379	217.88
441.6	211.88
441.822	190.88
442.043	207.88
442.264	215.88
442.486	213.88
442.707	209.88
442.928	208.88
443.149	225.88
443.371	208.88
443.592	208.88
443.813	190.88
444.034	193.88
444.255	225.88
444.476	223.88
444.698	231.88
444.919	218.88
445.14	294.88
445.361	245.88
445.582	207.88
445.803	205.88
446.024	216.88
446.245	207.88
446.466	211.88
446.687	196.88
446.908	197.88
447.129	190.88
447.35	189.88
447.571	210.88
447.792	199.88
448.013	207.88
448.234	196.88
448.455	203.88
448.675	204.88
448.896	207.88
449.117	207.88
449.338	190.88
449.559	245.88
449.779	227.88
450	212.88
450.221	217.88
450.442	198.88
450.662	201.88
450.883	196.88
451.104	200.88
451.324	202.88
451.545	210.88
451.766	205.88
451.986	205.88
452.207	197.88
452.428	212.88
452.648	206.88
452.869	212.88
453.089	200.88
453.31	216.88
453.53	202.88
453.751	197.88
453.971	202.88
454.192	210.88
454.412	197.88
454.633	201.88
454.853	206.88
455.073	199.88
455.294	197.88
455.514	206.88
455.734	211.88
455.955	215.88
456.175	207.88
456.395	198.88
456.616	199.88
456.836	208.88
457.056	206.88
457.276	190.88
457.497	191.88
457.717	212.88
457.937	189.88
458.157	211.88
458.377	181.88
458.598	179.88
458.818	199.88
459.038	218.88
459.258	211.88
459.478	226.88
459.698	219.88
459.918	216.88
460.138	228.88
460.358	237.88
460.578	217.88
460.798	213.88
461.018	216.88
461.238	219.88
461.458	230.88
461.678	244.88
461.898	245.88
462.118	249.88
462.338	220.88
462.558	244.88
462.777	241.88
462.997	261.88
463.217	238.88
463.437	253.88
463.657	242.88
463.876	245.88
464.096	234.88
464.316	231.88
464.536	248.88
464.755	256.88
464.975	242.88
465.195	252.88
465.414	259.88
465.634	202.88
465.854	201.88
466.073	192.88
466.293	195.88
466.512	216.88
466.732	217.88
466.951	225.88
467.171	194.88
467.391	207.88
467.61	193.88
467.829	189.88
468.049	203.88
468.268	183.88
468.488	197.88
468.707	188.88
468.927	206.88
469.146	207.88
469.365	211.88
469.585	207.88
469.804	206.88
470.023	222.88
470.243	216.88
470.462	210.88
470.681	201.88
470.901	229.88
471.12	225.88
471.339	212.88
471.558	201.88
471.777	204.88
471.997	215.88
472.216	222.88
472.435	191.88
472.654	206.88
472.873	203.88
473.092	222.88
473.311	205.88
473.53	195.88
473.749	210.88
473.968	229.88
474.187	191.88
474.406	209.88
474.625	184.88
474.844	184.88
475.063	204.88
475.282	209.88
475.501	229.88
475.72	236.88
475.939	226.88
476.158	210.88
476.377	212.88
476.596	201.88
476.814	206.88
477.033	200.88
477.252	199.88
477.471	209.88
477.69	215.88
477.908	214.88
478.127	218.88
478.346	204.88
478.564	217.88
478.783	221.88
479.002	226.88
479.22	245.88
479.439	231.88
479.658	234.88
479.876	225.88
480.095	248.88
480.313	239.88
480.532	243.88
480.751	233.88
480.969	205.88
481.188	216.88
481.406	229.88
481.624	207.88
481.843	212.88
482.061	214.88
482.28	222.88
482.498	232.88
482.717	237.88
482.935	246.88
483.153	236.88
483.372	220.88
483.59	219.88
483.808	234.88
484.027	225.88
484.245	211.88
484.463	219.88
484.681	222.88
484.9	229.88
485.118	234.88
485.336	219.88
485.554	232.88
485.772	232.88
485.99	221.88
486.209	233.88
486.427	246.88
486.645	236.88
486.863	231.88
487.081	238.88
487.299	248.88
487.517	234.88
487.735	223.88
487.953	245.88
488.171	244.88
488.389	219.88
488.607	243.88
488.825	240.88
489.043	238.88
489.261	246.88
489.479	213.88
489.696	206.88
489.914	215.88
490.132	234.88
490.35	252.88
490.568	221.88
490.786	222.88
491.003	230.88
491.221	243.88
491.439	231.88
491.657	229.88
491.874	231.88
492.092	262.88
492.31	289.88
492.527	268.88
492.745	247.88
492.963	253.88
493.18	241.88
493.398	233.88
493.615	246.88
493.833	270.88
494.05	254.88
494.268	252.88
494.485	255.88
494.703	254.88
494.92	258.88
495.138	251.88
495.355	237.88
495.573	272.88
495.79	258.88
496.008	254.88
496.225	232.88
496.442	254.88
496.66	250.88
496.877	245.88
497.094	257.88
497.312	253.88
497.529	261.88
497.746	258.88
497.963	264.88
498.181	268.88
498.398	266.88
498.615	276.88
498.832	285.88
499.049	294.88
499.267	286.88
499.484	295.88
499.701	345.88
499.918	347.88
500.135	342.88
500.352	366.88
500.569	356.88
500.786	378.88
501.003	355.88
501.22	353.88
501.437	350.88
501.654	307.88
501.871	309.88
502.088	293.88
502.305	282.88
502.522	282.88
502.739	279.88
502.956	275.88
503.172	273.88
503.389	277.88
503.606	272.88
