Data from StA_HRD10591_050.txt Node
Date: Fri May 16 15:19:08 EDT 2025
User: Yrep
Spectrometer: HR+D1059
Trigger mode: 1
Integration Time (sec): 1.000000E-1
Scans to average: 1
Electric dark correction enabled: true
Nonlinearity correction enabled: false
Boxcar width: 0
XAxis mode: Wavelengths
Number of Pixels in Spectrum: 2048
>>>>>Begin Spectral Data<<<<<
223.165	-18.81
223.4	-18.81
223.635	-18.81
223.869	-22.81
224.104	-5.81
224.338	-13.81
224.573	-21.81
224.808	3.19
225.042	-9.81
225.277	-15.81
225.511	-3.81
225.746	7.19
225.98	-9.81
226.215	13.19
226.449	16.19
226.683	28.19
226.918	36.19
227.152	18.19
227.387	32.19
227.621	36.19
227.856	44.19
228.09	45.19
228.324	56.19
228.559	58.19
228.793	64.19
229.027	79.19
229.262	80.19
229.496	65.19
229.73	86.19
229.964	84.19
230.199	90.19
230.433	91.19
230.667	89.19
230.901	95.19
231.136	106.19
231.37	97.19
231.604	90.19
231.838	114.19
232.072	113.19
232.306	98.19
232.541	97.19
232.775	113.19
233.009	95.19
233.243	90.19
233.477	91.19
233.711	92.19
233.945	104.19
234.179	106.19
234.413	102.19
234.647	98.19
234.881	87.19
235.115	107.19
235.349	86.19
235.583	87.19
235.817	83.19
236.051	88.19
236.285	88.19
236.519	103.19
236.753	95.19
236.987	88.19
237.221	92.19
237.455	93.19
237.689	93.19
237.922	83.19
238.156	87.19
238.39	79.19
238.624	106.19
238.858	93.19
239.091	98.19
239.325	100.19
239.559	104.19
239.793	106.19
240.027	88.19
240.26	93.19
240.494	106.19
240.728	96.19
240.961	79.19
241.195	95.19
241.429	87.19
241.662	91.19
241.896	100.19
242.13	110.19
242.363	94.19
242.597	91.19
242.83	105.19
243.064	106.19
243.298	107.19
243.531	96.19
243.765	120.19
243.998	104.19
244.232	95.19
244.465	104.19
244.699	96.19
244.932	115.19
245.166	107.19
245.399	115.19
245.633	114.19
245.866	108.19
246.099	115.19
246.333	114.19
246.566	120.19
246.8	112.19
247.033	110.19
247.266	116.19
247.5	119.19
247.733	118.19
247.966	119.19
248.2	115.19
248.433	125.19
248.666	114.19
248.899	137.19
249.133	145.19
249.366	140.19
249.599	144.19
249.832	127.19
250.066	128.19
250.299	143.19
250.532	125.19
250.765	127.19
250.998	143.19
251.231	131.19
251.465	137.19
251.698	130.19
251.931	141.19
252.164	150.19
252.397	151.19
252.63	155.19
252.863	156.19
253.096	151.19
253.329	142.19
253.562	155.19
253.795	144.19
254.028	156.19
254.261	152.19
254.494	150.19
254.727	147.19
254.96	163.19
255.193	156.19
255.426	165.19
255.659	144.19
255.892	145.19
256.124	152.19
256.357	161.19
256.59	168.19
256.823	157.19
257.056	173.19
257.289	184.19
257.521	190.19
257.754	175.19
257.987	177.19
258.22	171.19
258.452	172.19
258.685	158.19
258.918	169.19
259.151	180.19
259.383	181.19
259.616	194.19
259.849	171.19
260.081	163.19
260.314	164.19
260.547	166.19
260.779	190.19
261.012	183.19
261.244	183.19
261.477	192.19
261.71	187.19
261.942	188.19
262.175	199.19
262.407	204.19
262.64	187.19
262.872	197.19
263.105	204.19
263.337	186.19
263.57	186.19
263.802	190.19
264.035	171.19
264.267	182.19
264.499	167.19
264.732	186.19
264.964	181.19
265.197	192.19
265.429	226.19
265.661	230.19
265.894	248.19
266.126	275.19
266.358	296.19
266.591	347.19
266.823	354.19
267.055	352.19
267.287	331.19
267.52	343.19
267.752	379.19
267.984	398.19
268.216	310.19
268.448	225.19
268.681	269.19
268.913	298.19
269.145	314.19
269.377	298.19
269.609	284.19
269.841	316.19
270.073	346.19
270.306	298.19
270.538	288.19
270.77	266.19
271.002	268.19
271.234	265.19
271.466	269.19
271.698	244.19
271.93	259.19
272.162	288.19
272.394	287.19
272.626	290.19
272.858	244.19
273.09	214.19
273.322	195.19
273.553	202.19
273.785	218.19
274.017	233.19
274.249	296.19
274.481	325.19
274.713	335.19
274.945	387.19
275.176	411.19
275.408	376.19
275.64	383.19
275.872	404.19
276.104	471.19
276.335	466.19
276.567	454.19
276.799	470.19
277.031	379.19
277.262	294.19
277.494	288.19
277.726	302.19
277.957	334.19
278.189	339.19
278.421	342.19
278.652	314.19
278.884	338.19
279.115	320.19
279.347	287.19
279.579	265.19
279.81	255.19
280.042	279.19
280.273	309.19
280.505	270.19
280.736	240.19
280.968	268.19
281.199	320.19
281.431	330.19
281.662	306.19
281.894	339.19
282.125	388.19
282.356	419.19
282.588	385.19
282.819	362.19
283.051	444.19
283.282	493.19
283.513	556.19
283.745	637.19
283.976	578.19
284.207	576.19
284.439	559.19
284.67	515.19
284.901	514.19
285.132	572.19
285.364	552.19
285.595	554.19
285.826	565.19
286.057	566.19
286.288	579.19
286.52	623.19
286.751	605.19
286.982	555.19
287.213	432.19
287.444	482.19
287.675	493.19
287.906	488.19
288.138	386.19
288.369	330.19
288.6	313.19
288.831	376.19
289.062	419.19
289.293	438.19
289.524	452.19
289.755	482.19
289.986	446.19
290.217	377.19
290.448	313.19
290.679	277.19
290.91	276.19
291.141	286.19
291.371	272.19
291.602	303.19
291.833	320.19
292.064	327.19
292.295	384.19
292.526	410.19
292.757	412.19
292.987	446.19
293.218	387.19
293.449	358.19
293.68	372.19
293.91	332.19
294.141	300.19
294.372	289.19
294.603	285.19
294.833	281.19
295.064	305.19
295.295	281.19
295.525	292.19
295.756	256.19
295.987	254.19
296.217	259.19
296.448	266.19
296.679	276.19
296.909	295.19
297.14	348.19
297.37	380.19
297.601	328.19
297.831	338.19
298.062	362.19
298.292	376.19
298.523	384.19
298.753	399.19
298.984	351.19
299.214	332.19
299.445	285.19
299.675	244.19
299.905	253.19
300.136	238.19
300.366	227.19
300.597	237.19
300.827	229.19
301.057	238.19
301.288	254.19
301.518	310.19
301.748	321.19
301.979	330.19
302.209	285.19
302.439	301.19
302.669	304.19
302.9	334.19
303.13	280.19
303.36	265.19
303.59	256.19
303.82	298.19
304.051	349.19
304.281	371.19
304.511	347.19
304.741	306.19
304.971	352.19
305.201	340.19
305.431	289.19
305.661	258.19
305.891	254.19
306.121	247.19
306.352	208.19
306.582	212.19
306.812	221.19
307.042	207.19
307.272	211.19
307.502	200.19
307.731	206.19
307.961	223.19
308.191	203.19
308.421	212.19
308.651	200.19
308.881	220.19
309.111	227.19
309.341	239.19
309.571	265.19
309.8	234.19
310.03	237.19
310.26	226.19
310.49	235.19
310.72	242.19
310.949	250.19
311.179	294.19
311.409	316.19
311.639	383.19
311.868	526.19
312.098	626.19
312.328	609.19
312.557	590.19
312.787	576.19
313.017	536.19
313.246	599.19
313.476	547.19
313.706	435.19
313.935	365.19
314.165	299.19
314.394	267.19
314.624	283.19
314.853	302.19
315.083	296.19
315.312	270.19
315.542	238.19
315.771	209.19
316.001	214.19
316.23	211.19
316.46	215.19
316.689	222.19
316.919	219.19
317.148	223.19
317.377	235.19
317.607	231.19
317.836	271.19
318.065	320.19
318.295	340.19
318.524	277.19
318.753	222.19
318.983	216.19
319.212	231.19
319.441	260.19
319.67	289.19
319.9	299.19
320.129	266.19
320.358	261.19
320.587	241.19
320.816	277.19
321.046	290.19
321.275	278.19
321.504	276.19
321.733	278.19
321.962	260.19
322.191	231.19
322.42	213.19
322.649	217.19
322.878	212.19
323.108	203.19
323.337	243.19
323.566	243.19
323.795	253.19
324.024	235.19
324.253	206.19
324.482	198.19
324.71	202.19
324.939	206.19
325.168	206.19
325.397	211.19
325.626	209.19
325.855	217.19
326.084	218.19
326.313	215.19
326.542	211.19
326.77	226.19
326.999	241.19
327.228	223.19
327.457	226.19
327.686	198.19
327.914	183.19
328.143	196.19
328.372	201.19
328.6	196.19
328.829	192.19
329.058	222.19
329.287	242.19
329.515	234.19
329.744	242.19
329.972	234.19
330.201	226.19
330.43	232.19
330.658	258.19
330.887	285.19
331.115	294.19
331.344	286.19
331.572	268.19
331.801	236.19
332.03	246.19
332.258	240.19
332.486	275.19
332.715	263.19
332.943	256.19
333.172	247.19
333.4	276.19
333.629	297.19
333.857	345.19
334.085	321.19
334.314	319.19
334.542	299.19
334.771	264.19
334.999	267.19
335.227	282.19
335.455	301.19
335.684	342.19
335.912	408.19
336.14	411.19
336.369	360.19
336.597	384.19
336.825	422.19
337.053	387.19
337.281	283.19
337.51	265.19
337.738	283.19
337.966	300.19
338.194	301.19
338.422	278.19
338.65	252.19
338.878	244.19
339.106	249.19
339.334	271.19
339.562	272.19
339.79	266.19
340.018	277.19
340.246	313.19
340.474	354.19
340.702	330.19
340.93	342.19
341.158	311.19
341.386	252.19
341.614	243.19
341.842	287.19
342.07	321.19
342.298	378.19
342.526	296.19
342.754	256.19
342.981	253.19
343.209	272.19
343.437	295.19
343.665	253.19
343.893	234.19
344.12	219.19
344.348	208.19
344.576	206.19
344.804	218.19
345.031	211.19
345.259	206.19
345.487	218.19
345.714	219.19
345.942	209.19
346.17	208.19
346.397	191.19
346.625	185.19
346.853	202.19
347.08	206.19
347.308	186.19
347.535	182.19
347.763	204.19
347.99	206.19
348.218	206.19
348.445	196.19
348.673	184.19
348.9	194.19
349.128	183.19
349.355	190.19
349.583	214.19
349.81	210.19
350.037	184.19
350.265	182.19
350.492	184.19
350.72	186.19
350.947	207.19
351.174	177.19
351.402	206.19
351.629	191.19
351.856	179.19
352.083	175.19
352.311	185.19
352.538	191.19
352.765	180.19
352.992	198.19
353.22	189.19
353.447	171.19
353.674	189.19
353.901	202.19
354.128	182.19
354.355	194.19
354.583	205.19
354.81	185.19
355.037	200.19
355.264	202.19
355.491	211.19
355.718	208.19
355.945	219.19
356.172	201.19
356.399	204.19
356.626	203.19
356.853	219.19
357.08	228.19
357.307	234.19
357.534	269.19
357.761	313.19
357.988	362.19
358.215	301.19
358.441	269.19
358.668	268.19
358.895	271.19
359.122	291.19
359.349	318.19
359.576	320.19
359.802	234.19
360.029	241.19
360.256	271.19
360.483	314.19
360.709	312.19
360.936	244.19
361.163	214.19
361.39	210.19
361.616	196.19
361.843	200.19
362.07	208.19
362.296	186.19
362.523	172.19
362.749	200.19
362.976	204.19
363.203	233.19
363.429	233.19
363.656	222.19
363.882	233.19
364.109	220.19
364.335	226.19
364.562	219.19
364.788	212.19
365.015	209.19
365.241	218.19
365.468	220.19
365.694	207.19
365.92	205.19
366.147	210.19
366.373	204.19
366.599	204.19
366.826	190.19
367.052	170.19
367.278	188.19
367.505	215.19
367.731	212.19
367.957	226.19
368.184	204.19
368.41	191.19
368.636	207.19
368.862	209.19
369.089	215.19
369.315	190.19
369.541	202.19
369.767	212.19
369.993	216.19
370.219	203.19
370.445	186.19
370.672	191.19
370.898	198.19
371.124	195.19
371.35	219.19
371.576	210.19
371.802	209.19
372.028	187.19
372.254	204.19
372.48	195.19
372.706	194.19
372.932	205.19
373.158	180.19
373.384	205.19
373.61	199.19
373.835	204.19
374.061	196.19
374.287	211.19
374.513	228.19
374.739	199.19
374.965	218.19
375.191	211.19
375.416	204.19
375.642	203.19
375.868	219.19
376.094	194.19
376.319	195.19
376.545	194.19
376.771	193.19
376.997	196.19
377.222	191.19
377.448	192.19
377.674	185.19
377.899	173.19
378.125	180.19
378.35	199.19
378.576	188.19
378.802	187.19
379.027	196.19
379.253	224.19
379.478	222.19
379.704	207.19
379.929	204.19
380.155	195.19
380.38	195.19
380.606	213.19
380.831	188.19
381.057	205.19
381.282	191.19
381.507	195.19
381.733	218.19
381.958	211.19
382.184	227.19
382.409	210.19
382.634	226.19
382.86	213.19
383.085	209.19
383.31	228.19
383.535	207.19
383.761	193.19
383.986	214.19
384.211	227.19
384.436	216.19
384.662	223.19
384.887	222.19
385.112	223.19
385.337	235.19
385.562	234.19
385.787	225.19
386.013	236.19
386.238	217.19
386.463	237.19
386.688	228.19
386.913	226.19
387.138	211.19
387.363	214.19
387.588	220.19
387.813	218.19
388.038	218.19
388.263	231.19
388.488	242.19
388.713	236.19
388.938	217.19
389.163	209.19
389.387	208.19
389.612	217.19
389.837	224.19
390.062	211.19
390.287	218.19
390.512	216.19
390.736	213.19
390.961	231.19
391.186	208.19
391.411	210.19
391.636	237.19
391.86	246.19
392.085	253.19
392.31	220.19
392.534	216.19
392.759	221.19
392.984	207.19
393.208	211.19
393.433	203.19
393.658	211.19
393.882	209.19
394.107	210.19
394.331	210.19
394.556	199.19
394.78	203.19
395.005	199.19
395.229	206.19
395.454	214.19
395.678	231.19
395.903	244.19
396.127	224.19
396.352	250.19
396.576	259.19
396.801	232.19
397.025	252.19
397.249	251.19
397.474	238.19
397.698	250.19
397.922	243.19
398.147	248.19
398.371	244.19
398.595	243.19
398.82	240.19
399.044	276.19
399.268	275.19
399.492	281.19
399.717	266.19
399.941	281.19
400.165	265.19
400.389	236.19
400.613	244.19
400.837	234.19
401.062	219.19
401.286	247.19
401.51	224.19
401.734	241.19
401.958	234.19
402.182	237.19
402.406	248.19
402.63	223.19
402.854	237.19
403.078	234.19
403.302	252.19
403.526	240.19
403.75	248.19
403.974	257.19
404.198	239.19
404.422	240.19
404.645	239.19
404.869	238.19
405.093	236.19
405.317	222.19
405.541	246.19
405.765	248.19
405.988	223.19
406.212	245.19
406.436	243.19
406.66	236.19
406.883	240.19
407.107	233.19
407.331	226.19
407.555	230.19
407.778	259.19
408.002	251.19
408.226	236.19
408.449	225.19
408.673	235.19
408.896	239.19
409.12	245.19
409.344	232.19
409.567	243.19
409.791	250.19
410.014	234.19
410.238	233.19
410.461	213.19
410.685	232.19
410.908	225.19
411.132	231.19
411.355	252.19
411.578	240.19
411.802	233.19
412.025	253.19
412.249	247.19
412.472	234.19
412.695	221.19
412.919	240.19
413.142	236.19
413.365	241.19
413.589	229.19
413.812	218.19
414.035	222.19
414.258	236.19
414.482	212.19
414.705	236.19
414.928	238.19
415.151	240.19
415.374	225.19
415.597	214.19
415.821	191.19
416.044	210.19
416.267	232.19
416.49	235.19
416.713	227.19
416.936	223.19
417.159	213.19
417.382	230.19
417.605	223.19
417.828	229.19
418.051	222.19
418.274	203.19
418.497	214.19
418.72	235.19
418.943	241.19
419.166	254.19
419.389	240.19
419.611	240.19
419.834	237.19
420.057	249.19
420.28	234.19
420.503	221.19
420.726	223.19
420.948	219.19
421.171	215.19
421.394	220.19
421.617	226.19
421.839	233.19
422.062	236.19
422.285	220.19
422.507	216.19
422.73	225.19
422.953	240.19
423.175	230.19
423.398	226.19
423.621	217.19
423.843	222.19
424.066	212.19
424.288	223.19
424.511	219.19
424.733	219.19
424.956	239.19
425.178	266.19
425.401	347.19
425.623	392.19
425.846	274.19
426.068	238.19
426.291	248.19
426.513	245.19
426.735	252.19
426.958	254.19
427.18	279.19
427.402	326.19
427.625	379.19
427.847	298.19
428.069	235.19
428.292	240.19
428.514	231.19
428.736	247.19
428.958	307.19
429.181	310.19
429.403	238.19
429.625	225.19
429.847	248.19
430.069	224.19
430.292	224.19
430.514	216.19
430.736	231.19
430.958	193.19
431.18	215.19
431.402	208.19
431.624	208.19
431.846	196.19
432.068	198.19
432.29	214.19
432.512	210.19
432.734	201.19
432.956	200.19
433.178	219.19
433.4	216.19
433.622	219.19
433.844	275.19
434.066	253.19
434.287	257.19
434.509	267.19
434.731	254.19
434.953	255.19
435.175	264.19
435.397	277.19
435.618	236.19
435.84	232.19
436.062	236.19
436.284	217.19
436.505	217.19
436.727	223.19
436.949	210.19
437.17	220.19
437.392	232.19
437.614	222.19
437.835	214.19
438.057	201.19
438.278	196.19
438.5	204.19
438.721	221.19
438.943	219.19
439.165	208.19
439.386	211.19
439.608	220.19
439.829	203.19
440.05	209.19
440.272	212.19
440.493	211.19
440.715	207.19
440.936	220.19
441.158	225.19
441.379	218.19
441.6	203.19
441.822	220.19
442.043	217.19
442.264	230.19
442.486	221.19
442.707	218.19
442.928	234.19
443.149	234.19
443.371	224.19
443.592	220.19
443.813	218.19
444.034	231.19
444.255	204.19
444.476	222.19
444.698	238.19
444.919	221.19
445.14	301.19
445.361	262.19
445.582	225.19
445.803	225.19
446.024	236.19
446.245	232.19
446.466	222.19
446.687	210.19
446.908	214.19
447.129	215.19
447.35	206.19
447.571	208.19
447.792	219.19
448.013	211.19
448.234	208.19
448.455	204.19
448.675	210.19
448.896	217.19
449.117	232.19
449.338	220.19
449.559	220.19
449.779	235.19
450	233.19
450.221	224.19
450.442	214.19
450.662	212.19
450.883	220.19
451.104	219.19
451.324	219.19
451.545	224.19
451.766	231.19
451.986	226.19
452.207	206.19
452.428	212.19
452.648	227.19
452.869	223.19
453.089	209.19
453.31	224.19
453.53	202.19
453.751	216.19
453.971	222.19
454.192	221.19
454.412	225.19
454.633	230.19
454.853	203.19
455.073	201.19
455.294	191.19
455.514	190.19
455.734	225.19
455.955	232.19
456.175	238.19
456.395	232.19
456.616	225.19
456.836	212.19
457.056	209.19
457.276	202.19
457.497	205.19
457.717	192.19
457.937	218.19
458.157	196.19
458.377	206.19
458.598	201.19
458.818	211.19
459.038	236.19
459.258	244.19
459.478	232.19
459.698	212.19
459.918	242.19
460.138	222.19
460.358	243.19
460.578	222.19
460.798	232.19
461.018	207.19
461.238	210.19
461.458	254.19
461.678	246.19
461.898	268.19
462.118	267.19
462.338	242.19
462.558	254.19
462.777	255.19
462.997	268.19
463.217	263.19
463.437	262.19
463.657	246.19
463.876	248.19
464.096	244.19
464.316	239.19
464.536	264.19
464.755	287.19
464.975	266.19
465.195	281.19
465.414	278.19
465.634	223.19
465.854	219.19
466.073	221.19
466.293	222.19
466.512	214.19
466.732	234.19
466.951	232.19
467.171	227.19
467.391	189.19
467.61	195.19
467.829	200.19
468.049	217.19
468.268	202.19
468.488	192.19
468.707	214.19
468.927	211.19
469.146	218.19
469.365	193.19
469.585	217.19
469.804	227.19
470.023	236.19
470.243	223.19
470.462	206.19
470.681	230.19
470.901	242.19
471.12	231.19
471.339	200.19
471.558	186.19
471.777	235.19
471.997	235.19
472.216	220.19
472.435	211.19
472.654	214.19
472.873	212.19
473.092	228.19
473.311	220.19
473.53	203.19
473.749	236.19
473.968	227.19
474.187	219.19
474.406	208.19
474.625	201.19
474.844	195.19
475.063	192.19
475.282	218.19
475.501	229.19
475.72	252.19
475.939	221.19
476.158	223.19
476.377	214.19
476.596	226.19
476.814	205.19
477.033	229.19
477.252	215.19
477.471	221.19
477.69	195.19
477.908	217.19
478.127	227.19
478.346	245.19
478.564	216.19
478.783	227.19
479.002	255.19
479.22	271.19
479.439	248.19
479.658	251.19
479.876	230.19
480.095	232.19
480.313	250.19
480.532	232.19
480.751	239.19
480.969	224.19
481.188	244.19
481.406	242.19
481.624	225.19
481.843	215.19
482.061	244.19
482.28	244.19
482.498	245.19
482.717	256.19
482.935	249.19
483.153	245.19
483.372	233.19
483.59	224.19
483.808	224.19
484.027	223.19
484.245	225.19
484.463	231.19
484.681	231.19
484.9	241.19
485.118	254.19
485.336	231.19
485.554	225.19
485.772	215.19
485.99	224.19
486.209	251.19
486.427	254.19
486.645	242.19
486.863	253.19
487.081	247.19
487.299	259.19
487.517	249.19
487.735	244.19
487.953	252.19
488.171	253.19
488.389	243.19
488.607	246.19
488.825	274.19
489.043	260.19
489.261	255.19
489.479	246.19
489.696	237.19
489.914	236.19
490.132	259.19
490.35	247.19
490.568	251.19
490.786	236.19
491.003	240.19
491.221	245.19
491.439	235.19
491.657	262.19
491.874	231.19
492.092	263.19
492.31	289.19
492.527	282.19
492.745	252.19
492.963	254.19
493.18	256.19
493.398	268.19
493.615	255.19
493.833	267.19
494.05	255.19
494.268	234.19
494.485	273.19
494.703	241.19
494.92	263.19
495.138	268.19
495.355	265.19
495.573	271.19
495.79	279.19
496.008	271.19
496.225	261.19
496.442	277.19
496.66	257.19
496.877	265.19
497.094	258.19
497.312	254.19
497.529	262.19
497.746	283.19
497.963	264.19
498.181	285.19
498.398	291.19
498.615	288.19
498.832	304.19
499.049	314.19
499.267	308.19
499.484	335.19
499.701	350.19
499.918	375.19
500.135	364.19
500.352	382.19
500.569	374.19
500.786	406.19
501.003	372.19
501.22	368.19
501.437	351.19
501.654	335.19
501.871	314.19
502.088	312.19
502.305	292.19
502.522	298.19
502.739	299.19
502.956	274.19
503.172	284.19
503.389	268.19
