Data from StA_HRD10591_012.txt Node
Date: Fri May 16 15:18:50 EDT 2025
User: Yrep
Spectrometer: HR+D1059
Trigger mode: 1
Integration Time (sec): 1.000000E-1
Scans to average: 1
Electric dark correction enabled: true
Nonlinearity correction enabled: false
Boxcar width: 0
XAxis mode: Wavelengths
Number of Pixels in Spectrum: 2048
>>>>>Begin Spectral Data<<<<<
223.165	-14.62
223.4	-14.62
223.635	-14.62
223.869	-8.62
224.104	-21.62
224.338	-21.62
224.573	-22.62
224.808	0.38
225.042	-12.62
225.277	-21.62
225.511	-5.62
225.746	3.38
225.98	14.38
226.215	13.38
226.449	-0.62
226.683	14.38
226.918	35.38
227.152	48.38
227.387	40.38
227.621	49.38
227.856	53.38
228.09	40.38
228.324	55.38
228.559	52.38
228.793	49.38
229.027	72.38
229.262	78.38
229.496	75.38
229.73	72.38
229.964	86.38
230.199	91.38
230.433	72.38
230.667	77.38
230.901	88.38
231.136	102.38
231.37	94.38
231.604	81.38
231.838	109.38
232.072	92.38
232.306	90.38
232.541	90.38
232.775	91.38
233.009	93.38
233.243	80.38
233.477	93.38
233.711	96.38
233.945	93.38
234.179	81.38
234.413	89.38
234.647	84.38
234.881	94.38
235.115	103.38
235.349	76.38
235.583	98.38
235.817	92.38
236.051	87.38
236.285	84.38
236.519	105.38
236.753	84.38
236.987	86.38
237.221	100.38
237.455	87.38
237.689	81.38
237.922	88.38
238.156	89.38
238.39	83.38
238.624	101.38
238.858	91.38
239.091	99.38
239.325	106.38
239.559	93.38
239.793	91.38
240.027	111.38
240.26	103.38
240.494	107.38
240.728	86.38
240.961	85.38
241.195	79.38
241.429	96.38
241.662	81.38
241.896	91.38
242.13	103.38
242.363	98.38
242.597	88.38
242.83	102.38
243.064	110.38
243.298	109.38
243.531	99.38
243.765	93.38
243.998	96.38
244.232	113.38
244.465	95.38
244.699	113.38
244.932	100.38
245.166	102.38
245.399	104.38
245.633	108.38
245.866	107.38
246.099	114.38
246.333	111.38
246.566	124.38
246.8	96.38
247.033	113.38
247.266	121.38
247.5	106.38
247.733	107.38
247.966	106.38
248.2	114.38
248.433	133.38
248.666	134.38
248.899	122.38
249.133	128.38
249.366	126.38
249.599	135.38
249.832	119.38
250.066	142.38
250.299	117.38
250.532	122.38
250.765	121.38
250.998	120.38
251.231	135.38
251.465	122.38
251.698	138.38
251.931	162.38
252.164	148.38
252.397	139.38
252.63	150.38
252.863	144.38
253.096	151.38
253.329	155.38
253.562	134.38
253.795	156.38
254.028	150.38
254.261	156.38
254.494	141.38
254.727	150.38
254.96	129.38
255.193	150.38
255.426	165.38
255.659	145.38
255.892	129.38
256.124	144.38
256.357	156.38
256.59	161.38
256.823	175.38
257.056	162.38
257.289	151.38
257.521	175.38
257.754	150.38
257.987	168.38
258.22	155.38
258.452	159.38
258.685	161.38
258.918	158.38
259.151	170.38
259.383	172.38
259.616	167.38
259.849	170.38
260.081	173.38
260.314	159.38
260.547	143.38
260.779	182.38
261.012	184.38
261.244	180.38
261.477	181.38
261.71	162.38
261.942	168.38
262.175	188.38
262.407	198.38
262.64	187.38
262.872	194.38
263.105	179.38
263.337	183.38
263.57	160.38
263.802	158.38
264.035	165.38
264.267	176.38
264.499	184.38
264.732	175.38
264.964	180.38
265.197	177.38
265.429	198.38
265.661	200.38
265.894	219.38
266.126	256.38
266.358	273.38
266.591	312.38
266.823	316.38
267.055	298.38
267.287	334.38
267.52	337.38
267.752	328.38
267.984	338.38
268.216	268.38
268.448	223.38
268.681	250.38
268.913	286.38
269.145	290.38
269.377	274.38
269.609	279.38
269.841	281.38
270.073	285.38
270.306	269.38
270.538	249.38
270.77	247.38
271.002	242.38
271.234	248.38
271.466	242.38
271.698	217.38
271.93	239.38
272.162	249.38
272.394	263.38
272.626	257.38
272.858	226.38
273.09	214.38
273.322	199.38
273.553	193.38
273.785	217.38
274.017	230.38
274.249	288.38
274.481	312.38
274.713	313.38
274.945	342.38
275.176	359.38
275.408	358.38
275.64	337.38
275.872	380.38
276.104	425.38
276.335	430.38
276.567	424.38
276.799	401.38
277.031	341.38
277.262	283.38
277.494	264.38
277.726	264.38
277.957	302.38
278.189	318.38
278.421	306.38
278.652	308.38
278.884	297.38
279.115	284.38
279.347	265.38
279.579	242.38
279.81	252.38
280.042	270.38
280.273	268.38
280.505	245.38
280.736	233.38
280.968	253.38
281.199	280.38
281.431	310.38
281.662	276.38
281.894	312.38
282.125	359.38
282.356	380.38
282.588	355.38
282.819	345.38
283.051	401.38
283.282	460.38
283.513	512.38
283.745	575.38
283.976	500.38
284.207	503.38
284.439	508.38
284.67	458.38
284.901	456.38
285.132	517.38
285.364	510.38
285.595	498.38
285.826	517.38
286.057	516.38
286.288	529.38
286.52	537.38
286.751	543.38
286.982	516.38
287.213	420.38
287.444	424.38
287.675	482.38
287.906	447.38
288.138	355.38
288.369	302.38
288.6	294.38
288.831	336.38
289.062	391.38
289.293	409.38
289.524	409.38
289.755	447.38
289.986	391.38
290.217	349.38
290.448	282.38
290.679	239.38
290.91	258.38
291.141	271.38
291.371	288.38
291.602	279.38
291.833	288.38
292.064	325.38
292.295	388.38
292.526	385.38
292.757	385.38
292.987	399.38
293.218	370.38
293.449	348.38
293.68	335.38
293.91	284.38
294.141	292.38
294.372	287.38
294.603	257.38
294.833	262.38
295.064	266.38
295.295	261.38
295.525	260.38
295.756	226.38
295.987	217.38
296.217	248.38
296.448	243.38
296.679	257.38
296.909	283.38
297.14	320.38
297.37	356.38
297.601	317.38
297.831	332.38
298.062	348.38
298.292	353.38
298.523	356.38
298.753	373.38
298.984	340.38
299.214	290.38
299.445	253.38
299.675	246.38
299.905	226.38
300.136	216.38
300.366	218.38
300.597	218.38
300.827	215.38
301.057	218.38
301.288	247.38
301.518	268.38
301.748	289.38
301.979	300.38
302.209	284.38
302.439	276.38
302.669	299.38
302.9	284.38
303.13	256.38
303.36	255.38
303.59	265.38
303.82	277.38
304.051	298.38
304.281	341.38
304.511	312.38
304.741	282.38
304.971	279.38
305.201	314.38
305.431	275.38
305.661	229.38
305.891	238.38
306.121	212.38
306.352	217.38
306.582	201.38
306.812	206.38
307.042	208.38
307.272	212.38
307.502	200.38
307.731	211.38
307.961	208.38
308.191	200.38
308.421	208.38
308.651	201.38
308.881	193.38
309.111	209.38
309.341	228.38
309.571	230.38
309.8	248.38
310.03	216.38
310.26	200.38
310.49	216.38
310.72	251.38
310.949	237.38
311.179	249.38
311.409	279.38
311.639	371.38
311.868	465.38
312.098	548.38
312.328	545.38
312.557	540.38
312.787	532.38
313.017	497.38
313.246	514.38
313.476	517.38
313.706	420.38
313.935	344.38
314.165	288.38
314.394	260.38
314.624	275.38
314.853	307.38
315.083	271.38
315.312	247.38
315.542	234.38
315.771	220.38
316.001	200.38
316.23	202.38
316.46	213.38
316.689	202.38
316.919	213.38
317.148	219.38
317.377	219.38
317.607	233.38
317.836	242.38
318.065	280.38
318.295	295.38
318.524	268.38
318.753	224.38
318.983	212.38
319.212	210.38
319.441	247.38
319.67	270.38
319.9	289.38
320.129	260.38
320.358	240.38
320.587	246.38
320.816	256.38
321.046	273.38
321.275	273.38
321.504	253.38
321.733	276.38
321.962	253.38
322.191	224.38
322.42	213.38
322.649	205.38
322.878	213.38
323.108	217.38
323.337	208.38
323.566	231.38
323.795	218.38
324.024	225.38
324.253	197.38
324.482	197.38
324.71	197.38
324.939	221.38
325.168	217.38
325.397	199.38
325.626	201.38
325.855	197.38
326.084	212.38
326.313	194.38
326.542	217.38
326.77	210.38
326.999	234.38
327.228	202.38
327.457	203.38
327.686	192.38
327.914	192.38
328.143	189.38
328.372	209.38
328.6	201.38
328.829	199.38
329.058	206.38
329.287	240.38
329.515	221.38
329.744	209.38
329.972	202.38
330.201	208.38
330.43	216.38
330.658	252.38
330.887	281.38
331.115	273.38
331.344	257.38
331.572	243.38
331.801	198.38
332.03	224.38
332.258	244.38
332.486	264.38
332.715	254.38
332.943	236.38
333.172	245.38
333.4	256.38
333.629	287.38
333.857	314.38
334.085	304.38
334.314	283.38
334.542	276.38
334.771	261.38
334.999	267.38
335.227	248.38
335.455	274.38
335.684	321.38
335.912	370.38
336.14	366.38
336.369	365.38
336.597	370.38
336.825	392.38
337.053	335.38
337.281	280.38
337.51	264.38
337.738	261.38
337.966	283.38
338.194	289.38
338.422	266.38
338.65	235.38
338.878	237.38
339.106	240.38
339.334	249.38
339.562	264.38
339.79	257.38
340.018	257.38
340.246	293.38
340.474	318.38
340.702	313.38
340.93	314.38
341.158	284.38
341.386	246.38
341.614	239.38
341.842	275.38
342.07	309.38
342.298	340.38
342.526	293.38
342.754	233.38
342.981	236.38
343.209	252.38
343.437	278.38
343.665	244.38
343.893	224.38
344.12	210.38
344.348	219.38
344.576	204.38
344.804	207.38
345.031	239.38
345.259	217.38
345.487	226.38
345.714	215.38
345.942	202.38
346.17	191.38
346.397	188.38
346.625	209.38
346.853	203.38
347.08	199.38
347.308	191.38
347.535	202.38
347.763	199.38
347.99	201.38
348.218	198.38
348.445	188.38
348.673	188.38
348.9	176.38
349.128	192.38
349.355	195.38
349.583	182.38
349.81	191.38
350.037	166.38
350.265	176.38
350.492	174.38
350.72	193.38
350.947	192.38
351.174	197.38
351.402	186.38
351.629	192.38
351.856	197.38
352.083	174.38
352.311	168.38
352.538	186.38
352.765	191.38
352.992	201.38
353.22	201.38
353.447	191.38
353.674	192.38
353.901	187.38
354.128	195.38
354.355	180.38
354.583	192.38
354.81	191.38
355.037	190.38
355.264	193.38
355.491	198.38
355.718	204.38
355.945	191.38
356.172	185.38
356.399	198.38
356.626	200.38
356.853	220.38
357.08	217.38
357.307	217.38
357.534	263.38
357.761	295.38
357.988	320.38
358.215	276.38
358.441	256.38
358.668	270.38
358.895	242.38
359.122	252.38
359.349	313.38
359.576	284.38
359.802	238.38
360.029	238.38
360.256	270.38
360.483	278.38
360.709	293.38
360.936	230.38
361.163	189.38
361.39	196.38
361.616	192.38
361.843	171.38
362.07	165.38
362.296	171.38
362.523	181.38
362.749	187.38
362.976	212.38
363.203	209.38
363.429	226.38
363.656	209.38
363.882	201.38
364.109	226.38
364.335	234.38
364.562	214.38
364.788	205.38
365.015	210.38
365.241	218.38
365.468	206.38
365.694	217.38
365.92	200.38
366.147	193.38
366.373	200.38
366.599	200.38
366.826	199.38
367.052	197.38
367.278	190.38
367.505	202.38
367.731	212.38
367.957	221.38
368.184	216.38
368.41	206.38
368.636	216.38
368.862	205.38
369.089	197.38
369.315	175.38
369.541	192.38
369.767	200.38
369.993	195.38
370.219	190.38
370.445	184.38
370.672	180.38
370.898	188.38
371.124	220.38
371.35	212.38
371.576	228.38
371.802	217.38
372.028	192.38
372.254	201.38
372.48	191.38
372.706	189.38
372.932	202.38
373.158	181.38
373.384	198.38
373.61	180.38
373.835	189.38
374.061	201.38
374.287	230.38
374.513	240.38
374.739	221.38
374.965	220.38
375.191	198.38
375.416	182.38
375.642	195.38
375.868	202.38
376.094	189.38
376.319	183.38
376.545	200.38
376.771	206.38
376.997	199.38
377.222	198.38
377.448	185.38
377.674	180.38
377.899	192.38
378.125	194.38
378.35	184.38
378.576	187.38
378.802	191.38
379.027	209.38
379.253	206.38
379.478	208.38
379.704	206.38
379.929	200.38
380.155	170.38
380.38	193.38
380.606	215.38
380.831	207.38
381.057	222.38
381.282	205.38
381.507	206.38
381.733	223.38
381.958	208.38
382.184	214.38
382.409	223.38
382.634	204.38
382.86	220.38
383.085	216.38
383.31	211.38
383.535	199.38
383.761	194.38
383.986	213.38
384.211	215.38
384.436	218.38
384.662	228.38
384.887	230.38
385.112	222.38
385.337	237.38
385.562	230.38
385.787	238.38
386.013	233.38
386.238	232.38
386.463	238.38
386.688	232.38
386.913	214.38
387.138	232.38
387.363	212.38
387.588	230.38
387.813	203.38
388.038	206.38
388.263	210.38
388.488	232.38
388.713	222.38
388.938	197.38
389.163	202.38
389.387	217.38
389.612	204.38
389.837	224.38
390.062	203.38
390.287	216.38
390.512	220.38
390.736	213.38
390.961	206.38
391.186	220.38
391.411	232.38
391.636	240.38
391.86	235.38
392.085	241.38
392.31	204.38
392.534	212.38
392.759	214.38
392.984	212.38
393.208	210.38
393.433	223.38
393.658	214.38
393.882	192.38
394.107	215.38
394.331	224.38
394.556	213.38
394.78	218.38
395.005	208.38
395.229	208.38
395.454	198.38
395.678	216.38
395.903	217.38
396.127	211.38
396.352	252.38
396.576	252.38
396.801	244.38
397.025	258.38
397.249	248.38
397.474	244.38
397.698	269.38
397.922	276.38
398.147	245.38
398.371	253.38
398.595	257.38
398.82	247.38
399.044	270.38
399.268	270.38
399.492	269.38
399.717	261.38
399.941	253.38
400.165	247.38
400.389	242.38
400.613	240.38
400.837	232.38
401.062	230.38
401.286	236.38
401.51	243.38
401.734	221.38
401.958	232.38
402.182	225.38
402.406	228.38
402.63	234.38
402.854	238.38
403.078	224.38
403.302	234.38
403.526	234.38
403.75	228.38
403.974	235.38
404.198	238.38
404.422	247.38
404.645	234.38
404.869	234.38
405.093	224.38
405.317	216.38
405.541	219.38
405.765	228.38
405.988	212.38
406.212	246.38
406.436	246.38
406.66	237.38
406.883	230.38
407.107	228.38
407.331	220.38
407.555	248.38
407.778	238.38
408.002	255.38
408.226	235.38
408.449	228.38
408.673	234.38
408.896	249.38
409.12	262.38
409.344	229.38
409.567	229.38
409.791	221.38
410.014	228.38
410.238	233.38
410.461	218.38
410.685	227.38
410.908	230.38
411.132	250.38
411.355	244.38
411.578	224.38
411.802	214.38
412.025	208.38
412.249	223.38
412.472	248.38
412.695	249.38
412.919	226.38
413.142	218.38
413.365	230.38
413.589	234.38
413.812	216.38
414.035	210.38
414.258	228.38
414.482	214.38
414.705	206.38
414.928	228.38
415.151	216.38
415.374	215.38
415.597	228.38
415.821	224.38
416.044	206.38
416.267	223.38
416.49	210.38
416.713	233.38
416.936	243.38
417.159	222.38
417.382	225.38
417.605	228.38
417.828	221.38
418.051	238.38
418.274	211.38
418.497	204.38
418.72	221.38
418.943	218.38
419.166	210.38
419.389	240.38
419.611	254.38
419.834	222.38
420.057	218.38
420.28	227.38
420.503	237.38
420.726	220.38
420.948	227.38
421.171	229.38
421.394	234.38
421.617	228.38
421.839	224.38
422.062	222.38
422.285	201.38
422.507	228.38
422.73	235.38
422.953	224.38
423.175	223.38
423.398	246.38
423.621	211.38
423.843	231.38
424.066	235.38
424.288	247.38
424.511	219.38
424.733	218.38
424.956	244.38
425.178	244.38
425.401	326.38
425.623	356.38
425.846	250.38
426.068	219.38
426.291	242.38
426.513	232.38
426.735	223.38
426.958	242.38
427.18	271.38
427.402	317.38
427.625	379.38
427.847	282.38
428.069	242.38
428.292	236.38
428.514	220.38
428.736	246.38
428.958	296.38
429.181	318.38
429.403	230.38
429.625	244.38
429.847	232.38
430.069	228.38
430.292	209.38
430.514	217.38
430.736	224.38
430.958	209.38
431.18	216.38
431.402	204.38
431.624	217.38
431.846	220.38
432.068	205.38
432.29	206.38
432.512	222.38
432.734	214.38
432.956	208.38
433.178	210.38
433.4	207.38
433.622	229.38
433.844	250.38
434.066	290.38
434.287	269.38
434.509	263.38
434.731	263.38
434.953	231.38
435.175	258.38
435.397	245.38
435.618	222.38
435.84	212.38
436.062	216.38
436.284	216.38
436.505	201.38
436.727	222.38
436.949	219.38
437.17	217.38
437.392	228.38
437.614	230.38
437.835	203.38
438.057	220.38
438.278	205.38
438.5	216.38
438.721	224.38
438.943	204.38
439.165	217.38
439.386	205.38
439.608	203.38
439.829	208.38
440.05	212.38
440.272	224.38
440.493	214.38
440.715	200.38
440.936	217.38
441.158	213.38
441.379	222.38
441.6	215.38
441.822	225.38
442.043	222.38
442.264	236.38
442.486	226.38
442.707	236.38
442.928	221.38
443.149	214.38
443.371	215.38
443.592	220.38
443.813	197.38
444.034	216.38
444.255	242.38
444.476	216.38
444.698	223.38
444.919	235.38
445.14	306.38
445.361	262.38
445.582	220.38
445.803	219.38
446.024	234.38
446.245	235.38
446.466	232.38
446.687	228.38
446.908	213.38
447.129	218.38
447.35	217.38
447.571	217.38
447.792	230.38
448.013	206.38
448.234	206.38
448.455	204.38
448.675	193.38
448.896	212.38
449.117	216.38
449.338	218.38
449.559	221.38
449.779	245.38
450	228.38
450.221	211.38
450.442	221.38
450.662	213.38
450.883	200.38
451.104	215.38
451.324	222.38
451.545	218.38
451.766	215.38
451.986	226.38
452.207	202.38
452.428	214.38
452.648	212.38
452.869	223.38
453.089	222.38
453.31	225.38
453.53	207.38
453.751	213.38
453.971	221.38
454.192	233.38
454.412	207.38
454.633	232.38
454.853	200.38
455.073	181.38
455.294	208.38
455.514	197.38
455.734	218.38
455.955	229.38
456.175	233.38
456.395	223.38
456.616	216.38
456.836	206.38
457.056	204.38
457.276	208.38
457.497	204.38
457.717	190.38
457.937	202.38
458.157	196.38
458.377	202.38
458.598	209.38
458.818	212.38
459.038	204.38
459.258	223.38
459.478	219.38
459.698	221.38
459.918	230.38
460.138	246.38
460.358	224.38
460.578	223.38
460.798	221.38
461.018	222.38
461.238	228.38
461.458	237.38
461.678	250.38
461.898	254.38
462.118	247.38
462.338	240.38
462.558	240.38
462.777	255.38
462.997	248.38
463.217	244.38
463.437	241.38
463.657	238.38
463.876	256.38
464.096	248.38
464.316	247.38
464.536	251.38
464.755	285.38
464.975	257.38
465.195	252.38
465.414	260.38
465.634	215.38
465.854	213.38
466.073	229.38
466.293	215.38
466.512	209.38
466.732	221.38
466.951	232.38
467.171	225.38
467.391	209.38
467.61	194.38
467.829	209.38
468.049	200.38
468.268	202.38
468.488	203.38
468.707	200.38
468.927	200.38
469.146	204.38
469.365	201.38
469.585	200.38
469.804	219.38
470.023	232.38
470.243	219.38
470.462	208.38
470.681	198.38
470.901	215.38
471.12	221.38
471.339	193.38
471.558	192.38
471.777	210.38
471.997	224.38
472.216	229.38
472.435	213.38
472.654	214.38
472.873	218.38
473.092	216.38
473.311	230.38
473.53	182.38
473.749	212.38
473.968	221.38
474.187	214.38
474.406	192.38
474.625	207.38
474.844	201.38
475.063	208.38
475.282	202.38
475.501	232.38
475.72	243.38
475.939	225.38
476.158	210.38
476.377	218.38
476.596	218.38
476.814	225.38
477.033	204.38
477.252	225.38
477.471	208.38
477.69	222.38
477.908	211.38
478.127	236.38
478.346	223.38
478.564	234.38
478.783	209.38
479.002	234.38
479.22	243.38
479.439	246.38
479.658	240.38
479.876	242.38
480.095	217.38
480.313	248.38
480.532	241.38
480.751	218.38
480.969	221.38
481.188	229.38
481.406	221.38
481.624	218.38
481.843	230.38
482.061	205.38
482.28	235.38
482.498	253.38
482.717	239.38
482.935	233.38
483.153	241.38
483.372	225.38
483.59	230.38
483.808	229.38
484.027	226.38
484.245	223.38
484.463	238.38
484.681	223.38
484.9	240.38
485.118	234.38
485.336	213.38
485.554	231.38
485.772	233.38
485.99	222.38
486.209	240.38
486.427	255.38
486.645	232.38
486.863	248.38
487.081	247.38
487.299	255.38
487.517	231.38
487.735	236.38
487.953	251.38
488.171	249.38
488.389	228.38
488.607	235.38
488.825	280.38
489.043	250.38
489.261	233.38
489.479	243.38
489.696	225.38
489.914	231.38
490.132	242.38
490.35	236.38
490.568	266.38
490.786	240.38
491.003	230.38
491.221	246.38
491.439	249.38
491.657	243.38
491.874	243.38
492.092	265.38
492.31	297.38
492.527	288.38
492.745	242.38
492.963	238.38
493.18	244.38
493.398	232.38
493.615	256.38
493.833	254.38
494.05	245.38
494.268	250.38
494.485	240.38
494.703	250.38
494.92	244.38
495.138	237.38
495.355	231.38
495.573	269.38
495.79	247.38
496.008	241.38
496.225	238.38
496.442	267.38
496.66	258.38
496.877	260.38
497.094	269.38
497.312	264.38
497.529	258.38
497.746	266.38
497.963	254.38
498.181	267.38
498.398	272.38
498.615	284.38
498.832	288.38
499.049	304.38
499.267	314.38
499.484	327.38
499.701	340.38
499.918	346.38
500.135	382.38
500.352	366.38
500.569	359.38
500.786	382.38
501.003	379.38
501.22	342.38
501.437	350.38
501.654	330.38
501.871	315.38
502.088	307.38
502.305	304.38
502.522	281.38
502.739	287.38
502.956	286.38
503.172	280.38
503.389	286.38
