Data from StA_HRD10591_008.txt Node
Date: Fri May 16 15:18:48 EDT 2025
User: Yrep
Spectrometer: HR+D1059
Trigger mode: 1
Integration Time (sec): 1.000000E-1
Scans to average: 1
Electric dark correction enabled: true
Nonlinearity correction enabled: false
Boxcar width: 0
XAxis mode: Wavelengths
Number of Pixels in Spectrum: 2048
>>>>>Begin Spectral Data<<<<<
223.165	-9.81
223.4	-9.81
223.635	-9.81
223.869	-14.81
224.104	-22.81
224.338	-33.81
224.573	-3.81
224.808	-4.81
225.042	-20.81
225.277	-3.81
225.511	1.19
225.746	2.19
225.98	11.19
226.215	6.19
226.449	10.19
226.683	32.19
226.918	18.19
227.152	33.19
227.387	46.19
227.621	49.19
227.856	36.19
228.09	40.19
228.324	51.19
228.559	56.19
228.793	67.19
229.027	76.19
229.262	84.19
229.496	87.19
229.73	86.19
229.964	95.19
230.199	92.19
230.433	83.19
230.667	89.19
230.901	99.19
231.136	100.19
231.37	84.19
231.604	94.19
231.838	86.19
232.072	99.19
232.306	78.19
232.541	96.19
232.775	85.19
233.009	95.19
233.243	92.19
233.477	91.19
233.711	96.19
233.945	93.19
234.179	96.19
234.413	92.19
234.647	102.19
234.881	96.19
235.115	93.19
235.349	100.19
235.583	84.19
235.817	92.19
236.051	88.19
236.285	95.19
236.519	77.19
236.753	86.19
236.987	61.19
237.221	89.19
237.455	85.19
237.689	80.19
237.922	90.19
238.156	91.19
238.39	74.19
238.624	89.19
238.858	87.19
239.091	98.19
239.325	100.19
239.559	105.19
239.793	110.19
240.027	88.19
240.26	100.19
240.494	70.19
240.728	78.19
240.961	91.19
241.195	102.19
241.429	90.19
241.662	94.19
241.896	87.19
242.13	100.19
242.363	105.19
242.597	79.19
242.83	102.19
243.064	97.19
243.298	100.19
243.531	98.19
243.765	88.19
243.998	110.19
244.232	89.19
244.465	92.19
244.699	110.19
244.932	99.19
245.166	118.19
245.399	104.19
245.633	108.19
245.866	94.19
246.099	100.19
246.333	114.19
246.566	116.19
246.8	117.19
247.033	111.19
247.266	125.19
247.5	107.19
247.733	114.19
247.966	110.19
248.2	107.19
248.433	104.19
248.666	125.19
248.899	122.19
249.133	118.19
249.366	134.19
249.599	143.19
249.832	118.19
250.066	124.19
250.299	124.19
250.532	116.19
250.765	115.19
250.998	111.19
251.231	122.19
251.465	130.19
251.698	132.19
251.931	153.19
252.164	136.19
252.397	137.19
252.63	149.19
252.863	150.19
253.096	142.19
253.329	150.19
253.562	138.19
253.795	143.19
254.028	136.19
254.261	146.19
254.494	136.19
254.727	148.19
254.96	136.19
255.193	129.19
255.426	138.19
255.659	149.19
255.892	138.19
256.124	138.19
256.357	140.19
256.59	163.19
256.823	149.19
257.056	149.19
257.289	166.19
257.521	156.19
257.754	169.19
257.987	154.19
258.22	179.19
258.452	178.19
258.685	163.19
258.918	149.19
259.151	169.19
259.383	162.19
259.616	162.19
259.849	178.19
260.081	170.19
260.314	169.19
260.547	169.19
260.779	166.19
261.012	179.19
261.244	172.19
261.477	186.19
261.71	178.19
261.942	172.19
262.175	180.19
262.407	182.19
262.64	167.19
262.872	173.19
263.105	170.19
263.337	183.19
263.57	164.19
263.802	168.19
264.035	186.19
264.267	173.19
264.499	182.19
264.732	162.19
264.964	153.19
265.197	170.19
265.429	188.19
265.661	215.19
265.894	218.19
266.126	241.19
266.358	261.19
266.591	312.19
266.823	298.19
267.055	298.19
267.287	301.19
267.52	304.19
267.752	317.19
267.984	348.19
268.216	291.19
268.448	244.19
268.681	245.19
268.913	267.19
269.145	291.19
269.377	269.19
269.609	268.19
269.841	280.19
270.073	312.19
270.306	263.19
270.538	243.19
270.77	230.19
271.002	251.19
271.234	256.19
271.466	235.19
271.698	207.19
271.93	238.19
272.162	263.19
272.394	269.19
272.626	256.19
272.858	230.19
273.09	206.19
273.322	204.19
273.553	184.19
273.785	183.19
274.017	219.19
274.249	258.19
274.481	312.19
274.713	303.19
274.945	320.19
275.176	363.19
275.408	363.19
275.64	326.19
275.872	356.19
276.104	416.19
276.335	425.19
276.567	422.19
276.799	401.19
277.031	356.19
277.262	275.19
277.494	256.19
277.726	268.19
277.957	290.19
278.189	330.19
278.421	284.19
278.652	294.19
278.884	294.19
279.115	277.19
279.347	272.19
279.579	255.19
279.81	251.19
280.042	269.19
280.273	285.19
280.505	247.19
280.736	240.19
280.968	251.19
281.199	286.19
281.431	299.19
281.662	285.19
281.894	326.19
282.125	370.19
282.356	366.19
282.588	343.19
282.819	327.19
283.051	385.19
283.282	468.19
283.513	510.19
283.745	540.19
283.976	511.19
284.207	518.19
284.439	476.19
284.67	460.19
284.901	453.19
285.132	519.19
285.364	491.19
285.595	486.19
285.826	470.19
286.057	490.19
286.288	522.19
286.52	536.19
286.751	528.19
286.982	498.19
287.213	426.19
287.444	437.19
287.675	454.19
287.906	426.19
288.138	354.19
288.369	286.19
288.6	296.19
288.831	312.19
289.062	390.19
289.293	444.19
289.524	409.19
289.755	422.19
289.986	402.19
290.217	333.19
290.448	272.19
290.679	245.19
290.91	238.19
291.141	272.19
291.371	274.19
291.602	275.19
291.833	279.19
292.064	319.19
292.295	345.19
292.526	377.19
292.757	391.19
292.987	403.19
293.218	357.19
293.449	337.19
293.68	308.19
293.91	299.19
294.141	278.19
294.372	266.19
294.603	266.19
294.833	264.19
295.064	247.19
295.295	261.19
295.525	256.19
295.756	222.19
295.987	224.19
296.217	237.19
296.448	239.19
296.679	251.19
296.909	278.19
297.14	319.19
297.37	335.19
297.601	310.19
297.831	309.19
298.062	313.19
298.292	347.19
298.523	343.19
298.753	381.19
298.984	330.19
299.214	298.19
299.445	251.19
299.675	230.19
299.905	236.19
300.136	222.19
300.366	199.19
300.597	219.19
300.827	226.19
301.057	226.19
301.288	250.19
301.518	291.19
301.748	302.19
301.979	281.19
302.209	256.19
302.439	272.19
302.669	283.19
302.9	288.19
303.13	279.19
303.36	247.19
303.59	244.19
303.82	282.19
304.051	301.19
304.281	349.19
304.511	285.19
304.741	286.19
304.971	295.19
305.201	307.19
305.431	272.19
305.661	230.19
305.891	231.19
306.121	229.19
306.352	227.19
306.582	181.19
306.812	185.19
307.042	200.19
307.272	189.19
307.502	190.19
307.731	196.19
307.961	198.19
308.191	184.19
308.421	190.19
308.651	210.19
308.881	224.19
309.111	228.19
309.341	229.19
309.571	256.19
309.8	205.19
310.03	231.19
310.26	210.19
310.49	206.19
310.72	240.19
310.949	241.19
311.179	244.19
311.409	290.19
311.639	354.19
311.868	459.19
312.098	552.19
312.328	514.19
312.557	523.19
312.787	496.19
313.017	499.19
313.246	540.19
313.476	502.19
313.706	404.19
313.935	319.19
314.165	261.19
314.394	268.19
314.624	263.19
314.853	275.19
315.083	266.19
315.312	247.19
315.542	243.19
315.771	213.19
316.001	191.19
316.23	208.19
316.46	208.19
316.689	189.19
316.919	212.19
317.148	215.19
317.377	219.19
317.607	229.19
317.836	233.19
318.065	309.19
318.295	315.19
318.524	251.19
318.753	213.19
318.983	200.19
319.212	222.19
319.441	226.19
319.67	277.19
319.9	291.19
320.129	260.19
320.358	246.19
320.587	235.19
320.816	258.19
321.046	262.19
321.275	271.19
321.504	273.19
321.733	259.19
321.962	265.19
322.191	235.19
322.42	205.19
322.649	196.19
322.878	193.19
323.108	204.19
323.337	219.19
323.566	242.19
323.795	238.19
324.024	235.19
324.253	218.19
324.482	180.19
324.71	194.19
324.939	198.19
325.168	193.19
325.397	207.19
325.626	186.19
325.855	208.19
326.084	226.19
326.313	205.19
326.542	210.19
326.77	210.19
326.999	216.19
327.228	219.19
327.457	214.19
327.686	184.19
327.914	186.19
328.143	192.19
328.372	191.19
328.6	191.19
328.829	196.19
329.058	210.19
329.287	224.19
329.515	230.19
329.744	218.19
329.972	198.19
330.201	219.19
330.43	213.19
330.658	244.19
330.887	255.19
331.115	255.19
331.344	264.19
331.572	242.19
331.801	232.19
332.03	230.19
332.258	247.19
332.486	240.19
332.715	231.19
332.943	230.19
333.172	232.19
333.4	257.19
333.629	298.19
333.857	293.19
334.085	303.19
334.314	258.19
334.542	262.19
334.771	264.19
334.999	266.19
335.227	240.19
335.455	263.19
335.684	290.19
335.912	346.19
336.14	368.19
336.369	345.19
336.597	348.19
336.825	376.19
337.053	366.19
337.281	295.19
337.51	237.19
337.738	244.19
337.966	281.19
338.194	290.19
338.422	267.19
338.65	228.19
338.878	228.19
339.106	235.19
339.334	255.19
339.562	248.19
339.79	258.19
340.018	260.19
340.246	277.19
340.474	316.19
340.702	295.19
340.93	302.19
341.158	288.19
341.386	242.19
341.614	226.19
341.842	258.19
342.07	292.19
342.298	327.19
342.526	303.19
342.754	239.19
342.981	241.19
343.209	251.19
343.437	261.19
343.665	235.19
343.893	230.19
344.12	218.19
344.348	225.19
344.576	222.19
344.804	217.19
345.031	176.19
345.259	187.19
345.487	222.19
345.714	217.19
345.942	212.19
346.17	192.19
346.397	179.19
346.625	188.19
346.853	188.19
347.08	192.19
347.308	183.19
347.535	200.19
347.763	182.19
347.99	184.19
348.218	194.19
348.445	187.19
348.673	178.19
348.9	175.19
349.128	182.19
349.355	180.19
349.583	182.19
349.81	178.19
350.037	162.19
350.265	186.19
350.492	170.19
350.72	180.19
350.947	186.19
351.174	187.19
351.402	188.19
351.629	196.19
351.856	173.19
352.083	196.19
352.311	180.19
352.538	175.19
352.765	191.19
352.992	187.19
353.22	166.19
353.447	167.19
353.674	174.19
353.901	203.19
354.128	164.19
354.355	171.19
354.583	179.19
354.81	170.19
355.037	195.19
355.264	180.19
355.491	196.19
355.718	200.19
355.945	199.19
356.172	188.19
356.399	220.19
356.626	190.19
356.853	186.19
357.08	204.19
357.307	215.19
357.534	259.19
357.761	290.19
357.988	330.19
358.215	275.19
358.441	246.19
358.668	261.19
358.895	230.19
359.122	256.19
359.349	298.19
359.576	279.19
359.802	240.19
360.029	228.19
360.256	256.19
360.483	298.19
360.709	311.19
360.936	230.19
361.163	190.19
361.39	187.19
361.616	197.19
361.843	186.19
362.07	213.19
362.296	186.19
362.523	192.19
362.749	179.19
362.976	192.19
363.203	202.19
363.429	200.19
363.656	209.19
363.882	224.19
364.109	199.19
364.335	201.19
364.562	200.19
364.788	209.19
365.015	201.19
365.241	194.19
365.468	202.19
365.694	193.19
365.92	187.19
366.147	198.19
366.373	184.19
366.599	202.19
366.826	181.19
367.052	196.19
367.278	180.19
367.505	202.19
367.731	217.19
367.957	192.19
368.184	201.19
368.41	193.19
368.636	199.19
368.862	198.19
369.089	180.19
369.315	183.19
369.541	188.19
369.767	183.19
369.993	186.19
370.219	190.19
370.445	190.19
370.672	169.19
370.898	171.19
371.124	198.19
371.35	203.19
371.576	213.19
371.802	191.19
372.028	194.19
372.254	182.19
372.48	195.19
372.706	180.19
372.932	191.19
373.158	196.19
373.384	189.19
373.61	191.19
373.835	185.19
374.061	178.19
374.287	206.19
374.513	221.19
374.739	218.19
374.965	214.19
375.191	210.19
375.416	201.19
375.642	198.19
375.868	211.19
376.094	202.19
376.319	200.19
376.545	192.19
376.771	185.19
376.997	194.19
377.222	175.19
377.448	182.19
377.674	166.19
377.899	179.19
378.125	178.19
378.35	184.19
378.576	181.19
378.802	173.19
379.027	184.19
379.253	196.19
379.478	207.19
379.704	217.19
379.929	203.19
380.155	179.19
380.38	203.19
380.606	228.19
380.831	193.19
381.057	198.19
381.282	192.19
381.507	210.19
381.733	217.19
381.958	199.19
382.184	200.19
382.409	196.19
382.634	210.19
382.86	206.19
383.085	202.19
383.31	194.19
383.535	213.19
383.761	221.19
383.986	215.19
384.211	204.19
384.436	214.19
384.662	180.19
384.887	221.19
385.112	239.19
385.337	222.19
385.562	234.19
385.787	204.19
386.013	211.19
386.238	218.19
386.463	208.19
386.688	234.19
386.913	213.19
387.138	210.19
387.363	196.19
387.588	215.19
387.813	205.19
388.038	216.19
388.263	217.19
388.488	220.19
388.713	211.19
388.938	218.19
389.163	217.19
389.387	215.19
389.612	205.19
389.837	197.19
390.062	182.19
390.287	213.19
390.512	204.19
390.736	212.19
390.961	213.19
391.186	210.19
391.411	211.19
391.636	204.19
391.86	219.19
392.085	228.19
392.31	222.19
392.534	212.19
392.759	198.19
392.984	214.19
393.208	213.19
393.433	219.19
393.658	217.19
393.882	204.19
394.107	194.19
394.331	204.19
394.556	204.19
394.78	192.19
395.005	210.19
395.229	205.19
395.454	194.19
395.678	191.19
395.903	221.19
396.127	239.19
396.352	229.19
396.576	245.19
396.801	235.19
397.025	238.19
397.249	247.19
397.474	238.19
397.698	253.19
397.922	243.19
398.147	244.19
398.371	247.19
398.595	238.19
398.82	230.19
399.044	248.19
399.268	252.19
399.492	226.19
399.717	252.19
399.941	275.19
400.165	247.19
400.389	246.19
400.613	234.19
400.837	216.19
401.062	214.19
401.286	233.19
401.51	222.19
401.734	221.19
401.958	224.19
402.182	207.19
402.406	212.19
402.63	226.19
402.854	234.19
403.078	233.19
403.302	230.19
403.526	226.19
403.75	240.19
403.974	247.19
404.198	236.19
404.422	231.19
404.645	219.19
404.869	224.19
405.093	240.19
405.317	232.19
405.541	244.19
405.765	225.19
405.988	221.19
406.212	221.19
406.436	227.19
406.66	232.19
406.883	220.19
407.107	240.19
407.331	221.19
407.555	235.19
407.778	222.19
408.002	236.19
408.226	244.19
408.449	211.19
408.673	230.19
408.896	221.19
409.12	218.19
409.344	214.19
409.567	215.19
409.791	215.19
410.014	219.19
410.238	212.19
410.461	233.19
410.685	230.19
410.908	231.19
411.132	233.19
411.355	221.19
411.578	223.19
411.802	246.19
412.025	215.19
412.249	220.19
412.472	232.19
412.695	236.19
412.919	222.19
413.142	228.19
413.365	222.19
413.589	218.19
413.812	220.19
414.035	222.19
414.258	214.19
414.482	198.19
414.705	214.19
414.928	216.19
415.151	220.19
415.374	222.19
415.597	211.19
415.821	205.19
416.044	214.19
416.267	211.19
416.49	214.19
416.713	205.19
416.936	210.19
417.159	218.19
417.382	209.19
417.605	216.19
417.828	203.19
418.051	236.19
418.274	218.19
418.497	215.19
418.72	222.19
418.943	222.19
419.166	227.19
419.389	237.19
419.611	219.19
419.834	229.19
420.057	217.19
420.28	232.19
420.503	198.19
420.726	191.19
420.948	228.19
421.171	215.19
421.394	220.19
421.617	235.19
421.839	221.19
422.062	214.19
422.285	213.19
422.507	207.19
422.73	220.19
422.953	218.19
423.175	212.19
423.398	216.19
423.621	214.19
423.843	219.19
424.066	235.19
424.288	218.19
424.511	214.19
424.733	228.19
424.956	223.19
425.178	257.19
425.401	319.19
425.623	360.19
425.846	264.19
426.068	234.19
426.291	242.19
426.513	225.19
426.735	225.19
426.958	239.19
427.18	253.19
427.402	308.19
427.625	336.19
427.847	247.19
428.069	244.19
428.292	232.19
428.514	212.19
428.736	240.19
428.958	294.19
429.181	297.19
429.403	241.19
429.625	220.19
429.847	212.19
430.069	227.19
430.292	210.19
430.514	211.19
430.736	207.19
430.958	192.19
431.18	205.19
431.402	210.19
431.624	203.19
431.846	200.19
432.068	210.19
432.29	213.19
432.512	216.19
432.734	215.19
432.956	197.19
433.178	210.19
433.4	215.19
433.622	216.19
433.844	251.19
434.066	268.19
434.287	259.19
434.509	251.19
434.731	254.19
434.953	230.19
435.175	255.19
435.397	263.19
435.618	223.19
435.84	222.19
436.062	242.19
436.284	216.19
436.505	192.19
436.727	218.19
436.949	210.19
437.17	219.19
437.392	237.19
437.614	209.19
437.835	207.19
438.057	202.19
438.278	201.19
438.5	205.19
438.721	200.19
438.943	207.19
439.165	192.19
439.386	196.19
439.608	202.19
439.829	197.19
440.05	206.19
440.272	206.19
440.493	208.19
440.715	193.19
440.936	229.19
441.158	206.19
441.379	190.19
441.6	205.19
441.822	223.19
442.043	203.19
442.264	215.19
442.486	218.19
442.707	214.19
442.928	206.19
443.149	221.19
443.371	209.19
443.592	212.19
443.813	216.19
444.034	203.19
444.255	212.19
444.476	219.19
444.698	213.19
444.919	238.19
445.14	298.19
445.361	238.19
445.582	220.19
445.803	210.19
446.024	228.19
446.245	222.19
446.466	204.19
446.687	203.19
446.908	202.19
447.129	201.19
447.35	210.19
447.571	208.19
447.792	182.19
448.013	188.19
448.234	203.19
448.455	202.19
448.675	208.19
448.896	201.19
449.117	218.19
449.338	217.19
449.559	210.19
449.779	227.19
450	230.19
450.221	225.19
450.442	201.19
450.662	214.19
450.883	202.19
451.104	196.19
451.324	202.19
451.545	200.19
451.766	209.19
451.986	210.19
452.207	192.19
452.428	201.19
452.648	214.19
452.869	220.19
453.089	216.19
453.31	206.19
453.53	207.19
453.751	206.19
453.971	218.19
454.192	222.19
454.412	198.19
454.633	213.19
454.853	219.19
455.073	195.19
455.294	206.19
455.514	208.19
455.734	210.19
455.955	207.19
456.175	229.19
456.395	208.19
456.616	201.19
456.836	197.19
457.056	206.19
457.276	198.19
457.497	179.19
457.717	184.19
457.937	195.19
458.157	192.19
458.377	208.19
458.598	200.19
458.818	230.19
459.038	218.19
459.258	221.19
459.478	218.19
459.698	214.19
459.918	215.19
460.138	218.19
460.358	221.19
460.578	207.19
460.798	197.19
461.018	213.19
461.238	222.19
461.458	249.19
461.678	248.19
461.898	269.19
462.118	249.19
462.338	246.19
462.558	257.19
462.777	273.19
462.997	256.19
463.217	233.19
463.437	231.19
463.657	235.19
463.876	231.19
464.096	237.19
464.316	251.19
464.536	263.19
464.755	263.19
464.975	251.19
465.195	246.19
465.414	254.19
465.634	218.19
465.854	227.19
466.073	210.19
466.293	220.19
466.512	211.19
466.732	209.19
466.951	217.19
467.171	215.19
467.391	206.19
467.61	202.19
467.829	196.19
468.049	200.19
468.268	189.19
468.488	199.19
468.707	202.19
468.927	211.19
469.146	190.19
469.365	211.19
469.585	194.19
469.804	232.19
470.023	224.19
470.243	192.19
470.462	188.19
470.681	190.19
470.901	221.19
471.12	206.19
471.339	206.19
471.558	216.19
471.777	201.19
471.997	220.19
472.216	214.19
472.435	205.19
472.654	209.19
472.873	202.19
473.092	205.19
473.311	218.19
473.53	202.19
473.749	190.19
473.968	212.19
474.187	196.19
474.406	204.19
474.625	202.19
474.844	204.19
475.063	203.19
475.282	220.19
475.501	215.19
475.72	228.19
475.939	231.19
476.158	215.19
476.377	212.19
476.596	227.19
476.814	200.19
477.033	212.19
477.252	201.19
477.471	210.19
477.69	220.19
477.908	223.19
478.127	217.19
478.346	217.19
478.564	214.19
478.783	221.19
479.002	236.19
479.22	248.19
479.439	233.19
479.658	226.19
479.876	239.19
480.095	246.19
480.313	245.19
480.532	230.19
480.751	235.19
480.969	228.19
481.188	218.19
481.406	223.19
481.624	220.19
481.843	223.19
482.061	234.19
482.28	232.19
482.498	222.19
482.717	220.19
482.935	222.19
483.153	226.19
483.372	236.19
483.59	228.19
483.808	233.19
484.027	228.19
484.245	220.19
484.463	226.19
484.681	215.19
484.9	242.19
485.118	252.19
485.336	222.19
485.554	222.19
485.772	230.19
485.99	235.19
486.209	230.19
486.427	240.19
486.645	235.19
486.863	250.19
487.081	248.19
487.299	274.19
487.517	215.19
487.735	235.19
487.953	237.19
488.171	231.19
488.389	214.19
488.607	236.19
488.825	250.19
489.043	246.19
489.261	263.19
489.479	231.19
489.696	230.19
489.914	230.19
490.132	228.19
490.35	239.19
490.568	229.19
490.786	228.19
491.003	242.19
491.221	235.19
491.439	231.19
491.657	231.19
491.874	241.19
492.092	231.19
492.31	288.19
492.527	268.19
492.745	241.19
492.963	240.19
493.18	234.19
493.398	264.19
493.615	248.19
493.833	265.19
494.05	248.19
494.268	247.19
494.485	251.19
494.703	239.19
494.92	242.19
495.138	240.19
495.355	247.19
495.573	263.19
495.79	267.19
496.008	250.19
496.225	230.19
496.442	259.19
496.66	251.19
496.877	264.19
497.094	276.19
497.312	256.19
497.529	245.19
497.746	268.19
497.963	251.19
498.181	265.19
498.398	286.19
498.615	280.19
498.832	287.19
499.049	306.19
499.267	306.19
499.484	312.19
499.701	308.19
499.918	336.19
500.135	363.19
500.352	385.19
500.569	391.19
500.786	362.19
501.003	336.19
501.22	339.19
501.437	350.19
501.654	327.19
501.871	302.19
502.088	298.19
502.305	286.19
502.522	274.19
502.739	282.19
502.956	270.19
503.172	269.19
503.389	257.19
503.606	283.19
