Data from StA_HRD10591_023.txt Node
Date: Fri May 16 15:18:56 EDT 2025
User: Yrep
Spectrometer: HR+D1059
Trigger mode: 1
Integration Time (sec): 1.000000E-1
Scans to average: 1
Electric dark correction enabled: true
Nonlinearity correction enabled: false
Boxcar width: 0
XAxis mode: Wavelengths
Number of Pixels in Spectrum: 2048
>>>>>Begin Spectral Data<<<<<
223.165	-13.56
223.4	-13.56
223.635	-13.56
223.869	-11.56
224.104	-14.56
224.338	-34.56
224.573	-29.56
224.808	-15.56
225.042	-0.56
225.277	-4.56
225.511	-8.56
225.746	19.44
225.98	4.44
226.215	11.44
226.449	12.44
226.683	26.44
226.918	29.44
227.152	29.44
227.387	42.44
227.621	39.44
227.856	58.44
228.09	54.44
228.324	45.44
228.559	76.44
228.793	58.44
229.027	66.44
229.262	69.44
229.496	64.44
229.73	64.44
229.964	84.44
230.199	76.44
230.433	86.44
230.667	86.44
230.901	72.44
231.136	82.44
231.37	87.44
231.604	91.44
231.838	80.44
232.072	94.44
232.306	81.44
232.541	92.44
232.775	86.44
233.009	71.44
233.243	91.44
233.477	72.44
233.711	78.44
233.945	72.44
234.179	85.44
234.413	78.44
234.647	75.44
234.881	78.44
235.115	79.44
235.349	91.44
235.583	77.44
235.817	78.44
236.051	99.44
236.285	96.44
236.519	79.44
236.753	68.44
236.987	69.44
237.221	88.44
237.455	82.44
237.689	84.44
237.922	79.44
238.156	91.44
238.39	74.44
238.624	87.44
238.858	80.44
239.091	82.44
239.325	84.44
239.559	67.44
239.793	79.44
240.027	80.44
240.26	79.44
240.494	73.44
240.728	67.44
240.961	76.44
241.195	81.44
241.429	92.44
241.662	86.44
241.896	86.44
242.13	91.44
242.363	86.44
242.597	81.44
242.83	82.44
243.064	71.44
243.298	63.44
243.531	87.44
243.765	94.44
243.998	88.44
244.232	79.44
244.465	81.44
244.699	93.44
244.932	97.44
245.166	82.44
245.399	81.44
245.633	78.44
245.866	78.44
246.099	79.44
246.333	73.44
246.566	76.44
246.8	69.44
247.033	94.44
247.266	68.44
247.5	80.44
247.733	83.44
247.966	91.44
248.2	69.44
248.433	91.44
248.666	86.44
248.899	86.44
249.133	90.44
249.366	72.44
249.599	70.44
249.832	82.44
250.066	71.44
250.299	98.44
250.532	86.44
250.765	84.44
250.998	72.44
251.231	92.44
251.465	89.44
251.698	83.44
251.931	78.44
252.164	88.44
252.397	76.44
252.63	86.44
252.863	91.44
253.096	79.44
253.329	86.44
253.562	75.44
253.795	90.44
254.028	90.44
254.261	87.44
254.494	78.44
254.727	84.44
254.96	90.44
255.193	94.44
255.426	72.44
255.659	82.44
255.892	87.44
256.124	78.44
256.357	93.44
256.59	88.44
256.823	85.44
257.056	81.44
257.289	92.44
257.521	76.44
257.754	85.44
257.987	81.44
258.22	81.44
258.452	88.44
258.685	86.44
258.918	85.44
259.151	80.44
259.383	100.44
259.616	81.44
259.849	74.44
260.081	94.44
260.314	86.44
260.547	84.44
260.779	66.44
261.012	78.44
261.244	69.44
261.477	96.44
261.71	103.44
261.942	83.44
262.175	74.44
262.407	96.44
262.64	88.44
262.872	78.44
263.105	111.44
263.337	97.44
263.57	106.44
263.802	80.44
264.035	95.44
264.267	84.44
264.499	86.44
264.732	85.44
264.964	102.44
265.197	90.44
265.429	98.44
265.661	88.44
265.894	96.44
266.126	100.44
266.358	81.44
266.591	92.44
266.823	91.44
267.055	76.44
267.287	84.44
267.52	98.44
267.752	80.44
267.984	87.44
268.216	86.44
268.448	86.44
268.681	90.44
268.913	93.44
269.145	90.44
269.377	87.44
269.609	76.44
269.841	82.44
270.073	84.44
270.306	93.44
270.538	94.44
270.77	95.44
271.002	85.44
271.234	87.44
271.466	84.44
271.698	85.44
271.93	92.44
272.162	88.44
272.394	88.44
272.626	92.44
272.858	95.44
273.09	104.44
273.322	99.44
273.553	90.44
273.785	74.44
274.017	98.44
274.249	92.44
274.481	99.44
274.713	94.44
274.945	97.44
275.176	87.44
275.408	98.44
275.64	96.44
275.872	97.44
276.104	92.44
276.335	86.44
276.567	97.44
276.799	98.44
277.031	84.44
277.262	84.44
277.494	84.44
277.726	83.44
277.957	85.44
278.189	83.44
278.421	90.44
278.652	87.44
278.884	95.44
279.115	93.44
279.347	94.44
279.579	82.44
279.81	97.44
280.042	86.44
280.273	83.44
280.505	80.44
280.736	88.44
280.968	84.44
281.199	91.44
281.431	79.44
281.662	88.44
281.894	96.44
282.125	95.44
282.356	95.44
282.588	88.44
282.819	94.44
283.051	90.44
283.282	89.44
283.513	82.44
283.745	76.44
283.976	98.44
284.207	96.44
284.439	93.44
284.67	72.44
284.901	76.44
285.132	93.44
285.364	99.44
285.595	107.44
285.826	91.44
286.057	87.44
286.288	113.44
286.52	103.44
286.751	104.44
286.982	111.44
287.213	106.44
287.444	87.44
287.675	99.44
287.906	110.44
288.138	94.44
288.369	86.44
288.6	86.44
288.831	115.44
289.062	73.44
289.293	98.44
289.524	91.44
289.755	84.44
289.986	97.44
290.217	96.44
290.448	84.44
290.679	99.44
290.91	99.44
291.141	84.44
291.371	96.44
291.602	92.44
291.833	96.44
292.064	72.44
292.295	101.44
292.526	91.44
292.757	90.44
292.987	103.44
293.218	92.44
293.449	85.44
293.68	106.44
293.91	88.44
294.141	101.44
294.372	88.44
294.603	82.44
294.833	84.44
295.064	91.44
295.295	86.44
295.525	78.44
295.756	94.44
295.987	99.44
296.217	92.44
296.448	95.44
296.679	91.44
296.909	91.44
297.14	83.44
297.37	93.44
297.601	95.44
297.831	93.44
298.062	86.44
298.292	107.44
298.523	103.44
298.753	92.44
298.984	92.44
299.214	93.44
299.445	98.44
299.675	91.44
299.905	106.44
300.136	88.44
300.366	93.44
300.597	88.44
300.827	93.44
301.057	90.44
301.288	98.44
301.518	99.44
301.748	95.44
301.979	110.44
302.209	110.44
302.439	84.44
302.669	99.44
302.9	98.44
303.13	99.44
303.36	88.44
303.59	94.44
303.82	92.44
304.051	94.44
304.281	97.44
304.511	90.44
304.741	93.44
304.971	83.44
305.201	78.44
305.431	101.44
305.661	98.44
305.891	98.44
306.121	78.44
306.352	81.44
306.582	98.44
306.812	100.44
307.042	97.44
307.272	88.44
307.502	95.44
307.731	87.44
307.961	87.44
308.191	73.44
308.421	87.44
308.651	93.44
308.881	85.44
309.111	83.44
309.341	87.44
309.571	95.44
309.8	87.44
310.03	91.44
310.26	86.44
310.49	96.44
310.72	78.44
310.949	83.44
311.179	95.44
311.409	100.44
311.639	90.44
311.868	94.44
312.098	106.44
312.328	98.44
312.557	88.44
312.787	103.44
313.017	103.44
313.246	99.44
313.476	90.44
313.706	83.44
313.935	89.44
314.165	94.44
314.394	86.44
314.624	96.44
314.853	93.44
315.083	88.44
315.312	91.44
315.542	80.44
315.771	98.44
316.001	85.44
316.23	86.44
316.46	79.44
316.689	88.44
316.919	98.44
317.148	90.44
317.377	77.44
317.607	82.44
317.836	83.44
318.065	91.44
318.295	88.44
318.524	83.44
318.753	99.44
318.983	93.44
319.212	95.44
319.441	99.44
319.67	83.44
319.9	94.44
320.129	89.44
320.358	101.44
320.587	92.44
320.816	93.44
321.046	90.44
321.275	89.44
321.504	92.44
321.733	96.44
321.962	88.44
322.191	82.44
322.42	91.44
322.649	81.44
322.878	100.44
323.108	90.44
323.337	94.44
323.566	84.44
323.795	85.44
324.024	92.44
324.253	93.44
324.482	104.44
324.71	90.44
324.939	104.44
325.168	79.44
325.397	97.44
325.626	102.44
325.855	88.44
326.084	94.44
326.313	91.44
326.542	93.44
326.77	98.44
326.999	99.44
327.228	95.44
327.457	90.44
327.686	85.44
327.914	97.44
328.143	98.44
328.372	86.44
328.6	92.44
328.829	86.44
329.058	90.44
329.287	81.44
329.515	77.44
329.744	95.44
329.972	97.44
330.201	102.44
330.43	94.44
330.658	94.44
330.887	107.44
331.115	96.44
331.344	95.44
331.572	84.44
331.801	99.44
332.03	91.44
332.258	92.44
332.486	87.44
332.715	73.44
332.943	89.44
333.172	103.44
333.4	88.44
333.629	95.44
333.857	90.44
334.085	90.44
334.314	83.44
334.542	78.44
334.771	95.44
334.999	86.44
335.227	92.44
335.455	93.44
335.684	80.44
335.912	92.44
336.14	91.44
336.369	85.44
336.597	83.44
336.825	96.44
337.053	92.44
337.281	90.44
337.51	94.44
337.738	89.44
337.966	89.44
338.194	83.44
338.422	84.44
338.65	92.44
338.878	98.44
339.106	83.44
339.334	96.44
339.562	87.44
339.79	89.44
340.018	93.44
340.246	87.44
340.474	79.44
340.702	93.44
340.93	90.44
341.158	99.44
341.386	84.44
341.614	92.44
341.842	85.44
342.07	103.44
342.298	98.44
342.526	87.44
342.754	99.44
342.981	90.44
343.209	78.44
343.437	99.44
343.665	90.44
343.893	90.44
344.12	102.44
344.348	93.44
344.576	90.44
344.804	88.44
345.031	82.44
345.259	92.44
345.487	97.44
345.714	91.44
345.942	81.44
346.17	79.44
346.397	89.44
346.625	102.44
346.853	97.44
347.08	92.44
347.308	83.44
347.535	96.44
347.763	89.44
347.99	84.44
348.218	95.44
348.445	86.44
348.673	88.44
348.9	83.44
349.128	94.44
349.355	86.44
349.583	84.44
349.81	84.44
350.037	74.44
350.265	89.44
350.492	82.44
350.72	78.44
350.947	88.44
351.174	98.44
351.402	87.44
351.629	94.44
351.856	85.44
352.083	76.44
352.311	90.44
352.538	88.44
352.765	96.44
352.992	94.44
353.22	93.44
353.447	98.44
353.674	93.44
353.901	75.44
354.128	90.44
354.355	68.44
354.583	83.44
354.81	85.44
355.037	107.44
355.264	94.44
355.491	100.44
355.718	99.44
355.945	85.44
356.172	93.44
356.399	91.44
356.626	97.44
356.853	87.44
357.08	79.44
357.307	100.44
357.534	105.44
357.761	120.44
357.988	111.44
358.215	106.44
358.441	101.44
358.668	94.44
358.895	98.44
359.122	91.44
359.349	121.44
359.576	114.44
359.802	98.44
360.029	95.44
360.256	99.44
360.483	117.44
360.709	102.44
360.936	97.44
361.163	100.44
361.39	91.44
361.616	88.44
361.843	82.44
362.07	94.44
362.296	94.44
362.523	98.44
362.749	96.44
362.976	102.44
363.203	93.44
363.429	96.44
363.656	102.44
363.882	91.44
364.109	104.44
364.335	87.44
364.562	101.44
364.788	92.44
365.015	101.44
365.241	95.44
365.468	93.44
365.694	79.44
365.92	95.44
366.147	83.44
366.373	94.44
366.599	71.44
366.826	91.44
367.052	87.44
367.278	86.44
367.505	93.44
367.731	97.44
367.957	78.44
368.184	95.44
368.41	101.44
368.636	81.44
368.862	99.44
369.089	102.44
369.315	79.44
369.541	97.44
369.767	84.44
369.993	74.44
370.219	86.44
370.445	72.44
370.672	83.44
370.898	96.44
371.124	92.44
371.35	90.44
371.576	97.44
371.802	92.44
372.028	90.44
372.254	84.44
372.48	86.44
372.706	77.44
372.932	100.44
373.158	91.44
373.384	95.44
373.61	91.44
373.835	95.44
374.061	95.44
374.287	106.44
374.513	103.44
374.739	96.44
374.965	79.44
375.191	79.44
375.416	91.44
375.642	88.44
375.868	91.44
376.094	76.44
376.319	85.44
376.545	81.44
376.771	85.44
376.997	90.44
377.222	77.44
377.448	84.44
377.674	80.44
377.899	96.44
378.125	87.44
378.35	90.44
378.576	72.44
378.802	69.44
379.027	76.44
379.253	97.44
379.478	95.44
379.704	80.44
379.929	96.44
380.155	94.44
380.38	99.44
380.606	93.44
380.831	96.44
381.057	87.44
381.282	97.44
381.507	82.44
381.733	84.44
381.958	99.44
382.184	95.44
382.409	94.44
382.634	108.44
382.86	95.44
383.085	83.44
383.31	94.44
383.535	96.44
383.761	80.44
383.986	91.44
384.211	85.44
384.436	103.44
384.662	92.44
384.887	100.44
385.112	106.44
385.337	81.44
385.562	96.44
385.787	101.44
386.013	92.44
386.238	90.44
386.463	90.44
386.688	90.44
386.913	96.44
387.138	79.44
387.363	80.44
387.588	87.44
387.813	83.44
388.038	96.44
388.263	97.44
388.488	94.44
388.713	98.44
388.938	103.44
389.163	83.44
389.387	100.44
389.612	96.44
389.837	83.44
390.062	106.44
390.287	106.44
390.512	96.44
390.736	98.44
390.961	101.44
391.186	101.44
391.411	100.44
391.636	94.44
391.86	86.44
392.085	104.44
392.31	87.44
392.534	96.44
392.759	96.44
392.984	90.44
393.208	90.44
393.433	83.44
393.658	90.44
393.882	90.44
394.107	90.44
394.331	96.44
394.556	84.44
394.78	83.44
395.005	84.44
395.229	87.44
395.454	95.44
395.678	96.44
395.903	108.44
396.127	97.44
396.352	111.44
396.576	99.44
396.801	101.44
397.025	101.44
397.249	88.44
397.474	113.44
397.698	99.44
397.922	91.44
398.147	98.44
398.371	92.44
398.595	96.44
398.82	100.44
399.044	90.44
399.268	95.44
399.492	99.44
399.717	89.44
399.941	94.44
400.165	89.44
400.389	87.44
400.613	88.44
400.837	88.44
401.062	88.44
401.286	91.44
401.51	91.44
401.734	91.44
401.958	77.44
402.182	88.44
402.406	100.44
402.63	70.44
402.854	86.44
403.078	95.44
403.302	77.44
403.526	84.44
403.75	77.44
403.974	92.44
404.198	89.44
404.422	98.44
404.645	71.44
404.869	83.44
405.093	82.44
405.317	80.44
405.541	79.44
405.765	85.44
405.988	72.44
406.212	85.44
406.436	76.44
406.66	87.44
406.883	82.44
407.107	84.44
407.331	82.44
407.555	90.44
407.778	87.44
408.002	87.44
408.226	94.44
408.449	92.44
408.673	85.44
408.896	98.44
409.12	79.44
409.344	85.44
409.567	77.44
409.791	98.44
410.014	81.44
410.238	83.44
410.461	82.44
410.685	91.44
410.908	74.44
411.132	90.44
411.355	79.44
411.578	72.44
411.802	89.44
412.025	78.44
412.249	96.44
412.472	105.44
412.695	98.44
412.919	102.44
413.142	90.44
413.365	90.44
413.589	74.44
413.812	81.44
414.035	95.44
414.258	94.44
414.482	87.44
414.705	79.44
414.928	87.44
415.151	90.44
415.374	85.44
415.597	77.44
415.821	93.44
416.044	78.44
416.267	83.44
416.49	83.44
416.713	75.44
416.936	85.44
417.159	87.44
417.382	90.44
417.605	82.44
417.828	83.44
418.051	80.44
418.274	78.44
418.497	87.44
418.72	95.44
418.943	87.44
419.166	96.44
419.389	80.44
419.611	69.44
419.834	97.44
420.057	88.44
420.28	88.44
420.503	97.44
420.726	97.44
420.948	87.44
421.171	90.44
421.394	100.44
421.617	73.44
421.839	87.44
422.062	86.44
422.285	95.44
422.507	84.44
422.73	90.44
422.953	99.44
423.175	86.44
423.398	81.44
423.621	87.44
423.843	83.44
424.066	90.44
424.288	85.44
424.511	96.44
424.733	79.44
424.956	94.44
425.178	113.44
425.401	127.44
425.623	161.44
425.846	100.44
426.068	99.44
426.291	79.44
426.513	76.44
426.735	72.44
426.958	89.44
427.18	92.44
427.402	119.44
427.625	133.44
427.847	110.44
428.069	96.44
428.292	87.44
428.514	93.44
428.736	98.44
428.958	119.44
429.181	146.44
429.403	100.44
429.625	88.44
429.847	106.44
430.069	77.44
430.292	92.44
430.514	85.44
430.736	83.44
430.958	86.44
431.18	88.44
431.402	90.44
431.624	83.44
431.846	85.44
432.068	92.44
432.29	91.44
432.512	91.44
432.734	87.44
432.956	90.44
433.178	91.44
433.4	87.44
433.622	94.44
433.844	115.44
434.066	117.44
434.287	107.44
434.509	101.44
434.731	104.44
434.953	93.44
435.175	105.44
435.397	126.44
435.618	90.44
435.84	95.44
436.062	89.44
436.284	98.44
436.505	94.44
436.727	89.44
436.949	84.44
437.17	79.44
437.392	92.44
437.614	93.44
437.835	96.44
438.057	93.44
438.278	84.44
438.5	93.44
438.721	92.44
438.943	97.44
439.165	79.44
439.386	86.44
439.608	91.44
439.829	106.44
440.05	90.44
440.272	109.44
440.493	84.44
440.715	77.44
440.936	86.44
441.158	91.44
441.379	94.44
441.6	92.44
441.822	97.44
442.043	83.44
442.264	95.44
442.486	84.44
442.707	88.44
442.928	83.44
443.149	69.44
443.371	95.44
443.592	76.44
443.813	99.44
444.034	87.44
444.255	88.44
444.476	88.44
444.698	91.44
444.919	77.44
445.14	153.44
445.361	126.44
445.582	86.44
445.803	82.44
446.024	81.44
446.245	90.44
446.466	87.44
446.687	76.44
446.908	78.44
447.129	84.44
447.35	91.44
447.571	79.44
447.792	75.44
448.013	94.44
448.234	95.44
448.455	98.44
448.675	94.44
448.896	81.44
449.117	81.44
449.338	87.44
449.559	101.44
449.779	112.44
450	94.44
450.221	96.44
450.442	86.44
450.662	86.44
450.883	91.44
451.104	83.44
451.324	80.44
451.545	78.44
451.766	78.44
451.986	89.44
452.207	96.44
452.428	88.44
452.648	108.44
452.869	115.44
453.089	85.44
453.31	91.44
453.53	83.44
453.751	81.44
453.971	97.44
454.192	99.44
454.412	103.44
454.633	104.44
454.853	93.44
455.073	95.44
455.294	76.44
455.514	89.44
455.734	95.44
455.955	81.44
456.175	89.44
456.395	86.44
456.616	94.44
456.836	85.44
457.056	88.44
457.276	92.44
457.497	70.44
457.717	91.44
457.937	87.44
458.157	99.44
458.377	91.44
458.598	101.44
458.818	94.44
459.038	78.44
459.258	91.44
459.478	85.44
459.698	93.44
459.918	102.44
460.138	85.44
460.358	100.44
460.578	92.44
460.798	77.44
461.018	68.44
461.238	93.44
461.458	103.44
461.678	90.44
461.898	102.44
462.118	95.44
462.338	88.44
462.558	100.44
462.777	85.44
462.997	96.44
463.217	91.44
463.437	80.44
463.657	77.44
463.876	87.44
464.096	92.44
464.316	90.44
464.536	94.44
464.755	118.44
464.975	92.44
465.195	102.44
465.414	116.44
465.634	93.44
465.854	94.44
466.073	98.44
466.293	84.44
466.512	99.44
466.732	84.44
466.951	84.44
467.171	90.44
467.391	76.44
467.61	68.44
467.829	100.44
468.049	98.44
468.268	75.44
468.488	86.44
468.707	73.44
468.927	72.44
469.146	89.44
469.365	82.44
469.585	90.44
469.804	110.44
470.023	90.44
470.243	83.44
470.462	83.44
470.681	87.44
470.901	89.44
471.12	86.44
471.339	97.44
471.558	91.44
471.777	89.44
471.997	93.44
472.216	90.44
472.435	93.44
472.654	70.44
472.873	84.44
473.092	83.44
473.311	85.44
473.53	84.44
473.749	90.44
473.968	94.44
474.187	85.44
474.406	83.44
474.625	88.44
474.844	89.44
475.063	83.44
475.282	97.44
475.501	89.44
475.72	103.44
475.939	95.44
476.158	85.44
476.377	88.44
476.596	97.44
476.814	87.44
477.033	89.44
477.252	94.44
477.471	91.44
477.69	99.44
477.908	91.44
478.127	94.44
478.346	94.44
478.564	94.44
478.783	97.44
479.002	85.44
479.22	94.44
479.439	96.44
479.658	90.44
479.876	100.44
480.095	91.44
480.313	87.44
480.532	92.44
480.751	74.44
480.969	98.44
481.188	84.44
481.406	90.44
481.624	102.44
481.843	94.44
482.061	93.44
482.28	93.44
482.498	79.44
482.717	86.44
482.935	103.44
483.153	92.44
483.372	101.44
483.59	96.44
483.808	98.44
484.027	97.44
484.245	83.44
484.463	92.44
484.681	84.44
484.9	95.44
485.118	88.44
485.336	81.44
485.554	87.44
485.772	87.44
485.99	87.44
486.209	92.44
486.427	99.44
486.645	107.44
486.863	69.44
487.081	94.44
487.299	94.44
487.517	84.44
487.735	98.44
487.953	92.44
488.171	91.44
488.389	93.44
488.607	87.44
488.825	96.44
489.043	100.44
489.261	95.44
489.479	84.44
489.696	103.44
489.914	93.44
490.132	91.44
490.35	85.44
490.568	98.44
490.786	103.44
491.003	116.44
491.221	96.44
491.439	88.44
491.657	90.44
491.874	91.44
492.092	94.44
492.31	109.44
492.527	119.44
492.745	83.44
492.963	84.44
493.18	95.44
493.398	99.44
493.615	93.44
493.833	80.44
494.05	102.44
494.268	92.44
494.485	101.44
494.703	93.44
494.92	83.44
495.138	87.44
495.355	65.44
495.573	110.44
495.79	101.44
496.008	92.44
496.225	100.44
496.442	86.44
496.66	88.44
496.877	107.44
497.094	92.44
497.312	108.44
497.529	84.44
497.746	93.44
497.963	80.44
498.181	89.44
498.398	98.44
498.615	104.44
498.832	84.44
499.049	83.44
499.267	87.44
499.484	77.44
499.701	99.44
499.918	88.44
500.135	79.44
500.352	92.44
500.569	97.44
500.786	88.44
501.003	101.44
501.22	92.44
501.437	89.44
501.654	95.44
501.871	86.44
502.088	89.44
502.305	76.44
502.522	75.44
502.739	95.44
502.956	91.44
503.172	100.44
503.389	88.44
503.606	81.44
503.823	87.44
504.04	90.44
504.256	92.44
504.473	88.44
504.69	79.44
504.907	101.44
505.123	77.44
505.34	81.44
505.557	77.44
505.773	89.44
505.99	100.44
506.207	86.44
506.423	96.44
506.64	92.44
506.856	88.44
507.073	80.44
507.289	98.44
507.506	86.44
507.722	86.44
507.939	99.44
508.155	99.44
508.372	87.44
508.588	99.44
508.805	78.44
509.021	90.44
509.238	114.44
509.454	90.44
509.67	84.44
509.887	92.44
510.103	88.44
510.319	91.44
510.536	110.44
510.752	101.44
510.968	103.44
511.184	80.44
511.401	85.44
511.617	93.44
511.833	85.44
512.049	87.44
512.265	83.44
512.481	91.44
512.698	82.44
512.914	79.44
513.13	95.44
513.346	86.44
513.562	96.44
513.778	89.44
513.994	84.44
514.21	100.44
514.426	91.44
514.642	94.44
514.858	81.44
515.074	91.44
515.29	81.44
515.506	86.44
515.721	88.44
515.937	95.44
516.153	88.44
516.369	80.44
516.585	77.44
516.801	99.44
517.016	93.44
517.232	95.44
517.448	82.44
517.664	83.44
517.879	76.44
518.095	95.44
