Data from StA_HRD10591_063.txt Node
Date: Fri May 16 15:19:15 EDT 2025
User: Yrep
Spectrometer: HR+D1059
Trigger mode: 1
Integration Time (sec): 1.000000E-1
Scans to average: 1
Electric dark correction enabled: true
Nonlinearity correction enabled: false
Boxcar width: 0
XAxis mode: Wavelengths
Number of Pixels in Spectrum: 2048
>>>>>Begin Spectral Data<<<<<
223.165	-24.56
223.4	-24.56
223.635	-24.56
223.869	-16.56
224.104	-17.56
224.338	-19.56
224.573	-20.56
224.808	-8.56
225.042	-0.56
225.277	-5.56
225.511	-4.56
225.746	11.44
225.98	5.44
226.215	8.44
226.449	16.44
226.683	23.44
226.918	22.44
227.152	30.44
227.387	35.44
227.621	29.44
227.856	41.44
228.09	30.44
228.324	51.44
228.559	57.44
228.793	55.44
229.027	60.44
229.262	59.44
229.496	76.44
229.73	77.44
229.964	87.44
230.199	97.44
230.433	96.44
230.667	84.44
230.901	90.44
231.136	81.44
231.37	87.44
231.604	106.44
231.838	97.44
232.072	107.44
232.306	93.44
232.541	93.44
232.775	93.44
233.009	86.44
233.243	88.44
233.477	85.44
233.711	88.44
233.945	85.44
234.179	68.44
234.413	81.44
234.647	81.44
234.881	88.44
235.115	97.44
235.349	98.44
235.583	91.44
235.817	91.44
236.051	88.44
236.285	91.44
236.519	81.44
236.753	89.44
236.987	89.44
237.221	88.44
237.455	87.44
237.689	101.44
237.922	82.44
238.156	90.44
238.39	77.44
238.624	83.44
238.858	83.44
239.091	87.44
239.325	82.44
239.559	85.44
239.793	98.44
240.027	91.44
240.26	91.44
240.494	96.44
240.728	102.44
240.961	94.44
241.195	102.44
241.429	87.44
241.662	86.44
241.896	93.44
242.13	87.44
242.363	94.44
242.597	89.44
242.83	87.44
243.064	85.44
243.298	97.44
243.531	104.44
243.765	90.44
243.998	102.44
244.232	101.44
244.465	116.44
244.699	98.44
244.932	106.44
245.166	85.44
245.399	103.44
245.633	111.44
245.866	109.44
246.099	99.44
246.333	103.44
246.566	102.44
246.8	116.44
247.033	97.44
247.266	113.44
247.5	109.44
247.733	114.44
247.966	117.44
248.2	110.44
248.433	129.44
248.666	112.44
248.899	130.44
249.133	141.44
249.366	138.44
249.599	123.44
249.832	120.44
250.066	127.44
250.299	125.44
250.532	121.44
250.765	130.44
250.998	115.44
251.231	117.44
251.465	140.44
251.698	138.44
251.931	147.44
252.164	147.44
252.397	148.44
252.63	148.44
252.863	157.44
253.096	146.44
253.329	141.44
253.562	147.44
253.795	137.44
254.028	154.44
254.261	151.44
254.494	156.44
254.727	131.44
254.96	144.44
255.193	139.44
255.426	134.44
255.659	143.44
255.892	138.44
256.124	151.44
256.357	163.44
256.59	167.44
256.823	159.44
257.056	161.44
257.289	187.44
257.521	181.44
257.754	163.44
257.987	168.44
258.22	162.44
258.452	163.44
258.685	181.44
258.918	177.44
259.151	171.44
259.383	173.44
259.616	157.44
259.849	166.44
260.081	162.44
260.314	183.44
260.547	169.44
260.779	182.44
261.012	190.44
261.244	182.44
261.477	189.44
261.71	183.44
261.942	166.44
262.175	197.44
262.407	189.44
262.64	183.44
262.872	196.44
263.105	190.44
263.337	202.44
263.57	196.44
263.802	179.44
264.035	177.44
264.267	181.44
264.499	160.44
264.732	169.44
264.964	172.44
265.197	186.44
265.429	202.44
265.661	229.44
265.894	227.44
266.126	254.44
266.358	301.44
266.591	312.44
266.823	340.44
267.055	334.44
267.287	329.44
267.52	342.44
267.752	364.44
267.984	370.44
268.216	300.44
268.448	245.44
268.681	233.44
268.913	295.44
269.145	327.44
269.377	303.44
269.609	284.44
269.841	298.44
270.073	325.44
270.306	298.44
270.538	269.44
270.77	253.44
271.002	255.44
271.234	246.44
271.466	259.44
271.698	229.44
271.93	255.44
272.162	278.44
272.394	283.44
272.626	270.44
272.858	255.44
273.09	227.44
273.322	193.44
273.553	204.44
273.785	222.44
274.017	248.44
274.249	289.44
274.481	311.44
274.713	337.44
274.945	362.44
275.176	419.44
275.408	386.44
275.64	390.44
275.872	396.44
276.104	471.44
276.335	463.44
276.567	460.44
276.799	427.44
277.031	377.44
277.262	289.44
277.494	289.44
277.726	291.44
277.957	327.44
278.189	324.44
278.421	340.44
278.652	301.44
278.884	315.44
279.115	311.44
279.347	279.44
279.579	262.44
279.81	247.44
280.042	276.44
280.273	304.44
280.505	266.44
280.736	261.44
280.968	288.44
281.199	302.44
281.431	310.44
281.662	311.44
281.894	342.44
282.125	377.44
282.356	395.44
282.588	390.44
282.819	342.44
283.051	412.44
283.282	492.44
283.513	562.44
283.745	599.44
283.976	553.44
284.207	536.44
284.439	530.44
284.67	512.44
284.901	492.44
285.132	545.44
285.364	539.44
285.595	529.44
285.826	542.44
286.057	555.44
286.288	552.44
286.52	597.44
286.751	587.44
286.982	544.44
287.213	483.44
287.444	468.44
287.675	526.44
287.906	486.44
288.138	381.44
288.369	332.44
288.6	294.44
288.831	347.44
289.062	417.44
289.293	425.44
289.524	452.44
289.755	468.44
289.986	464.44
290.217	355.44
290.448	300.44
290.679	272.44
290.91	270.44
291.141	262.44
291.371	302.44
291.602	286.44
291.833	301.44
292.064	337.44
292.295	397.44
292.526	420.44
292.757	410.44
292.987	432.44
293.218	390.44
293.449	367.44
293.68	376.44
293.91	315.44
294.141	297.44
294.372	281.44
294.603	253.44
294.833	282.44
295.064	284.44
295.295	281.44
295.525	268.44
295.756	278.44
295.987	242.44
296.217	248.44
296.448	264.44
296.679	260.44
296.909	308.44
297.14	359.44
297.37	374.44
297.601	326.44
297.831	323.44
298.062	357.44
298.292	348.44
298.523	382.44
298.753	407.44
298.984	355.44
299.214	311.44
299.445	261.44
299.675	255.44
299.905	249.44
300.136	230.44
300.366	239.44
300.597	228.44
300.827	214.44
301.057	227.44
301.288	267.44
301.518	296.44
301.748	326.44
301.979	310.44
302.209	297.44
302.439	303.44
302.669	303.44
302.9	310.44
303.13	284.44
303.36	260.44
303.59	262.44
303.82	313.44
304.051	319.44
304.281	351.44
304.511	311.44
304.741	326.44
304.971	323.44
305.201	322.44
305.431	299.44
305.661	256.44
305.891	238.44
306.121	221.44
306.352	225.44
306.582	217.44
306.812	191.44
307.042	199.44
307.272	219.44
307.502	214.44
307.731	211.44
307.961	211.44
308.191	193.44
308.421	205.44
308.651	201.44
308.881	210.44
309.111	220.44
309.341	225.44
309.571	254.44
309.8	231.44
310.03	237.44
310.26	225.44
310.49	213.44
310.72	226.44
310.949	243.44
311.179	264.44
311.409	307.44
311.639	416.44
311.868	519.44
312.098	598.44
312.328	599.44
312.557	562.44
312.787	571.44
313.017	540.44
313.246	589.44
313.476	550.44
313.706	398.44
313.935	344.44
314.165	295.44
314.394	287.44
314.624	277.44
314.853	295.44
315.083	287.44
315.312	257.44
315.542	249.44
315.771	218.44
316.001	217.44
316.23	217.44
316.46	216.44
316.689	194.44
316.919	216.44
317.148	214.44
317.377	222.44
317.607	234.44
317.836	250.44
318.065	318.44
318.295	343.44
318.524	280.44
318.753	235.44
318.983	204.44
319.212	227.44
319.441	229.44
319.67	290.44
319.9	301.44
320.129	273.44
320.358	229.44
320.587	255.44
320.816	281.44
321.046	300.44
321.275	289.44
321.504	273.44
321.733	269.44
321.962	268.44
322.191	237.44
322.42	195.44
322.649	188.44
322.878	227.44
323.108	203.44
323.337	234.44
323.566	238.44
323.795	246.44
324.024	230.44
324.253	215.44
324.482	202.44
324.71	195.44
324.939	186.44
325.168	194.44
325.397	209.44
325.626	212.44
325.855	199.44
326.084	219.44
326.313	206.44
326.542	218.44
326.77	223.44
326.999	208.44
327.228	235.44
327.457	206.44
327.686	194.44
327.914	191.44
328.143	187.44
328.372	203.44
328.6	197.44
328.829	206.44
329.058	218.44
329.287	245.44
329.515	225.44
329.744	233.44
329.972	212.44
330.201	202.44
330.43	227.44
330.658	250.44
330.887	287.44
331.115	282.44
331.344	272.44
331.572	236.44
331.801	230.44
332.03	229.44
332.258	250.44
332.486	267.44
332.715	268.44
332.943	228.44
333.172	266.44
333.4	275.44
333.629	325.44
333.857	327.44
334.085	340.44
334.314	302.44
334.542	286.44
334.771	268.44
334.999	266.44
335.227	258.44
335.455	295.44
335.684	332.44
335.912	383.44
336.14	391.44
336.369	368.44
336.597	387.44
336.825	418.44
337.053	393.44
337.281	290.44
337.51	254.44
337.738	275.44
337.966	309.44
338.194	301.44
338.422	264.44
338.65	240.44
338.878	245.44
339.106	249.44
339.334	276.44
339.562	273.44
339.79	241.44
340.018	251.44
340.246	288.44
340.474	333.44
340.702	323.44
340.93	338.44
341.158	301.44
341.386	227.44
341.614	227.44
341.842	283.44
342.07	320.44
342.298	364.44
342.526	312.44
342.754	239.44
342.981	235.44
343.209	274.44
343.437	285.44
343.665	250.44
343.893	231.44
344.12	222.44
344.348	209.44
344.576	214.44
344.804	209.44
345.031	213.44
345.259	209.44
345.487	202.44
345.714	226.44
345.942	224.44
346.17	207.44
346.397	189.44
346.625	179.44
346.853	196.44
347.08	197.44
347.308	188.44
347.535	192.44
347.763	173.44
347.99	192.44
348.218	189.44
348.445	167.44
348.673	184.44
348.9	197.44
349.128	194.44
349.355	177.44
349.583	191.44
349.81	186.44
350.037	179.44
350.265	178.44
350.492	179.44
350.72	194.44
350.947	171.44
351.174	193.44
351.402	190.44
351.629	201.44
351.856	187.44
352.083	168.44
352.311	177.44
352.538	175.44
352.765	186.44
352.992	200.44
353.22	198.44
353.447	164.44
353.674	168.44
353.901	194.44
354.128	173.44
354.355	193.44
354.583	182.44
354.81	177.44
355.037	190.44
355.264	206.44
355.491	203.44
355.718	197.44
355.945	189.44
356.172	201.44
356.399	205.44
356.626	200.44
356.853	204.44
357.08	234.44
357.307	244.44
357.534	278.44
357.761	319.44
357.988	337.44
358.215	302.44
358.441	283.44
358.668	267.44
358.895	246.44
359.122	263.44
359.349	321.44
359.576	311.44
359.802	237.44
360.029	242.44
360.256	243.44
360.483	297.44
360.709	291.44
360.936	235.44
361.163	204.44
361.39	209.44
361.616	203.44
361.843	188.44
362.07	177.44
362.296	191.44
362.523	197.44
362.749	189.44
362.976	197.44
363.203	219.44
363.429	209.44
363.656	204.44
363.882	225.44
364.109	218.44
364.335	200.44
364.562	200.44
364.788	204.44
365.015	203.44
365.241	211.44
365.468	219.44
365.694	207.44
365.92	198.44
366.147	191.44
366.373	200.44
366.599	200.44
366.826	213.44
367.052	191.44
367.278	215.44
367.505	205.44
367.731	199.44
367.957	213.44
368.184	189.44
368.41	196.44
368.636	199.44
368.862	204.44
369.089	191.44
369.315	187.44
369.541	201.44
369.767	180.44
369.993	197.44
370.219	187.44
370.445	185.44
370.672	184.44
370.898	179.44
371.124	187.44
371.35	200.44
371.576	209.44
371.802	222.44
372.028	191.44
372.254	206.44
372.48	195.44
372.706	189.44
372.932	200.44
373.158	201.44
373.384	196.44
373.61	194.44
373.835	206.44
374.061	198.44
374.287	223.44
374.513	232.44
374.739	203.44
374.965	214.44
375.191	198.44
375.416	203.44
375.642	191.44
375.868	201.44
376.094	190.44
376.319	195.44
376.545	182.44
376.771	177.44
376.997	185.44
377.222	174.44
377.448	177.44
377.674	189.44
377.899	174.44
378.125	193.44
378.35	188.44
378.576	178.44
378.802	207.44
379.027	191.44
379.253	218.44
379.478	199.44
379.704	212.44
379.929	215.44
380.155	207.44
380.38	199.44
380.606	212.44
380.831	211.44
381.057	208.44
381.282	201.44
381.507	208.44
381.733	219.44
381.958	209.44
382.184	210.44
382.409	201.44
382.634	209.44
382.86	206.44
383.085	215.44
383.31	199.44
383.535	205.44
383.761	199.44
383.986	209.44
384.211	216.44
384.436	217.44
384.662	214.44
384.887	228.44
385.112	248.44
385.337	238.44
385.562	225.44
385.787	236.44
386.013	224.44
386.238	225.44
386.463	226.44
386.688	223.44
386.913	227.44
387.138	214.44
387.363	208.44
387.588	220.44
387.813	199.44
388.038	220.44
388.263	222.44
388.488	241.44
388.713	234.44
388.938	208.44
389.163	185.44
389.387	218.44
389.612	215.44
389.837	205.44
390.062	195.44
390.287	214.44
390.512	214.44
390.736	207.44
390.961	221.44
391.186	230.44
391.411	217.44
391.636	215.44
391.86	226.44
392.085	234.44
392.31	221.44
392.534	209.44
392.759	188.44
392.984	188.44
393.208	194.44
393.433	208.44
393.658	213.44
393.882	184.44
394.107	202.44
394.331	205.44
394.556	210.44
394.78	199.44
395.005	195.44
395.229	195.44
395.454	198.44
395.678	191.44
395.903	222.44
396.127	235.44
396.352	271.44
396.576	267.44
396.801	258.44
397.025	266.44
397.249	243.44
397.474	243.44
397.698	236.44
397.922	241.44
398.147	230.44
398.371	247.44
398.595	255.44
398.82	253.44
399.044	268.44
399.268	279.44
399.492	263.44
399.717	249.44
399.941	259.44
400.165	247.44
400.389	244.44
400.613	231.44
400.837	232.44
401.062	230.44
401.286	241.44
401.51	235.44
401.734	205.44
401.958	229.44
402.182	228.44
402.406	227.44
402.63	227.44
402.854	232.44
403.078	211.44
403.302	233.44
403.526	227.44
403.75	228.44
403.974	240.44
404.198	250.44
404.422	229.44
404.645	233.44
404.869	222.44
405.093	243.44
405.317	235.44
405.541	232.44
405.765	239.44
405.988	231.44
406.212	231.44
406.436	204.44
406.66	227.44
406.883	237.44
407.107	233.44
407.331	239.44
407.555	264.44
407.778	235.44
408.002	246.44
408.226	237.44
408.449	242.44
408.673	224.44
408.896	227.44
409.12	218.44
409.344	239.44
409.567	222.44
409.791	241.44
410.014	227.44
410.238	226.44
410.461	211.44
410.685	230.44
410.908	239.44
411.132	239.44
411.355	222.44
411.578	222.44
411.802	217.44
412.025	228.44
412.249	226.44
412.472	220.44
412.695	259.44
412.919	243.44
413.142	214.44
413.365	237.44
413.589	228.44
413.812	212.44
414.035	227.44
414.258	203.44
414.482	207.44
414.705	206.44
414.928	218.44
415.151	240.44
415.374	226.44
415.597	216.44
415.821	210.44
416.044	188.44
416.267	233.44
416.49	232.44
416.713	217.44
416.936	225.44
417.159	213.44
417.382	211.44
417.605	216.44
417.828	220.44
418.051	215.44
418.274	227.44
418.497	213.44
418.72	210.44
418.943	215.44
419.166	222.44
419.389	262.44
419.611	239.44
419.834	231.44
420.057	230.44
420.28	219.44
420.503	211.44
420.726	203.44
420.948	232.44
421.171	215.44
421.394	212.44
421.617	193.44
421.839	205.44
422.062	196.44
422.285	219.44
422.507	203.44
422.73	217.44
422.953	213.44
423.175	217.44
423.398	226.44
423.621	222.44
423.843	225.44
424.066	222.44
424.288	214.44
424.511	228.44
424.733	225.44
424.956	213.44
425.178	272.44
425.401	349.44
425.623	386.44
425.846	273.44
426.068	247.44
426.291	248.44
426.513	238.44
426.735	226.44
426.958	247.44
427.18	260.44
427.402	319.44
427.625	375.44
427.847	293.44
428.069	237.44
428.292	229.44
428.514	241.44
428.736	229.44
428.958	309.44
429.181	319.44
429.403	235.44
429.625	221.44
429.847	229.44
430.069	230.44
430.292	229.44
430.514	204.44
430.736	215.44
430.958	212.44
431.18	194.44
431.402	201.44
431.624	202.44
431.846	195.44
432.068	211.44
432.29	225.44
432.512	221.44
432.734	211.44
432.956	213.44
433.178	209.44
433.4	226.44
433.622	230.44
433.844	254.44
434.066	277.44
434.287	259.44
434.509	263.44
434.731	251.44
434.953	241.44
435.175	267.44
435.397	259.44
435.618	210.44
435.84	219.44
436.062	213.44
436.284	218.44
436.505	215.44
436.727	198.44
436.949	201.44
437.17	223.44
437.392	220.44
437.614	212.44
437.835	204.44
438.057	212.44
438.278	201.44
438.5	203.44
438.721	209.44
438.943	219.44
439.165	205.44
439.386	193.44
439.608	201.44
439.829	208.44
440.05	208.44
440.272	208.44
440.493	207.44
440.715	198.44
440.936	203.44
441.158	211.44
441.379	202.44
441.6	220.44
441.822	211.44
442.043	214.44
442.264	218.44
442.486	220.44
442.707	216.44
442.928	216.44
443.149	217.44
443.371	213.44
443.592	235.44
443.813	213.44
444.034	223.44
444.255	209.44
444.476	201.44
444.698	215.44
444.919	226.44
445.14	297.44
445.361	254.44
445.582	220.44
445.803	208.44
446.024	232.44
446.245	212.44
446.466	229.44
446.687	219.44
446.908	195.44
447.129	209.44
447.35	226.44
447.571	216.44
447.792	201.44
448.013	201.44
448.234	182.44
448.455	195.44
448.675	210.44
448.896	203.44
449.117	220.44
449.338	201.44
449.559	201.44
449.779	223.44
450	250.44
450.221	209.44
450.442	202.44
450.662	204.44
450.883	226.44
451.104	215.44
451.324	209.44
451.545	211.44
451.766	230.44
451.986	204.44
452.207	202.44
452.428	205.44
452.648	212.44
452.869	230.44
453.089	221.44
453.31	209.44
453.53	200.44
453.751	221.44
453.971	221.44
454.192	220.44
454.412	217.44
454.633	206.44
454.853	221.44
455.073	172.44
455.294	191.44
455.514	201.44
455.734	222.44
455.955	231.44
456.175	218.44
456.395	217.44
456.616	197.44
456.836	190.44
457.056	216.44
457.276	204.44
457.497	191.44
457.717	187.44
457.937	197.44
458.157	199.44
458.377	207.44
458.598	185.44
458.818	214.44
459.038	229.44
459.258	215.44
459.478	237.44
459.698	221.44
459.918	239.44
460.138	237.44
460.358	235.44
460.578	223.44
460.798	214.44
461.018	217.44
461.238	205.44
461.458	254.44
461.678	258.44
461.898	254.44
462.118	260.44
462.338	235.44
462.558	246.44
462.777	250.44
462.997	252.44
463.217	239.44
463.437	264.44
463.657	244.44
463.876	235.44
464.096	257.44
464.316	237.44
464.536	249.44
464.755	295.44
464.975	267.44
465.195	245.44
465.414	253.44
465.634	223.44
465.854	203.44
466.073	198.44
466.293	212.44
466.512	214.44
466.732	224.44
466.951	213.44
467.171	227.44
467.391	187.44
467.61	199.44
467.829	198.44
468.049	205.44
468.268	194.44
468.488	203.44
468.707	202.44
468.927	204.44
469.146	217.44
469.365	205.44
469.585	197.44
469.804	206.44
470.023	233.44
470.243	205.44
470.462	203.44
470.681	191.44
470.901	216.44
471.12	221.44
471.339	199.44
471.558	217.44
471.777	229.44
471.997	214.44
472.216	220.44
472.435	201.44
472.654	219.44
472.873	221.44
473.092	235.44
473.311	227.44
473.53	214.44
473.749	202.44
473.968	213.44
474.187	200.44
474.406	214.44
474.625	193.44
474.844	205.44
475.063	194.44
475.282	209.44
475.501	221.44
475.72	237.44
475.939	232.44
476.158	201.44
476.377	197.44
476.596	227.44
476.814	222.44
477.033	222.44
477.252	201.44
477.471	214.44
477.69	223.44
477.908	199.44
478.127	214.44
478.346	213.44
478.564	231.44
478.783	218.44
479.002	249.44
479.22	242.44
479.439	234.44
479.658	230.44
479.876	233.44
480.095	257.44
480.313	257.44
480.532	222.44
480.751	226.44
480.969	220.44
481.188	219.44
481.406	233.44
481.624	223.44
481.843	228.44
482.061	227.44
482.28	230.44
482.498	233.44
482.717	234.44
482.935	214.44
483.153	252.44
483.372	216.44
483.59	206.44
483.808	228.44
484.027	233.44
484.245	235.44
484.463	215.44
484.681	226.44
484.9	239.44
485.118	257.44
485.336	236.44
485.554	230.44
485.772	219.44
485.99	231.44
486.209	241.44
486.427	266.44
486.645	245.44
486.863	249.44
487.081	242.44
487.299	252.44
487.517	246.44
487.735	243.44
487.953	233.44
488.171	240.44
488.389	229.44
488.607	244.44
488.825	284.44
489.043	254.44
489.261	241.44
489.479	244.44
489.696	227.44
489.914	242.44
490.132	242.44
490.35	241.44
490.568	244.44
490.786	243.44
491.003	240.44
491.221	229.44
491.439	242.44
491.657	231.44
491.874	235.44
492.092	257.44
492.31	290.44
492.527	284.44
492.745	250.44
492.963	250.44
493.18	253.44
493.398	252.44
493.615	244.44
493.833	292.44
494.05	250.44
494.268	261.44
494.485	245.44
494.703	226.44
494.92	233.44
495.138	239.44
495.355	255.44
495.573	260.44
495.79	269.44
496.008	242.44
496.225	237.44
496.442	251.44
496.66	250.44
496.877	233.44
497.094	251.44
497.312	254.44
497.529	251.44
497.746	269.44
497.963	277.44
498.181	262.44
498.398	282.44
498.615	290.44
498.832	303.44
499.049	307.44
499.267	308.44
499.484	332.44
499.701	351.44
499.918	359.44
500.135	373.44
500.352	353.44
500.569	384.44
500.786	374.44
501.003	366.44
501.22	353.44
501.437	351.44
501.654	337.44
501.871	316.44
502.088	277.44
502.305	283.44
502.522	292.44
502.739	294.44
502.956	270.44
503.172	285.44
503.389	271.44
503.606	258.44
