Data from StA_HRD10591_060.txt Node
Date: Fri May 16 15:19:13 EDT 2025
User: Yrep
Spectrometer: HR+D1059
Trigger mode: 1
Integration Time (sec): 1.000000E-1
Scans to average: 1
Electric dark correction enabled: true
Nonlinearity correction enabled: false
Boxcar width: 0
XAxis mode: Wavelengths
Number of Pixels in Spectrum: 2048
>>>>>Begin Spectral Data<<<<<
223.165	-22.62
223.4	-22.62
223.635	-22.62
223.869	-6.62
224.104	-24.62
224.338	-14.62
224.573	-7.62
224.808	-13.62
225.042	-10.62
225.277	-12.62
225.511	-1.62
225.746	-0.62
225.98	8.38
226.215	11.38
226.449	15.38
226.683	28.38
226.918	26.38
227.152	25.38
227.387	42.38
227.621	45.38
227.856	48.38
228.09	43.38
228.324	45.38
228.559	60.38
228.793	70.38
229.027	57.38
229.262	61.38
229.496	61.38
229.73	73.38
229.964	76.38
230.199	65.38
230.433	66.38
230.667	88.38
230.901	81.38
231.136	60.38
231.37	76.38
231.604	72.38
231.838	76.38
232.072	73.38
232.306	67.38
232.541	87.38
232.775	75.38
233.009	77.38
233.243	72.38
233.477	74.38
233.711	85.38
233.945	87.38
234.179	69.38
234.413	76.38
234.647	82.38
234.881	75.38
235.115	82.38
235.349	83.38
235.583	91.38
235.817	82.38
236.051	77.38
236.285	67.38
236.519	81.38
236.753	74.38
236.987	70.38
237.221	67.38
237.455	71.38
237.689	83.38
237.922	76.38
238.156	78.38
238.39	79.38
238.624	60.38
238.858	84.38
239.091	76.38
239.325	67.38
239.559	64.38
239.793	73.38
240.027	75.38
240.26	67.38
240.494	74.38
240.728	81.38
240.961	75.38
241.195	63.38
241.429	67.38
241.662	66.38
241.896	69.38
242.13	80.38
242.363	83.38
242.597	76.38
242.83	79.38
243.064	59.38
243.298	64.38
243.531	59.38
243.765	84.38
243.998	69.38
244.232	71.38
244.465	72.38
244.699	58.38
244.932	71.38
245.166	71.38
245.399	72.38
245.633	76.38
245.866	83.38
246.099	67.38
246.333	68.38
246.566	65.38
246.8	87.38
247.033	80.38
247.266	69.38
247.5	68.38
247.733	77.38
247.966	80.38
248.2	90.38
248.433	59.38
248.666	84.38
248.899	63.38
249.133	73.38
249.366	79.38
249.599	67.38
249.832	83.38
250.066	83.38
250.299	72.38
250.532	79.38
250.765	71.38
250.998	90.38
251.231	83.38
251.465	69.38
251.698	60.38
251.931	67.38
252.164	82.38
252.397	76.38
252.63	87.38
252.863	58.38
253.096	71.38
253.329	60.38
253.562	81.38
253.795	66.38
254.028	73.38
254.261	75.38
254.494	65.38
254.727	91.38
254.96	89.38
255.193	87.38
255.426	64.38
255.659	84.38
255.892	77.38
256.124	79.38
256.357	84.38
256.59	72.38
256.823	79.38
257.056	79.38
257.289	73.38
257.521	77.38
257.754	77.38
257.987	74.38
258.22	75.38
258.452	69.38
258.685	83.38
258.918	70.38
259.151	69.38
259.383	77.38
259.616	64.38
259.849	82.38
260.081	80.38
260.314	73.38
260.547	79.38
260.779	72.38
261.012	74.38
261.244	101.38
261.477	65.38
261.71	73.38
261.942	63.38
262.175	71.38
262.407	75.38
262.64	64.38
262.872	67.38
263.105	69.38
263.337	83.38
263.57	89.38
263.802	80.38
264.035	73.38
264.267	78.38
264.499	70.38
264.732	84.38
264.964	82.38
265.197	75.38
265.429	77.38
265.661	68.38
265.894	65.38
266.126	89.38
266.358	75.38
266.591	73.38
266.823	77.38
267.055	80.38
267.287	87.38
267.52	98.38
267.752	82.38
267.984	81.38
268.216	83.38
268.448	75.38
268.681	74.38
268.913	79.38
269.145	79.38
269.377	84.38
269.609	75.38
269.841	72.38
270.073	83.38
270.306	76.38
270.538	69.38
270.77	78.38
271.002	73.38
271.234	77.38
271.466	79.38
271.698	73.38
271.93	73.38
272.162	86.38
272.394	88.38
272.626	98.38
272.858	90.38
273.09	72.38
273.322	85.38
273.553	69.38
273.785	82.38
274.017	73.38
274.249	85.38
274.481	91.38
274.713	89.38
274.945	87.38
275.176	83.38
275.408	79.38
275.64	89.38
275.872	75.38
276.104	80.38
276.335	72.38
276.567	84.38
276.799	86.38
277.031	88.38
277.262	88.38
277.494	82.38
277.726	84.38
277.957	83.38
278.189	86.38
278.421	77.38
278.652	84.38
278.884	83.38
279.115	86.38
279.347	69.38
279.579	72.38
279.81	74.38
280.042	80.38
280.273	89.38
280.505	70.38
280.736	75.38
280.968	70.38
281.199	88.38
281.431	81.38
281.662	89.38
281.894	83.38
282.125	67.38
282.356	73.38
282.588	88.38
282.819	84.38
283.051	65.38
283.282	70.38
283.513	85.38
283.745	87.38
283.976	69.38
284.207	78.38
284.439	81.38
284.67	89.38
284.901	86.38
285.132	80.38
285.364	79.38
285.595	83.38
285.826	87.38
286.057	84.38
286.288	94.38
286.52	97.38
286.751	74.38
286.982	87.38
287.213	97.38
287.444	91.38
287.675	85.38
287.906	73.38
288.138	69.38
288.369	64.38
288.6	82.38
288.831	85.38
289.062	87.38
289.293	75.38
289.524	72.38
289.755	89.38
289.986	76.38
290.217	78.38
290.448	84.38
290.679	79.38
290.91	95.38
291.141	72.38
291.371	85.38
291.602	83.38
291.833	72.38
292.064	84.38
292.295	97.38
292.526	74.38
292.757	82.38
292.987	93.38
293.218	88.38
293.449	96.38
293.68	83.38
293.91	77.38
294.141	86.38
294.372	95.38
294.603	97.38
294.833	71.38
295.064	81.38
295.295	79.38
295.525	92.38
295.756	91.38
295.987	89.38
296.217	90.38
296.448	86.38
296.679	82.38
296.909	80.38
297.14	80.38
297.37	87.38
297.601	83.38
297.831	91.38
298.062	65.38
298.292	89.38
298.523	107.38
298.753	99.38
298.984	97.38
299.214	95.38
299.445	84.38
299.675	77.38
299.905	88.38
300.136	84.38
300.366	83.38
300.597	71.38
300.827	87.38
301.057	66.38
301.288	97.38
301.518	99.38
301.748	89.38
301.979	90.38
302.209	87.38
302.439	79.38
302.669	88.38
302.9	86.38
303.13	75.38
303.36	83.38
303.59	74.38
303.82	76.38
304.051	98.38
304.281	89.38
304.511	99.38
304.741	91.38
304.971	93.38
305.201	80.38
305.431	84.38
305.661	82.38
305.891	83.38
306.121	83.38
306.352	76.38
306.582	71.38
306.812	82.38
307.042	87.38
307.272	73.38
307.502	84.38
307.731	82.38
307.961	77.38
308.191	84.38
308.421	87.38
308.651	79.38
308.881	70.38
309.111	83.38
309.341	95.38
309.571	103.38
309.8	85.38
310.03	79.38
310.26	75.38
310.49	79.38
310.72	67.38
310.949	87.38
311.179	83.38
311.409	61.38
311.639	89.38
311.868	79.38
312.098	107.38
312.328	82.38
312.557	88.38
312.787	76.38
313.017	91.38
313.246	92.38
313.476	95.38
313.706	71.38
313.935	91.38
314.165	71.38
314.394	76.38
314.624	76.38
314.853	83.38
315.083	90.38
315.312	72.38
315.542	88.38
315.771	91.38
316.001	76.38
316.23	81.38
316.46	88.38
316.689	101.38
316.919	73.38
317.148	69.38
317.377	89.38
317.607	87.38
317.836	97.38
318.065	85.38
318.295	83.38
318.524	84.38
318.753	72.38
318.983	72.38
319.212	71.38
319.441	80.38
319.67	80.38
319.9	76.38
320.129	81.38
320.358	83.38
320.587	77.38
320.816	75.38
321.046	80.38
321.275	86.38
321.504	79.38
321.733	82.38
321.962	82.38
322.191	67.38
322.42	80.38
322.649	85.38
322.878	80.38
323.108	84.38
323.337	72.38
323.566	85.38
323.795	83.38
324.024	91.38
324.253	87.38
324.482	71.38
324.71	85.38
324.939	90.38
325.168	81.38
325.397	85.38
325.626	97.38
325.855	81.38
326.084	76.38
326.313	74.38
326.542	70.38
326.77	84.38
326.999	76.38
327.228	83.38
327.457	72.38
327.686	85.38
327.914	79.38
328.143	91.38
328.372	76.38
328.6	74.38
328.829	80.38
329.058	87.38
329.287	86.38
329.515	73.38
329.744	80.38
329.972	83.38
330.201	79.38
330.43	68.38
330.658	81.38
330.887	67.38
331.115	81.38
331.344	84.38
331.572	85.38
331.801	83.38
332.03	82.38
332.258	77.38
332.486	73.38
332.715	94.38
332.943	86.38
333.172	78.38
333.4	90.38
333.629	78.38
333.857	91.38
334.085	74.38
334.314	76.38
334.542	81.38
334.771	87.38
334.999	77.38
335.227	82.38
335.455	77.38
335.684	92.38
335.912	87.38
336.14	97.38
336.369	81.38
336.597	81.38
336.825	78.38
337.053	95.38
337.281	80.38
337.51	76.38
337.738	99.38
337.966	76.38
338.194	79.38
338.422	92.38
338.65	88.38
338.878	75.38
339.106	86.38
339.334	83.38
339.562	74.38
339.79	81.38
340.018	81.38
340.246	80.38
340.474	88.38
340.702	82.38
340.93	86.38
341.158	84.38
341.386	79.38
341.614	80.38
341.842	90.38
342.07	75.38
342.298	69.38
342.526	82.38
342.754	93.38
342.981	86.38
343.209	70.38
343.437	101.38
343.665	80.38
343.893	84.38
344.12	76.38
344.348	85.38
344.576	90.38
344.804	82.38
345.031	76.38
345.259	87.38
345.487	104.38
345.714	95.38
345.942	78.38
346.17	85.38
346.397	60.38
346.625	91.38
346.853	76.38
347.08	89.38
347.308	79.38
347.535	83.38
347.763	84.38
347.99	86.38
348.218	99.38
348.445	84.38
348.673	86.38
348.9	87.38
349.128	69.38
349.355	95.38
349.583	88.38
349.81	88.38
350.037	87.38
350.265	73.38
350.492	68.38
350.72	88.38
350.947	94.38
351.174	70.38
351.402	69.38
351.629	71.38
351.856	76.38
352.083	74.38
352.311	76.38
352.538	83.38
352.765	85.38
352.992	74.38
353.22	78.38
353.447	78.38
353.674	88.38
353.901	87.38
354.128	82.38
354.355	75.38
354.583	79.38
354.81	88.38
355.037	96.38
355.264	76.38
355.491	81.38
355.718	82.38
355.945	87.38
356.172	87.38
356.399	90.38
356.626	88.38
356.853	91.38
357.08	92.38
357.307	86.38
357.534	98.38
357.761	117.38
357.988	109.38
358.215	102.38
358.441	86.38
358.668	84.38
358.895	89.38
359.122	95.38
359.349	133.38
359.576	122.38
359.802	94.38
360.029	95.38
360.256	106.38
360.483	107.38
360.709	100.38
360.936	97.38
361.163	93.38
361.39	85.38
361.616	84.38
361.843	75.38
362.07	78.38
362.296	80.38
362.523	81.38
362.749	82.38
362.976	87.38
363.203	79.38
363.429	72.38
363.656	83.38
363.882	95.38
364.109	85.38
364.335	95.38
364.562	87.38
364.788	83.38
365.015	87.38
365.241	76.38
365.468	85.38
365.694	82.38
365.92	79.38
366.147	86.38
366.373	87.38
366.599	92.38
366.826	79.38
367.052	76.38
367.278	82.38
367.505	66.38
367.731	81.38
367.957	81.38
368.184	87.38
368.41	81.38
368.636	91.38
368.862	90.38
369.089	90.38
369.315	73.38
369.541	84.38
369.767	71.38
369.993	86.38
370.219	72.38
370.445	80.38
370.672	72.38
370.898	74.38
371.124	64.38
371.35	75.38
371.576	82.38
371.802	84.38
372.028	84.38
372.254	69.38
372.48	76.38
372.706	75.38
372.932	74.38
373.158	78.38
373.384	90.38
373.61	90.38
373.835	80.38
374.061	84.38
374.287	86.38
374.513	97.38
374.739	85.38
374.965	75.38
375.191	71.38
375.416	83.38
375.642	82.38
375.868	76.38
376.094	78.38
376.319	83.38
376.545	90.38
376.771	90.38
376.997	77.38
377.222	74.38
377.448	76.38
377.674	71.38
377.899	76.38
378.125	87.38
378.35	88.38
378.576	89.38
378.802	85.38
379.027	84.38
379.253	78.38
379.478	91.38
379.704	72.38
379.929	68.38
380.155	82.38
380.38	72.38
380.606	73.38
380.831	87.38
381.057	90.38
381.282	71.38
381.507	89.38
381.733	84.38
381.958	79.38
382.184	74.38
382.409	76.38
382.634	83.38
382.86	99.38
383.085	72.38
383.31	78.38
383.535	95.38
383.761	75.38
383.986	85.38
384.211	80.38
384.436	82.38
384.662	90.38
384.887	76.38
385.112	82.38
385.337	92.38
385.562	79.38
385.787	87.38
386.013	75.38
386.238	88.38
386.463	84.38
386.688	82.38
386.913	88.38
387.138	83.38
387.363	90.38
387.588	89.38
387.813	84.38
388.038	85.38
388.263	101.38
388.488	106.38
388.713	97.38
388.938	81.38
389.163	89.38
389.387	81.38
389.612	75.38
389.837	75.38
390.062	79.38
390.287	83.38
390.512	86.38
390.736	95.38
390.961	83.38
391.186	76.38
391.411	83.38
391.636	88.38
391.86	82.38
392.085	77.38
392.31	84.38
392.534	75.38
392.759	68.38
392.984	85.38
393.208	72.38
393.433	77.38
393.658	72.38
393.882	66.38
394.107	76.38
394.331	81.38
394.556	88.38
394.78	96.38
395.005	81.38
395.229	81.38
395.454	81.38
395.678	83.38
395.903	76.38
396.127	89.38
396.352	84.38
396.576	92.38
396.801	87.38
397.025	102.38
397.249	90.38
397.474	89.38
397.698	95.38
397.922	100.38
398.147	88.38
398.371	104.38
398.595	95.38
398.82	71.38
399.044	99.38
399.268	89.38
399.492	71.38
399.717	68.38
399.941	83.38
400.165	92.38
400.389	75.38
400.613	78.38
400.837	84.38
401.062	85.38
401.286	75.38
401.51	80.38
401.734	66.38
401.958	75.38
402.182	70.38
402.406	77.38
402.63	76.38
402.854	89.38
403.078	83.38
403.302	72.38
403.526	81.38
403.75	86.38
403.974	92.38
404.198	85.38
404.422	69.38
404.645	86.38
404.869	89.38
405.093	87.38
405.317	87.38
405.541	77.38
405.765	76.38
405.988	79.38
406.212	80.38
406.436	84.38
406.66	87.38
406.883	86.38
407.107	82.38
407.331	76.38
407.555	81.38
407.778	72.38
408.002	81.38
408.226	81.38
408.449	78.38
408.673	85.38
408.896	69.38
409.12	69.38
409.344	68.38
409.567	84.38
409.791	76.38
410.014	82.38
410.238	70.38
410.461	64.38
410.685	80.38
410.908	67.38
411.132	85.38
411.355	85.38
411.578	68.38
411.802	75.38
412.025	70.38
412.249	69.38
412.472	84.38
412.695	101.38
412.919	85.38
413.142	84.38
413.365	90.38
413.589	84.38
413.812	65.38
414.035	79.38
414.258	83.38
414.482	84.38
414.705	93.38
414.928	86.38
415.151	81.38
415.374	85.38
415.597	60.38
415.821	81.38
416.044	59.38
416.267	75.38
416.49	78.38
416.713	90.38
416.936	85.38
417.159	73.38
417.382	72.38
417.605	78.38
417.828	81.38
418.051	79.38
418.274	83.38
418.497	85.38
418.72	81.38
418.943	84.38
419.166	81.38
419.389	80.38
419.611	80.38
419.834	52.38
420.057	82.38
420.28	61.38
420.503	71.38
420.726	79.38
420.948	72.38
421.171	87.38
421.394	72.38
421.617	79.38
421.839	60.38
422.062	81.38
422.285	67.38
422.507	62.38
422.73	84.38
422.953	79.38
423.175	75.38
423.398	63.38
423.621	79.38
423.843	88.38
424.066	83.38
424.288	85.38
424.511	87.38
424.733	81.38
424.956	71.38
425.178	103.38
425.401	124.38
425.623	139.38
425.846	84.38
426.068	95.38
426.291	80.38
426.513	89.38
426.735	81.38
426.958	90.38
427.18	85.38
427.402	111.38
427.625	139.38
427.847	98.38
428.069	80.38
428.292	91.38
428.514	84.38
428.736	81.38
428.958	96.38
429.181	130.38
429.403	71.38
429.625	82.38
429.847	73.38
430.069	79.38
430.292	88.38
430.514	75.38
430.736	87.38
430.958	77.38
431.18	72.38
431.402	84.38
431.624	86.38
431.846	69.38
432.068	76.38
432.29	68.38
432.512	92.38
432.734	87.38
432.956	77.38
433.178	69.38
433.4	77.38
433.622	88.38
433.844	113.38
434.066	114.38
434.287	93.38
434.509	91.38
434.731	111.38
434.953	79.38
435.175	92.38
435.397	109.38
435.618	93.38
435.84	75.38
436.062	81.38
436.284	91.38
436.505	88.38
436.727	87.38
436.949	81.38
437.17	83.38
437.392	93.38
437.614	84.38
437.835	81.38
438.057	82.38
438.278	93.38
438.5	83.38
438.721	84.38
438.943	82.38
439.165	61.38
439.386	89.38
439.608	95.38
439.829	85.38
440.05	87.38
440.272	70.38
440.493	88.38
440.715	80.38
440.936	90.38
441.158	74.38
441.379	67.38
441.6	75.38
441.822	83.38
442.043	85.38
442.264	79.38
442.486	76.38
442.707	76.38
442.928	84.38
443.149	88.38
443.371	79.38
443.592	72.38
443.813	75.38
444.034	81.38
444.255	75.38
444.476	83.38
444.698	82.38
444.919	77.38
445.14	144.38
445.361	121.38
445.582	78.38
445.803	79.38
446.024	76.38
446.245	91.38
446.466	71.38
446.687	65.38
446.908	82.38
447.129	68.38
447.35	72.38
447.571	81.38
447.792	67.38
448.013	76.38
448.234	74.38
448.455	75.38
448.675	69.38
448.896	88.38
449.117	73.38
449.338	68.38
449.559	80.38
449.779	95.38
450	89.38
450.221	80.38
450.442	72.38
450.662	69.38
450.883	84.38
451.104	74.38
451.324	72.38
451.545	81.38
451.766	67.38
451.986	73.38
452.207	84.38
452.428	93.38
452.648	91.38
452.869	96.38
453.089	69.38
453.31	92.38
453.53	94.38
453.751	95.38
453.971	87.38
454.192	76.38
454.412	99.38
454.633	96.38
454.853	103.38
455.073	75.38
455.294	80.38
455.514	85.38
455.734	77.38
455.955	92.38
456.175	70.38
456.395	71.38
456.616	81.38
456.836	88.38
457.056	67.38
457.276	75.38
457.497	71.38
457.717	85.38
457.937	88.38
458.157	91.38
458.377	75.38
458.598	83.38
458.818	62.38
459.038	70.38
459.258	75.38
459.478	84.38
459.698	81.38
459.918	80.38
460.138	97.38
460.358	65.38
460.578	71.38
460.798	76.38
461.018	79.38
461.238	71.38
461.458	96.38
461.678	97.38
461.898	104.38
462.118	86.38
462.338	92.38
462.558	82.38
462.777	88.38
462.997	75.38
463.217	60.38
463.437	72.38
463.657	75.38
463.876	64.38
464.096	90.38
464.316	80.38
464.536	83.38
464.755	122.38
464.975	91.38
465.195	109.38
465.414	103.38
465.634	75.38
465.854	75.38
466.073	97.38
466.293	75.38
466.512	67.38
466.732	96.38
466.951	75.38
467.171	67.38
467.391	93.38
467.61	88.38
467.829	66.38
468.049	87.38
468.268	71.38
468.488	88.38
468.707	75.38
468.927	80.38
469.146	80.38
469.365	68.38
469.585	75.38
469.804	84.38
470.023	79.38
470.243	91.38
470.462	86.38
470.681	80.38
470.901	77.38
471.12	75.38
471.339	81.38
471.558	90.38
471.777	77.38
471.997	90.38
472.216	84.38
472.435	61.38
472.654	95.38
472.873	79.38
473.092	74.38
473.311	92.38
473.53	65.38
473.749	78.38
473.968	85.38
474.187	72.38
474.406	79.38
474.625	79.38
474.844	85.38
475.063	79.38
475.282	75.38
475.501	74.38
475.72	87.38
475.939	73.38
476.158	87.38
476.377	77.38
476.596	74.38
476.814	73.38
477.033	82.38
477.252	83.38
477.471	76.38
477.69	88.38
477.908	89.38
478.127	74.38
478.346	72.38
478.564	69.38
478.783	77.38
479.002	84.38
479.22	82.38
479.439	80.38
479.658	71.38
479.876	79.38
480.095	78.38
480.313	81.38
480.532	71.38
480.751	90.38
480.969	85.38
481.188	76.38
481.406	61.38
481.624	75.38
481.843	70.38
482.061	65.38
482.28	85.38
482.498	83.38
482.717	80.38
482.935	89.38
483.153	83.38
483.372	74.38
483.59	71.38
483.808	94.38
484.027	88.38
484.245	79.38
484.463	76.38
484.681	69.38
484.9	81.38
485.118	82.38
485.336	67.38
485.554	67.38
485.772	79.38
485.99	82.38
486.209	67.38
486.427	85.38
486.645	65.38
486.863	71.38
487.081	77.38
487.299	86.38
487.517	87.38
487.735	78.38
487.953	82.38
488.171	92.38
488.389	83.38
488.607	75.38
488.825	93.38
489.043	72.38
489.261	85.38
489.479	103.38
489.696	95.38
489.914	81.38
490.132	56.38
490.35	74.38
490.568	91.38
490.786	82.38
491.003	86.38
491.221	77.38
491.439	83.38
491.657	59.38
491.874	82.38
492.092	88.38
492.31	104.38
492.527	108.38
492.745	96.38
492.963	81.38
493.18	90.38
493.398	99.38
493.615	88.38
493.833	79.38
494.05	89.38
494.268	97.38
494.485	104.38
494.703	88.38
494.92	81.38
495.138	85.38
495.355	68.38
495.573	79.38
495.79	90.38
496.008	76.38
496.225	83.38
496.442	92.38
496.66	83.38
496.877	88.38
497.094	93.38
497.312	87.38
497.529	80.38
497.746	85.38
497.963	78.38
498.181	81.38
498.398	72.38
498.615	72.38
498.832	102.38
499.049	84.38
499.267	65.38
499.484	61.38
499.701	83.38
499.918	82.38
500.135	76.38
500.352	92.38
500.569	87.38
500.786	73.38
501.003	88.38
501.22	89.38
501.437	68.38
501.654	73.38
501.871	81.38
502.088	75.38
502.305	72.38
502.522	67.38
502.739	69.38
502.956	80.38
503.172	77.38
503.389	75.38
503.606	76.38
503.823	85.38
504.04	83.38
504.256	88.38
504.473	85.38
504.69	83.38
504.907	92.38
505.123	73.38
505.34	69.38
505.557	81.38
505.773	87.38
505.99	85.38
506.207	74.38
506.423	81.38
506.64	83.38
506.856	85.38
507.073	74.38
507.289	79.38
507.506	87.38
507.722	65.38
507.939	88.38
508.155	83.38
508.372	88.38
508.588	79.38
508.805	87.38
509.021	80.38
509.238	77.38
509.454	91.38
509.67	68.38
509.887	76.38
510.103	79.38
510.319	85.38
510.536	76.38
510.752	85.38
510.968	75.38
511.184	76.38
511.401	75.38
511.617	84.38
511.833	87.38
512.049	85.38
512.265	72.38
512.481	92.38
512.698	75.38
512.914	75.38
513.13	83.38
513.346	83.38
513.562	75.38
513.778	70.38
513.994	67.38
514.21	95.38
514.426	79.38
514.642	79.38
514.858	86.38
515.074	76.38
515.29	83.38
515.506	85.38
515.721	81.38
515.937	90.38
516.153	81.38
516.369	69.38
516.585	80.38
516.801	71.38
517.016	85.38
517.232	92.38
517.448	73.38
517.664	86.38
517.879	93.38
518.095	91.38
518.311	60.38
518.527	74.38
518.742	85.38
518.958	83.38
519.173	87.38
519.389	96.38
519.605	76.38
519.82	80.38
