Data from StA_HRD10591_075.txt Node
Date: Fri May 16 15:19:21 EDT 2025
User: Yrep
Spectrometer: HR+D1059
Trigger mode: 1
Integration Time (sec): 1.000000E-1
Scans to average: 1
Electric dark correction enabled: true
Nonlinearity correction enabled: false
Boxcar width: 0
XAxis mode: Wavelengths
Number of Pixels in Spectrum: 2048
>>>>>Begin Spectral Data<<<<<
223.165	-16.25
223.4	-16.25
223.635	-16.25
223.869	-28.25
224.104	-11.25
224.338	-7.25
224.573	-9.25
224.808	-19.25
225.042	-10.25
225.277	-11.25
225.511	0.75
225.746	4.75
225.98	10.75
226.215	21.75
226.449	16.75
226.683	14.75
226.918	16.75
227.152	26.75
227.387	38.75
227.621	40.75
227.856	40.75
228.09	53.75
228.324	49.75
228.559	60.75
228.793	60.75
229.027	72.75
229.262	62.75
229.496	68.75
229.73	61.75
229.964	76.75
230.199	63.75
230.433	76.75
230.667	81.75
230.901	63.75
231.136	84.75
231.37	68.75
231.604	87.75
231.838	85.75
232.072	91.75
232.306	88.75
232.541	72.75
232.775	76.75
233.009	68.75
233.243	80.75
233.477	80.75
233.711	88.75
233.945	77.75
234.179	74.75
234.413	85.75
234.647	72.75
234.881	77.75
235.115	66.75
235.349	81.75
235.583	76.75
235.817	82.75
236.051	73.75
236.285	80.75
236.519	85.75
236.753	78.75
236.987	88.75
237.221	96.75
237.455	81.75
237.689	82.75
237.922	70.75
238.156	87.75
238.39	79.75
238.624	77.75
238.858	82.75
239.091	69.75
239.325	74.75
239.559	73.75
239.793	63.75
240.027	73.75
240.26	84.75
240.494	79.75
240.728	71.75
240.961	86.75
241.195	82.75
241.429	83.75
241.662	72.75
241.896	80.75
242.13	66.75
242.363	91.75
242.597	80.75
242.83	73.75
243.064	72.75
243.298	84.75
243.531	77.75
243.765	75.75
243.998	85.75
244.232	99.75
244.465	82.75
244.699	78.75
244.932	77.75
245.166	79.75
245.399	69.75
245.633	67.75
245.866	75.75
246.099	90.75
246.333	82.75
246.566	77.75
246.8	73.75
247.033	79.75
247.266	72.75
247.5	76.75
247.733	87.75
247.966	84.75
248.2	73.75
248.433	83.75
248.666	84.75
248.899	82.75
249.133	82.75
249.366	81.75
249.599	90.75
249.832	76.75
250.066	68.75
250.299	82.75
250.532	77.75
250.765	66.75
250.998	100.75
251.231	81.75
251.465	75.75
251.698	80.75
251.931	78.75
252.164	78.75
252.397	89.75
252.63	87.75
252.863	84.75
253.096	71.75
253.329	72.75
253.562	81.75
253.795	76.75
254.028	79.75
254.261	92.75
254.494	97.75
254.727	81.75
254.96	82.75
255.193	75.75
255.426	90.75
255.659	77.75
255.892	103.75
256.124	78.75
256.357	84.75
256.59	89.75
256.823	81.75
257.056	72.75
257.289	79.75
257.521	61.75
257.754	60.75
257.987	76.75
258.22	77.75
258.452	91.75
258.685	89.75
258.918	82.75
259.151	92.75
259.383	87.75
259.616	84.75
259.849	78.75
260.081	89.75
260.314	88.75
260.547	74.75
260.779	82.75
261.012	86.75
261.244	91.75
261.477	106.75
261.71	78.75
261.942	82.75
262.175	85.75
262.407	74.75
262.64	72.75
262.872	81.75
263.105	91.75
263.337	89.75
263.57	93.75
263.802	74.75
264.035	83.75
264.267	81.75
264.499	89.75
264.732	84.75
264.964	93.75
265.197	89.75
265.429	92.75
265.661	90.75
265.894	89.75
266.126	70.75
266.358	81.75
266.591	85.75
266.823	78.75
267.055	87.75
267.287	88.75
267.52	89.75
267.752	80.75
267.984	107.75
268.216	81.75
268.448	88.75
268.681	78.75
268.913	71.75
269.145	94.75
269.377	92.75
269.609	77.75
269.841	79.75
270.073	91.75
270.306	77.75
270.538	86.75
270.77	78.75
271.002	79.75
271.234	80.75
271.466	85.75
271.698	93.75
271.93	73.75
272.162	75.75
272.394	77.75
272.626	96.75
272.858	91.75
273.09	73.75
273.322	87.75
273.553	79.75
273.785	92.75
274.017	83.75
274.249	82.75
274.481	81.75
274.713	76.75
274.945	93.75
275.176	80.75
275.408	82.75
275.64	91.75
275.872	85.75
276.104	91.75
276.335	92.75
276.567	72.75
276.799	85.75
277.031	89.75
277.262	91.75
277.494	81.75
277.726	86.75
277.957	76.75
278.189	77.75
278.421	72.75
278.652	89.75
278.884	86.75
279.115	86.75
279.347	94.75
279.579	88.75
279.81	80.75
280.042	84.75
280.273	83.75
280.505	73.75
280.736	90.75
280.968	74.75
281.199	79.75
281.431	76.75
281.662	90.75
281.894	90.75
282.125	91.75
282.356	87.75
282.588	78.75
282.819	72.75
283.051	87.75
283.282	86.75
283.513	90.75
283.745	92.75
283.976	84.75
284.207	72.75
284.439	88.75
284.67	94.75
284.901	88.75
285.132	81.75
285.364	84.75
285.595	83.75
285.826	94.75
286.057	97.75
286.288	96.75
286.52	93.75
286.751	83.75
286.982	101.75
287.213	91.75
287.444	86.75
287.675	96.75
287.906	92.75
288.138	87.75
288.369	75.75
288.6	91.75
288.831	85.75
289.062	104.75
289.293	87.75
289.524	97.75
289.755	93.75
289.986	77.75
290.217	88.75
290.448	82.75
290.679	92.75
290.91	72.75
291.141	90.75
291.371	82.75
291.602	78.75
291.833	85.75
292.064	88.75
292.295	85.75
292.526	92.75
292.757	89.75
292.987	91.75
293.218	86.75
293.449	106.75
293.68	96.75
293.91	85.75
294.141	86.75
294.372	96.75
294.603	83.75
294.833	98.75
295.064	102.75
295.295	72.75
295.525	86.75
295.756	95.75
295.987	81.75
296.217	81.75
296.448	97.75
296.679	100.75
296.909	87.75
297.14	76.75
297.37	91.75
297.601	78.75
297.831	84.75
298.062	98.75
298.292	85.75
298.523	85.75
298.753	96.75
298.984	84.75
299.214	91.75
299.445	79.75
299.675	89.75
299.905	97.75
300.136	99.75
300.366	93.75
300.597	97.75
300.827	81.75
301.057	79.75
301.288	90.75
301.518	95.75
301.748	101.75
301.979	104.75
302.209	94.75
302.439	86.75
302.669	94.75
302.9	87.75
303.13	87.75
303.36	86.75
303.59	87.75
303.82	97.75
304.051	80.75
304.281	97.75
304.511	87.75
304.741	86.75
304.971	84.75
305.201	81.75
305.431	96.75
305.661	69.75
305.891	72.75
306.121	89.75
306.352	96.75
306.582	83.75
306.812	92.75
307.042	86.75
307.272	90.75
307.502	88.75
307.731	84.75
307.961	92.75
308.191	92.75
308.421	90.75
308.651	84.75
308.881	89.75
309.111	76.75
309.341	84.75
309.571	82.75
309.8	70.75
310.03	92.75
310.26	92.75
310.49	85.75
310.72	88.75
310.949	90.75
311.179	76.75
311.409	80.75
311.639	92.75
311.868	93.75
312.098	99.75
312.328	105.75
312.557	94.75
312.787	102.75
313.017	75.75
313.246	88.75
313.476	86.75
313.706	94.75
313.935	77.75
314.165	82.75
314.394	89.75
314.624	100.75
314.853	80.75
315.083	96.75
315.312	90.75
315.542	84.75
315.771	81.75
316.001	88.75
316.23	85.75
316.46	80.75
316.689	81.75
316.919	103.75
317.148	90.75
317.377	80.75
317.607	80.75
317.836	86.75
318.065	82.75
318.295	101.75
318.524	100.75
318.753	88.75
318.983	84.75
319.212	82.75
319.441	92.75
319.67	86.75
319.9	94.75
320.129	90.75
320.358	80.75
320.587	86.75
320.816	81.75
321.046	84.75
321.275	95.75
321.504	89.75
321.733	79.75
321.962	81.75
322.191	92.75
322.42	84.75
322.649	84.75
322.878	103.75
323.108	76.75
323.337	84.75
323.566	79.75
323.795	81.75
324.024	101.75
324.253	78.75
324.482	92.75
324.71	86.75
324.939	71.75
325.168	94.75
325.397	94.75
325.626	75.75
325.855	97.75
326.084	78.75
326.313	79.75
326.542	90.75
326.77	93.75
326.999	90.75
327.228	78.75
327.457	100.75
327.686	75.75
327.914	82.75
328.143	85.75
328.372	75.75
328.6	70.75
328.829	78.75
329.058	91.75
329.287	81.75
329.515	75.75
329.744	89.75
329.972	82.75
330.201	89.75
330.43	88.75
330.658	84.75
330.887	85.75
331.115	95.75
331.344	87.75
331.572	73.75
331.801	85.75
332.03	90.75
332.258	79.75
332.486	76.75
332.715	85.75
332.943	74.75
333.172	80.75
333.4	84.75
333.629	86.75
333.857	93.75
334.085	78.75
334.314	95.75
334.542	82.75
334.771	102.75
334.999	91.75
335.227	88.75
335.455	90.75
335.684	83.75
335.912	85.75
336.14	89.75
336.369	79.75
336.597	74.75
336.825	82.75
337.053	92.75
337.281	88.75
337.51	90.75
337.738	107.75
337.966	96.75
338.194	83.75
338.422	92.75
338.65	90.75
338.878	94.75
339.106	89.75
339.334	88.75
339.562	92.75
339.79	89.75
340.018	87.75
340.246	73.75
340.474	88.75
340.702	101.75
340.93	86.75
341.158	87.75
341.386	88.75
341.614	92.75
341.842	84.75
342.07	86.75
342.298	99.75
342.526	90.75
342.754	96.75
342.981	87.75
343.209	110.75
343.437	98.75
343.665	88.75
343.893	76.75
344.12	97.75
344.348	97.75
344.576	103.75
344.804	92.75
345.031	104.75
345.259	81.75
345.487	82.75
345.714	72.75
345.942	92.75
346.17	82.75
346.397	81.75
346.625	89.75
346.853	97.75
347.08	80.75
347.308	92.75
347.535	86.75
347.763	87.75
347.99	77.75
348.218	68.75
348.445	74.75
348.673	78.75
348.9	76.75
349.128	80.75
349.355	85.75
349.583	78.75
349.81	93.75
350.037	82.75
350.265	81.75
350.492	100.75
350.72	84.75
350.947	82.75
351.174	98.75
351.402	79.75
351.629	92.75
351.856	87.75
352.083	80.75
352.311	91.75
352.538	84.75
352.765	79.75
352.992	81.75
353.22	69.75
353.447	75.75
353.674	79.75
353.901	101.75
354.128	88.75
354.355	82.75
354.583	85.75
354.81	81.75
355.037	92.75
355.264	84.75
355.491	74.75
355.718	94.75
355.945	100.75
356.172	86.75
356.399	84.75
356.626	88.75
356.853	100.75
357.08	105.75
357.307	91.75
357.534	98.75
357.761	110.75
357.988	138.75
358.215	98.75
358.441	96.75
358.668	82.75
358.895	86.75
359.122	103.75
359.349	117.75
359.576	106.75
359.802	101.75
360.029	106.75
360.256	103.75
360.483	117.75
360.709	100.75
360.936	100.75
361.163	87.75
361.39	93.75
361.616	90.75
361.843	76.75
362.07	83.75
362.296	85.75
362.523	77.75
362.749	88.75
362.976	79.75
363.203	86.75
363.429	95.75
363.656	91.75
363.882	101.75
364.109	94.75
364.335	75.75
364.562	86.75
364.788	76.75
365.015	105.75
365.241	93.75
365.468	82.75
365.694	91.75
365.92	87.75
366.147	95.75
366.373	70.75
366.599	93.75
366.826	80.75
367.052	87.75
367.278	84.75
367.505	97.75
367.731	106.75
367.957	97.75
368.184	81.75
368.41	78.75
368.636	77.75
368.862	95.75
369.089	94.75
369.315	82.75
369.541	72.75
369.767	79.75
369.993	96.75
370.219	87.75
370.445	81.75
370.672	73.75
370.898	84.75
371.124	93.75
371.35	79.75
371.576	92.75
371.802	80.75
372.028	84.75
372.254	80.75
372.48	67.75
372.706	89.75
372.932	82.75
373.158	90.75
373.384	97.75
373.61	90.75
373.835	93.75
374.061	80.75
374.287	82.75
374.513	85.75
374.739	93.75
374.965	89.75
375.191	93.75
375.416	80.75
375.642	81.75
375.868	97.75
376.094	97.75
376.319	88.75
376.545	94.75
376.771	86.75
376.997	82.75
377.222	81.75
377.448	83.75
377.674	90.75
377.899	90.75
378.125	72.75
378.35	67.75
378.576	86.75
378.802	89.75
379.027	88.75
379.253	88.75
379.478	79.75
379.704	96.75
379.929	75.75
380.155	80.75
380.38	87.75
380.606	98.75
380.831	95.75
381.057	103.75
381.282	84.75
381.507	90.75
381.733	80.75
381.958	67.75
382.184	86.75
382.409	95.75
382.634	74.75
382.86	84.75
383.085	82.75
383.31	92.75
383.535	84.75
383.761	85.75
383.986	82.75
384.211	85.75
384.436	89.75
384.662	87.75
384.887	91.75
385.112	82.75
385.337	97.75
385.562	72.75
385.787	89.75
386.013	86.75
386.238	97.75
386.463	77.75
386.688	92.75
386.913	74.75
387.138	78.75
387.363	87.75
387.588	80.75
387.813	87.75
388.038	97.75
388.263	77.75
388.488	89.75
388.713	97.75
388.938	75.75
389.163	96.75
389.387	88.75
389.612	80.75
389.837	91.75
390.062	104.75
390.287	75.75
390.512	93.75
390.736	94.75
390.961	88.75
391.186	85.75
391.411	93.75
391.636	88.75
391.86	102.75
392.085	88.75
392.31	93.75
392.534	86.75
392.759	92.75
392.984	77.75
393.208	86.75
393.433	74.75
393.658	79.75
393.882	77.75
394.107	73.75
394.331	86.75
394.556	82.75
394.78	65.75
395.005	68.75
395.229	80.75
395.454	95.75
395.678	81.75
395.903	92.75
396.127	95.75
396.352	97.75
396.576	96.75
396.801	108.75
397.025	89.75
397.249	95.75
397.474	86.75
397.698	91.75
397.922	108.75
398.147	99.75
398.371	102.75
398.595	92.75
398.82	81.75
399.044	80.75
399.268	90.75
399.492	93.75
399.717	84.75
399.941	76.75
400.165	75.75
400.389	80.75
400.613	80.75
400.837	85.75
401.062	78.75
401.286	101.75
401.51	89.75
401.734	77.75
401.958	105.75
402.182	74.75
402.406	86.75
402.63	96.75
402.854	89.75
403.078	68.75
403.302	86.75
403.526	92.75
403.75	86.75
403.974	81.75
404.198	97.75
404.422	94.75
404.645	79.75
404.869	90.75
405.093	80.75
405.317	83.75
405.541	86.75
405.765	90.75
405.988	75.75
406.212	73.75
406.436	79.75
406.66	76.75
406.883	74.75
407.107	80.75
407.331	80.75
407.555	77.75
407.778	79.75
408.002	91.75
408.226	80.75
408.449	71.75
408.673	74.75
408.896	89.75
409.12	81.75
409.344	65.75
409.567	78.75
409.791	75.75
410.014	88.75
410.238	88.75
410.461	76.75
410.685	80.75
410.908	84.75
411.132	91.75
411.355	79.75
411.578	90.75
411.802	76.75
412.025	76.75
412.249	81.75
412.472	98.75
412.695	91.75
412.919	86.75
413.142	93.75
413.365	87.75
413.589	96.75
413.812	84.75
414.035	95.75
414.258	72.75
414.482	64.75
414.705	91.75
414.928	95.75
415.151	90.75
415.374	91.75
415.597	91.75
415.821	92.75
416.044	82.75
416.267	83.75
416.49	88.75
416.713	90.75
416.936	81.75
417.159	76.75
417.382	71.75
417.605	83.75
417.828	88.75
418.051	79.75
418.274	86.75
418.497	97.75
418.72	88.75
418.943	98.75
419.166	81.75
419.389	77.75
419.611	88.75
419.834	89.75
420.057	89.75
420.28	96.75
420.503	85.75
420.726	87.75
420.948	92.75
421.171	83.75
421.394	79.75
421.617	88.75
421.839	87.75
422.062	85.75
422.285	82.75
422.507	79.75
422.73	74.75
422.953	100.75
423.175	89.75
423.398	80.75
423.621	80.75
423.843	75.75
424.066	75.75
424.288	84.75
424.511	95.75
424.733	92.75
424.956	94.75
425.178	105.75
425.401	125.75
425.623	156.75
425.846	103.75
426.068	87.75
426.291	72.75
426.513	86.75
426.735	89.75
426.958	77.75
427.18	96.75
427.402	117.75
427.625	149.75
427.847	108.75
428.069	72.75
428.292	78.75
428.514	81.75
428.736	100.75
428.958	124.75
429.181	144.75
429.403	93.75
429.625	84.75
429.847	73.75
430.069	88.75
430.292	82.75
430.514	92.75
430.736	82.75
430.958	85.75
431.18	89.75
431.402	79.75
431.624	92.75
431.846	74.75
432.068	70.75
432.29	72.75
432.512	80.75
432.734	78.75
432.956	96.75
433.178	85.75
433.4	90.75
433.622	88.75
433.844	115.75
434.066	110.75
434.287	102.75
434.509	103.75
434.731	93.75
434.953	82.75
435.175	106.75
435.397	114.75
435.618	85.75
435.84	91.75
436.062	92.75
436.284	97.75
436.505	75.75
436.727	82.75
436.949	88.75
437.17	84.75
437.392	82.75
437.614	86.75
437.835	101.75
438.057	84.75
438.278	79.75
438.5	97.75
438.721	91.75
438.943	66.75
439.165	80.75
439.386	87.75
439.608	88.75
439.829	89.75
440.05	84.75
440.272	101.75
440.493	100.75
440.715	82.75
440.936	86.75
441.158	92.75
441.379	76.75
441.6	84.75
441.822	88.75
442.043	96.75
442.264	79.75
442.486	89.75
442.707	77.75
442.928	84.75
443.149	93.75
443.371	88.75
443.592	80.75
443.813	81.75
444.034	75.75
444.255	78.75
444.476	100.75
444.698	87.75
444.919	92.75
445.14	154.75
445.361	118.75
445.582	84.75
445.803	66.75
446.024	75.75
446.245	93.75
446.466	88.75
446.687	91.75
446.908	96.75
447.129	80.75
447.35	76.75
447.571	74.75
447.792	95.75
448.013	88.75
448.234	90.75
448.455	93.75
448.675	80.75
448.896	80.75
449.117	88.75
449.338	82.75
449.559	88.75
449.779	101.75
450	94.75
450.221	81.75
450.442	70.75
450.662	89.75
450.883	78.75
451.104	92.75
451.324	72.75
451.545	88.75
451.766	82.75
451.986	83.75
452.207	84.75
452.428	82.75
452.648	94.75
452.869	88.75
453.089	100.75
453.31	93.75
453.53	80.75
453.751	88.75
453.971	103.75
454.192	84.75
454.412	91.75
454.633	116.75
454.853	86.75
455.073	70.75
455.294	80.75
455.514	80.75
455.734	80.75
455.955	77.75
456.175	92.75
456.395	89.75
456.616	93.75
456.836	84.75
457.056	85.75
457.276	83.75
457.497	75.75
457.717	79.75
457.937	86.75
458.157	76.75
458.377	85.75
458.598	94.75
458.818	84.75
459.038	86.75
459.258	97.75
459.478	69.75
459.698	90.75
459.918	96.75
460.138	102.75
460.358	97.75
460.578	88.75
460.798	104.75
461.018	87.75
461.238	85.75
461.458	87.75
461.678	87.75
461.898	96.75
462.118	87.75
462.338	91.75
462.558	97.75
462.777	94.75
462.997	82.75
463.217	79.75
463.437	86.75
463.657	92.75
463.876	92.75
464.096	84.75
464.316	84.75
464.536	80.75
464.755	105.75
464.975	102.75
465.195	97.75
465.414	116.75
465.634	76.75
465.854	72.75
466.073	78.75
466.293	79.75
466.512	97.75
466.732	80.75
466.951	88.75
467.171	84.75
467.391	84.75
467.61	87.75
467.829	89.75
468.049	83.75
468.268	75.75
468.488	84.75
468.707	75.75
468.927	85.75
469.146	89.75
469.365	89.75
469.585	84.75
469.804	86.75
470.023	76.75
470.243	87.75
470.462	77.75
470.681	94.75
470.901	80.75
471.12	93.75
471.339	85.75
471.558	87.75
471.777	100.75
471.997	99.75
472.216	78.75
472.435	90.75
472.654	84.75
472.873	77.75
473.092	82.75
473.311	76.75
473.53	85.75
473.749	94.75
473.968	99.75
474.187	98.75
474.406	87.75
474.625	76.75
474.844	86.75
475.063	87.75
475.282	85.75
475.501	87.75
475.72	93.75
475.939	88.75
476.158	76.75
476.377	78.75
476.596	71.75
476.814	80.75
477.033	69.75
477.252	84.75
477.471	85.75
477.69	77.75
477.908	82.75
478.127	99.75
478.346	90.75
478.564	79.75
478.783	98.75
479.002	104.75
479.22	88.75
479.439	91.75
479.658	95.75
479.876	71.75
480.095	91.75
480.313	91.75
480.532	95.75
480.751	88.75
480.969	85.75
481.188	72.75
481.406	69.75
481.624	78.75
481.843	85.75
482.061	92.75
482.28	93.75
482.498	82.75
482.717	79.75
482.935	93.75
483.153	101.75
483.372	91.75
483.59	86.75
483.808	90.75
484.027	81.75
484.245	87.75
484.463	81.75
484.681	82.75
484.9	88.75
485.118	88.75
485.336	87.75
485.554	67.75
485.772	93.75
485.99	92.75
486.209	88.75
486.427	78.75
486.645	88.75
486.863	85.75
487.081	79.75
487.299	90.75
487.517	76.75
487.735	77.75
487.953	75.75
488.171	80.75
488.389	86.75
488.607	88.75
488.825	112.75
489.043	84.75
489.261	79.75
489.479	80.75
489.696	90.75
489.914	104.75
490.132	74.75
490.35	78.75
490.568	81.75
490.786	95.75
491.003	92.75
491.221	96.75
491.439	81.75
491.657	79.75
491.874	96.75
492.092	83.75
492.31	97.75
492.527	99.75
492.745	92.75
492.963	88.75
493.18	90.75
493.398	102.75
493.615	100.75
493.833	98.75
494.05	104.75
494.268	92.75
494.485	108.75
494.703	90.75
494.92	90.75
495.138	82.75
495.355	89.75
495.573	85.75
495.79	88.75
496.008	89.75
496.225	94.75
496.442	73.75
496.66	100.75
496.877	80.75
497.094	89.75
497.312	92.75
497.529	89.75
497.746	101.75
497.963	82.75
498.181	81.75
498.398	86.75
498.615	92.75
498.832	69.75
499.049	88.75
499.267	89.75
499.484	86.75
499.701	77.75
499.918	88.75
500.135	100.75
500.352	77.75
500.569	80.75
500.786	80.75
501.003	82.75
501.22	82.75
501.437	78.75
501.654	91.75
501.871	87.75
502.088	78.75
502.305	79.75
502.522	90.75
502.739	61.75
502.956	90.75
503.172	97.75
503.389	93.75
503.606	78.75
503.823	90.75
504.04	76.75
504.256	83.75
504.473	96.75
504.69	79.75
504.907	77.75
505.123	88.75
505.34	85.75
505.557	91.75
505.773	86.75
505.99	81.75
506.207	81.75
506.423	87.75
506.64	84.75
506.856	88.75
507.073	80.75
507.289	94.75
507.506	82.75
507.722	74.75
507.939	87.75
508.155	88.75
508.372	76.75
508.588	80.75
508.805	86.75
509.021	84.75
509.238	92.75
509.454	85.75
509.67	79.75
509.887	90.75
510.103	66.75
510.319	87.75
510.536	77.75
510.752	89.75
510.968	94.75
511.184	97.75
511.401	95.75
511.617	76.75
511.833	82.75
512.049	87.75
512.265	83.75
512.481	87.75
512.698	77.75
512.914	73.75
513.13	80.75
513.346	77.75
513.562	80.75
513.778	84.75
513.994	84.75
514.21	89.75
514.426	87.75
514.642	93.75
514.858	100.75
515.074	79.75
515.29	96.75
515.506	92.75
515.721	94.75
515.937	77.75
516.153	95.75
516.369	88.75
516.585	88.75
516.801	101.75
517.016	80.75
517.232	88.75
517.448	102.75
517.664	94.75
517.879	93.75
518.095	88.75
518.311	96.75
518.527	85.75
518.742	82.75
518.958	86.75
