Data from StA_HRD10591_022.txt Node
Date: Fri May 16 15:18:55 EDT 2025
User: Yrep
Spectrometer: HR+D1059
Trigger mode: 1
Integration Time (sec): 1.000000E-1
Scans to average: 1
Electric dark correction enabled: true
Nonlinearity correction enabled: false
Boxcar width: 0
XAxis mode: Wavelengths
Number of Pixels in Spectrum: 2048
>>>>>Begin Spectral Data<<<<<
223.165	-5.88
223.4	-5.88
223.635	-5.88
223.869	-22.88
224.104	-26.88
224.338	-18.88
224.573	-19.88
224.808	-14.88
225.042	-16.88
225.277	-3.88
225.511	0.12
225.746	-7.88
225.98	14.12
226.215	17.12
226.449	24.12
226.683	23.12
226.918	29.12
227.152	30.12
227.387	37.12
227.621	48.12
227.856	41.12
228.09	39.12
228.324	49.12
228.559	51.12
228.793	71.12
229.027	71.12
229.262	63.12
229.496	67.12
229.73	71.12
229.964	69.12
230.199	72.12
230.433	90.12
230.667	74.12
230.901	73.12
231.136	79.12
231.37	62.12
231.604	79.12
231.838	85.12
232.072	75.12
232.306	88.12
232.541	87.12
232.775	79.12
233.009	77.12
233.243	81.12
233.477	76.12
233.711	74.12
233.945	85.12
234.179	78.12
234.413	73.12
234.647	78.12
234.881	73.12
235.115	79.12
235.349	62.12
235.583	65.12
235.817	70.12
236.051	89.12
236.285	94.12
236.519	82.12
236.753	79.12
236.987	85.12
237.221	81.12
237.455	68.12
237.689	78.12
237.922	74.12
238.156	87.12
238.39	74.12
238.624	77.12
238.858	90.12
239.091	68.12
239.325	81.12
239.559	70.12
239.793	71.12
240.027	74.12
240.26	82.12
240.494	80.12
240.728	80.12
240.961	98.12
241.195	74.12
241.429	94.12
241.662	77.12
241.896	77.12
242.13	74.12
242.363	87.12
242.597	67.12
242.83	75.12
243.064	89.12
243.298	75.12
243.531	76.12
243.765	81.12
243.998	78.12
244.232	91.12
244.465	81.12
244.699	72.12
244.932	65.12
245.166	74.12
245.399	67.12
245.633	76.12
245.866	81.12
246.099	77.12
246.333	93.12
246.566	86.12
246.8	81.12
247.033	69.12
247.266	87.12
247.5	80.12
247.733	67.12
247.966	75.12
248.2	72.12
248.433	81.12
248.666	71.12
248.899	92.12
249.133	91.12
249.366	69.12
249.599	82.12
249.832	85.12
250.066	63.12
250.299	65.12
250.532	89.12
250.765	76.12
250.998	78.12
251.231	77.12
251.465	82.12
251.698	72.12
251.931	81.12
252.164	73.12
252.397	74.12
252.63	77.12
252.863	66.12
253.096	81.12
253.329	84.12
253.562	81.12
253.795	93.12
254.028	85.12
254.261	81.12
254.494	88.12
254.727	95.12
254.96	89.12
255.193	61.12
255.426	71.12
255.659	77.12
255.892	97.12
256.124	87.12
256.357	93.12
256.59	81.12
256.823	93.12
257.056	85.12
257.289	85.12
257.521	77.12
257.754	89.12
257.987	71.12
258.22	81.12
258.452	87.12
258.685	74.12
258.918	90.12
259.151	82.12
259.383	81.12
259.616	75.12
259.849	81.12
260.081	82.12
260.314	83.12
260.547	84.12
260.779	77.12
261.012	64.12
261.244	84.12
261.477	82.12
261.71	71.12
261.942	88.12
262.175	85.12
262.407	88.12
262.64	80.12
262.872	103.12
263.105	60.12
263.337	89.12
263.57	93.12
263.802	73.12
264.035	83.12
264.267	86.12
264.499	85.12
264.732	67.12
264.964	84.12
265.197	88.12
265.429	86.12
265.661	96.12
265.894	85.12
266.126	100.12
266.358	85.12
266.591	77.12
266.823	83.12
267.055	97.12
267.287	71.12
267.52	79.12
267.752	87.12
267.984	81.12
268.216	86.12
268.448	94.12
268.681	92.12
268.913	82.12
269.145	75.12
269.377	91.12
269.609	81.12
269.841	95.12
270.073	86.12
270.306	90.12
270.538	76.12
270.77	86.12
271.002	73.12
271.234	80.12
271.466	85.12
271.698	94.12
271.93	75.12
272.162	78.12
272.394	82.12
272.626	75.12
272.858	88.12
273.09	91.12
273.322	89.12
273.553	94.12
273.785	82.12
274.017	87.12
274.249	74.12
274.481	89.12
274.713	78.12
274.945	91.12
275.176	85.12
275.408	82.12
275.64	76.12
275.872	93.12
276.104	89.12
276.335	91.12
276.567	90.12
276.799	80.12
277.031	106.12
277.262	84.12
277.494	80.12
277.726	87.12
277.957	88.12
278.189	91.12
278.421	71.12
278.652	86.12
278.884	81.12
279.115	93.12
279.347	79.12
279.579	76.12
279.81	88.12
280.042	75.12
280.273	91.12
280.505	90.12
280.736	75.12
280.968	90.12
281.199	75.12
281.431	88.12
281.662	87.12
281.894	91.12
282.125	75.12
282.356	69.12
282.588	79.12
282.819	87.12
283.051	79.12
283.282	77.12
283.513	83.12
283.745	93.12
283.976	85.12
284.207	87.12
284.439	80.12
284.67	89.12
284.901	80.12
285.132	102.12
285.364	95.12
285.595	97.12
285.826	97.12
286.057	102.12
286.288	95.12
286.52	95.12
286.751	83.12
286.982	88.12
287.213	98.12
287.444	90.12
287.675	89.12
287.906	91.12
288.138	78.12
288.369	88.12
288.6	89.12
288.831	92.12
289.062	80.12
289.293	84.12
289.524	98.12
289.755	97.12
289.986	93.12
290.217	92.12
290.448	83.12
290.679	92.12
290.91	92.12
291.141	85.12
291.371	98.12
291.602	90.12
291.833	85.12
292.064	81.12
292.295	96.12
292.526	82.12
292.757	91.12
292.987	97.12
293.218	89.12
293.449	90.12
293.68	90.12
293.91	80.12
294.141	79.12
294.372	89.12
294.603	78.12
294.833	85.12
295.064	81.12
295.295	87.12
295.525	99.12
295.756	101.12
295.987	105.12
296.217	93.12
296.448	91.12
296.679	75.12
296.909	78.12
297.14	92.12
297.37	91.12
297.601	90.12
297.831	81.12
298.062	98.12
298.292	81.12
298.523	107.12
298.753	104.12
298.984	107.12
299.214	90.12
299.445	92.12
299.675	95.12
299.905	101.12
300.136	89.12
300.366	93.12
300.597	89.12
300.827	90.12
301.057	93.12
301.288	97.12
301.518	91.12
301.748	112.12
301.979	111.12
302.209	94.12
302.439	105.12
302.669	86.12
302.9	87.12
303.13	96.12
303.36	93.12
303.59	94.12
303.82	94.12
304.051	96.12
304.281	82.12
304.511	87.12
304.741	89.12
304.971	70.12
305.201	103.12
305.431	94.12
305.661	97.12
305.891	90.12
306.121	92.12
306.352	79.12
306.582	92.12
306.812	89.12
307.042	81.12
307.272	83.12
307.502	85.12
307.731	86.12
307.961	83.12
308.191	106.12
308.421	80.12
308.651	79.12
308.881	72.12
309.111	68.12
309.341	93.12
309.571	77.12
309.8	75.12
310.03	91.12
310.26	79.12
310.49	80.12
310.72	86.12
310.949	95.12
311.179	87.12
311.409	83.12
311.639	93.12
311.868	95.12
312.098	90.12
312.328	86.12
312.557	78.12
312.787	82.12
313.017	90.12
313.246	88.12
313.476	94.12
313.706	74.12
313.935	97.12
314.165	79.12
314.394	92.12
314.624	93.12
314.853	85.12
315.083	75.12
315.312	88.12
315.542	87.12
315.771	91.12
316.001	67.12
316.23	88.12
316.46	92.12
316.689	89.12
316.919	86.12
317.148	94.12
317.377	95.12
317.607	94.12
317.836	98.12
318.065	96.12
318.295	82.12
318.524	91.12
318.753	103.12
318.983	99.12
319.212	88.12
319.441	86.12
319.67	76.12
319.9	80.12
320.129	84.12
320.358	90.12
320.587	94.12
320.816	82.12
321.046	87.12
321.275	84.12
321.504	82.12
321.733	85.12
321.962	81.12
322.191	85.12
322.42	96.12
322.649	92.12
322.878	78.12
323.108	77.12
323.337	89.12
323.566	82.12
323.795	84.12
324.024	85.12
324.253	72.12
324.482	82.12
324.71	92.12
324.939	98.12
325.168	102.12
325.397	89.12
325.626	71.12
325.855	89.12
326.084	80.12
326.313	94.12
326.542	91.12
326.77	92.12
326.999	76.12
327.228	71.12
327.457	85.12
327.686	88.12
327.914	83.12
328.143	94.12
328.372	93.12
328.6	86.12
328.829	72.12
329.058	70.12
329.287	84.12
329.515	81.12
329.744	82.12
329.972	89.12
330.201	90.12
330.43	85.12
330.658	81.12
330.887	82.12
331.115	86.12
331.344	78.12
331.572	93.12
331.801	82.12
332.03	103.12
332.258	85.12
332.486	93.12
332.715	99.12
332.943	92.12
333.172	80.12
333.4	85.12
333.629	85.12
333.857	84.12
334.085	93.12
334.314	93.12
334.542	86.12
334.771	94.12
334.999	90.12
335.227	92.12
335.455	88.12
335.684	91.12
335.912	87.12
336.14	92.12
336.369	81.12
336.597	86.12
336.825	92.12
337.053	90.12
337.281	77.12
337.51	86.12
337.738	85.12
337.966	82.12
338.194	78.12
338.422	77.12
338.65	92.12
338.878	79.12
339.106	80.12
339.334	89.12
339.562	72.12
339.79	75.12
340.018	80.12
340.246	83.12
340.474	93.12
340.702	86.12
340.93	104.12
341.158	79.12
341.386	77.12
341.614	91.12
341.842	98.12
342.07	81.12
342.298	95.12
342.526	91.12
342.754	96.12
342.981	93.12
343.209	81.12
343.437	113.12
343.665	78.12
343.893	79.12
344.12	89.12
344.348	80.12
344.576	90.12
344.804	90.12
345.031	85.12
345.259	79.12
345.487	91.12
345.714	84.12
345.942	90.12
346.17	72.12
346.397	107.12
346.625	87.12
346.853	87.12
347.08	78.12
347.308	97.12
347.535	79.12
347.763	85.12
347.99	70.12
348.218	91.12
348.445	83.12
348.673	91.12
348.9	81.12
349.128	85.12
349.355	83.12
349.583	92.12
349.81	69.12
350.037	81.12
350.265	95.12
350.492	79.12
350.72	90.12
350.947	83.12
351.174	96.12
351.402	97.12
351.629	81.12
351.856	79.12
352.083	88.12
352.311	86.12
352.538	91.12
352.765	84.12
352.992	98.12
353.22	81.12
353.447	81.12
353.674	85.12
353.901	81.12
354.128	109.12
354.355	80.12
354.583	79.12
354.81	91.12
355.037	109.12
355.264	91.12
355.491	87.12
355.718	90.12
355.945	81.12
356.172	79.12
356.399	99.12
356.626	81.12
356.853	74.12
357.08	103.12
357.307	94.12
357.534	103.12
357.761	132.12
357.988	139.12
358.215	96.12
358.441	96.12
358.668	101.12
358.895	99.12
359.122	93.12
359.349	126.12
359.576	118.12
359.802	92.12
360.029	96.12
360.256	101.12
360.483	106.12
360.709	114.12
360.936	110.12
361.163	92.12
361.39	87.12
361.616	80.12
361.843	85.12
362.07	77.12
362.296	67.12
362.523	95.12
362.749	81.12
362.976	103.12
363.203	92.12
363.429	89.12
363.656	86.12
363.882	87.12
364.109	86.12
364.335	99.12
364.562	87.12
364.788	87.12
365.015	101.12
365.241	104.12
365.468	79.12
365.694	82.12
365.92	77.12
366.147	78.12
366.373	92.12
366.599	86.12
366.826	77.12
367.052	72.12
367.278	90.12
367.505	84.12
367.731	97.12
367.957	77.12
368.184	82.12
368.41	92.12
368.636	102.12
368.862	93.12
369.089	82.12
369.315	83.12
369.541	99.12
369.767	84.12
369.993	77.12
370.219	82.12
370.445	95.12
370.672	93.12
370.898	80.12
371.124	86.12
371.35	78.12
371.576	92.12
371.802	95.12
372.028	92.12
372.254	92.12
372.48	88.12
372.706	97.12
372.932	82.12
373.158	80.12
373.384	83.12
373.61	83.12
373.835	87.12
374.061	97.12
374.287	106.12
374.513	71.12
374.739	82.12
374.965	90.12
375.191	82.12
375.416	96.12
375.642	89.12
375.868	88.12
376.094	91.12
376.319	99.12
376.545	89.12
376.771	87.12
376.997	82.12
377.222	81.12
377.448	88.12
377.674	95.12
377.899	79.12
378.125	85.12
378.35	80.12
378.576	93.12
378.802	89.12
379.027	87.12
379.253	97.12
379.478	79.12
379.704	89.12
379.929	83.12
380.155	91.12
380.38	100.12
380.606	79.12
380.831	87.12
381.057	103.12
381.282	82.12
381.507	79.12
381.733	91.12
381.958	77.12
382.184	92.12
382.409	96.12
382.634	89.12
382.86	81.12
383.085	97.12
383.31	81.12
383.535	86.12
383.761	91.12
383.986	84.12
384.211	106.12
384.436	99.12
384.662	87.12
384.887	79.12
385.112	97.12
385.337	81.12
385.562	74.12
385.787	78.12
386.013	87.12
386.238	97.12
386.463	80.12
386.688	104.12
386.913	84.12
387.138	85.12
387.363	82.12
387.588	80.12
387.813	84.12
388.038	87.12
388.263	85.12
388.488	113.12
388.713	90.12
388.938	102.12
389.163	90.12
389.387	90.12
389.612	90.12
389.837	98.12
390.062	88.12
390.287	90.12
390.512	92.12
390.736	85.12
390.961	86.12
391.186	86.12
391.411	89.12
391.636	89.12
391.86	95.12
392.085	89.12
392.31	91.12
392.534	97.12
392.759	93.12
392.984	87.12
393.208	87.12
393.433	91.12
393.658	67.12
393.882	75.12
394.107	78.12
394.331	99.12
394.556	77.12
394.78	71.12
395.005	94.12
395.229	93.12
395.454	77.12
395.678	81.12
395.903	81.12
396.127	85.12
396.352	87.12
396.576	71.12
396.801	85.12
397.025	94.12
397.249	93.12
397.474	109.12
397.698	100.12
397.922	91.12
398.147	91.12
398.371	109.12
398.595	99.12
398.82	96.12
399.044	82.12
399.268	94.12
399.492	90.12
399.717	79.12
399.941	86.12
400.165	87.12
400.389	90.12
400.613	76.12
400.837	96.12
401.062	91.12
401.286	101.12
401.51	91.12
401.734	73.12
401.958	88.12
402.182	77.12
402.406	103.12
402.63	75.12
402.854	88.12
403.078	82.12
403.302	80.12
403.526	74.12
403.75	78.12
403.974	75.12
404.198	78.12
404.422	71.12
404.645	76.12
404.869	84.12
405.093	88.12
405.317	91.12
405.541	94.12
405.765	87.12
405.988	83.12
406.212	91.12
406.436	90.12
406.66	84.12
406.883	88.12
407.107	84.12
407.331	89.12
407.555	96.12
407.778	72.12
408.002	81.12
408.226	74.12
408.449	84.12
408.673	65.12
408.896	77.12
409.12	78.12
409.344	80.12
409.567	81.12
409.791	73.12
410.014	94.12
410.238	83.12
410.461	81.12
410.685	85.12
410.908	86.12
411.132	89.12
411.355	90.12
411.578	92.12
411.802	88.12
412.025	86.12
412.249	89.12
412.472	90.12
412.695	84.12
412.919	88.12
413.142	73.12
413.365	88.12
413.589	101.12
413.812	78.12
414.035	82.12
414.258	78.12
414.482	87.12
414.705	86.12
414.928	93.12
415.151	81.12
415.374	90.12
415.597	86.12
415.821	53.12
416.044	84.12
416.267	71.12
416.49	84.12
416.713	86.12
416.936	85.12
417.159	81.12
417.382	80.12
417.605	81.12
417.828	90.12
418.051	85.12
418.274	88.12
418.497	77.12
418.72	86.12
418.943	83.12
419.166	80.12
419.389	94.12
419.611	85.12
419.834	79.12
420.057	91.12
420.28	78.12
420.503	87.12
420.726	80.12
420.948	104.12
421.171	83.12
421.394	80.12
421.617	84.12
421.839	78.12
422.062	85.12
422.285	85.12
422.507	78.12
422.73	79.12
422.953	88.12
423.175	78.12
423.398	77.12
423.621	73.12
423.843	68.12
424.066	98.12
424.288	80.12
424.511	89.12
424.733	91.12
424.956	89.12
425.178	102.12
425.401	135.12
425.623	147.12
425.846	110.12
426.068	85.12
426.291	89.12
426.513	80.12
426.735	99.12
426.958	95.12
427.18	90.12
427.402	120.12
427.625	142.12
427.847	90.12
428.069	93.12
428.292	81.12
428.514	94.12
428.736	103.12
428.958	121.12
429.181	124.12
429.403	102.12
429.625	94.12
429.847	84.12
430.069	82.12
430.292	82.12
430.514	92.12
430.736	87.12
430.958	85.12
431.18	69.12
431.402	67.12
431.624	79.12
431.846	72.12
432.068	85.12
432.29	85.12
432.512	96.12
432.734	75.12
432.956	91.12
433.178	78.12
433.4	74.12
433.622	82.12
433.844	98.12
434.066	125.12
434.287	105.12
434.509	92.12
434.731	111.12
434.953	95.12
435.175	103.12
435.397	106.12
435.618	98.12
435.84	90.12
436.062	95.12
436.284	86.12
436.505	81.12
436.727	88.12
436.949	99.12
437.17	109.12
437.392	96.12
437.614	86.12
437.835	75.12
438.057	93.12
438.278	80.12
438.5	96.12
438.721	89.12
438.943	86.12
439.165	69.12
439.386	89.12
439.608	92.12
439.829	91.12
440.05	82.12
440.272	85.12
440.493	71.12
440.715	80.12
440.936	93.12
441.158	90.12
441.379	82.12
441.6	88.12
441.822	87.12
442.043	82.12
442.264	87.12
442.486	84.12
442.707	85.12
442.928	104.12
443.149	93.12
443.371	92.12
443.592	88.12
443.813	91.12
444.034	89.12
444.255	82.12
444.476	78.12
444.698	87.12
444.919	86.12
445.14	148.12
445.361	112.12
445.582	91.12
445.803	74.12
446.024	94.12
446.245	85.12
446.466	82.12
446.687	85.12
446.908	77.12
447.129	98.12
447.35	78.12
447.571	90.12
447.792	89.12
448.013	84.12
448.234	91.12
448.455	95.12
448.675	96.12
448.896	85.12
449.117	79.12
449.338	69.12
449.559	87.12
449.779	100.12
450	98.12
450.221	91.12
450.442	85.12
450.662	79.12
450.883	87.12
451.104	82.12
451.324	85.12
451.545	92.12
451.766	91.12
451.986	88.12
452.207	90.12
452.428	88.12
452.648	88.12
452.869	95.12
453.089	86.12
453.31	78.12
453.53	84.12
453.751	93.12
453.971	92.12
454.192	98.12
454.412	94.12
454.633	80.12
454.853	99.12
455.073	71.12
455.294	75.12
455.514	78.12
455.734	97.12
455.955	96.12
456.175	86.12
456.395	93.12
456.616	92.12
456.836	90.12
457.056	106.12
457.276	86.12
457.497	90.12
457.717	82.12
457.937	96.12
458.157	106.12
458.377	90.12
458.598	88.12
458.818	75.12
459.038	82.12
459.258	86.12
459.478	80.12
459.698	94.12
459.918	88.12
460.138	110.12
460.358	105.12
460.578	87.12
460.798	95.12
461.018	70.12
461.238	76.12
461.458	98.12
461.678	91.12
461.898	107.12
462.118	81.12
462.338	88.12
462.558	109.12
462.777	91.12
462.997	90.12
463.217	85.12
463.437	96.12
463.657	83.12
463.876	85.12
464.096	93.12
464.316	87.12
464.536	82.12
464.755	115.12
464.975	99.12
465.195	110.12
465.414	112.12
465.634	87.12
465.854	81.12
466.073	82.12
466.293	84.12
466.512	72.12
466.732	87.12
466.951	73.12
467.171	80.12
467.391	83.12
467.61	84.12
467.829	79.12
468.049	79.12
468.268	88.12
468.488	81.12
468.707	94.12
468.927	88.12
469.146	94.12
469.365	95.12
469.585	74.12
469.804	85.12
470.023	79.12
470.243	70.12
470.462	86.12
470.681	87.12
470.901	89.12
471.12	84.12
471.339	89.12
471.558	98.12
471.777	87.12
471.997	81.12
472.216	91.12
472.435	84.12
472.654	83.12
472.873	93.12
473.092	93.12
473.311	87.12
473.53	85.12
473.749	86.12
473.968	86.12
474.187	89.12
474.406	85.12
474.625	90.12
474.844	78.12
475.063	109.12
475.282	84.12
475.501	96.12
475.72	99.12
475.939	89.12
476.158	83.12
476.377	92.12
476.596	95.12
476.814	89.12
477.033	90.12
477.252	90.12
477.471	81.12
477.69	76.12
477.908	87.12
478.127	88.12
478.346	92.12
478.564	78.12
478.783	86.12
479.002	85.12
479.22	88.12
479.439	96.12
479.658	98.12
479.876	91.12
480.095	85.12
480.313	98.12
480.532	85.12
480.751	84.12
480.969	96.12
481.188	88.12
481.406	83.12
481.624	88.12
481.843	89.12
482.061	92.12
482.28	81.12
482.498	80.12
482.717	84.12
482.935	95.12
483.153	93.12
483.372	103.12
483.59	81.12
483.808	86.12
484.027	80.12
484.245	80.12
484.463	79.12
484.681	89.12
484.9	81.12
485.118	74.12
485.336	87.12
485.554	89.12
485.772	79.12
485.99	93.12
486.209	102.12
486.427	82.12
486.645	95.12
486.863	84.12
487.081	83.12
487.299	83.12
487.517	102.12
487.735	82.12
487.953	98.12
488.171	78.12
488.389	81.12
488.607	87.12
488.825	110.12
489.043	93.12
489.261	95.12
489.479	95.12
489.696	88.12
489.914	72.12
490.132	83.12
490.35	70.12
490.568	87.12
490.786	94.12
491.003	78.12
491.221	85.12
491.439	82.12
491.657	91.12
491.874	85.12
492.092	89.12
492.31	102.12
492.527	113.12
492.745	82.12
492.963	97.12
493.18	89.12
493.398	97.12
493.615	77.12
493.833	82.12
494.05	82.12
494.268	93.12
494.485	90.12
494.703	80.12
494.92	90.12
495.138	93.12
495.355	97.12
495.573	99.12
495.79	96.12
496.008	82.12
496.225	81.12
496.442	78.12
496.66	101.12
496.877	67.12
497.094	88.12
497.312	90.12
497.529	87.12
497.746	94.12
497.963	78.12
498.181	83.12
498.398	94.12
498.615	98.12
498.832	89.12
499.049	93.12
499.267	88.12
499.484	106.12
499.701	94.12
499.918	87.12
500.135	81.12
500.352	90.12
500.569	97.12
500.786	84.12
501.003	90.12
501.22	87.12
501.437	87.12
501.654	70.12
501.871	93.12
502.088	79.12
502.305	87.12
502.522	77.12
502.739	74.12
502.956	65.12
503.172	70.12
503.389	75.12
503.606	90.12
503.823	93.12
504.04	86.12
504.256	77.12
504.473	84.12
504.69	76.12
504.907	79.12
505.123	91.12
505.34	85.12
505.557	64.12
505.773	92.12
505.99	82.12
506.207	65.12
506.423	82.12
506.64	82.12
506.856	98.12
507.073	98.12
507.289	93.12
507.506	79.12
507.722	89.12
507.939	64.12
508.155	87.12
508.372	87.12
508.588	92.12
508.805	87.12
509.021	101.12
509.238	83.12
509.454	98.12
509.67	98.12
509.887	82.12
510.103	78.12
510.319	85.12
510.536	89.12
510.752	96.12
510.968	81.12
511.184	86.12
511.401	85.12
511.617	85.12
511.833	88.12
512.049	85.12
512.265	75.12
512.481	96.12
512.698	93.12
512.914	87.12
513.13	87.12
513.346	90.12
513.562	81.12
513.778	89.12
513.994	89.12
514.21	80.12
514.426	88.12
514.642	92.12
514.858	87.12
515.074	74.12
515.29	88.12
515.506	90.12
515.721	92.12
515.937	80.12
516.153	89.12
516.369	82.12
516.585	85.12
516.801	82.12
517.016	93.12
517.232	77.12
517.448	85.12
517.664	82.12
517.879	92.12
518.095	94.12
518.311	97.12
518.527	96.12
518.742	82.12
518.958	84.12
519.173	91.12
