Data from StA_HRD10591_006.txt Node
Date: Fri May 16 15:18:47 EDT 2025
User: Yrep
Spectrometer: HR+D1059
Trigger mode: 1
Integration Time (sec): 1.000000E-1
Scans to average: 1
Electric dark correction enabled: true
Nonlinearity correction enabled: false
Boxcar width: 0
XAxis mode: Wavelengths
Number of Pixels in Spectrum: 2048
>>>>>Begin Spectral Data<<<<<
223.165	-25.38
223.4	-25.38
223.635	-25.38
223.869	-22.38
224.104	-16.38
224.338	-16.38
224.573	-8.38
224.808	-8.38
225.042	-4.38
225.277	0.62
225.511	-9.38
225.746	-2.38
225.98	1.62
226.215	10.62
226.449	20.62
226.683	18.62
226.918	29.62
227.152	31.62
227.387	33.62
227.621	34.62
227.856	32.62
228.09	37.62
228.324	33.62
228.559	52.62
228.793	57.62
229.027	63.62
229.262	59.62
229.496	83.62
229.73	65.62
229.964	76.62
230.199	80.62
230.433	85.62
230.667	91.62
230.901	91.62
231.136	78.62
231.37	82.62
231.604	100.62
231.838	91.62
232.072	101.62
232.306	80.62
232.541	86.62
232.775	88.62
233.009	92.62
233.243	84.62
233.477	88.62
233.711	80.62
233.945	90.62
234.179	87.62
234.413	84.62
234.647	109.62
234.881	88.62
235.115	85.62
235.349	84.62
235.583	89.62
235.817	83.62
236.051	72.62
236.285	63.62
236.519	93.62
236.753	78.62
236.987	93.62
237.221	85.62
237.455	89.62
237.689	84.62
237.922	84.62
238.156	79.62
238.39	82.62
238.624	80.62
238.858	91.62
239.091	84.62
239.325	97.62
239.559	97.62
239.793	100.62
240.027	76.62
240.26	86.62
240.494	94.62
240.728	88.62
240.961	85.62
241.195	81.62
241.429	89.62
241.662	87.62
241.896	91.62
242.13	100.62
242.363	88.62
242.597	96.62
242.83	76.62
243.064	83.62
243.298	77.62
243.531	85.62
243.765	98.62
243.998	103.62
244.232	80.62
244.465	85.62
244.699	83.62
244.932	104.62
245.166	96.62
245.399	100.62
245.633	112.62
245.866	99.62
246.099	111.62
246.333	104.62
246.566	103.62
246.8	121.62
247.033	101.62
247.266	105.62
247.5	113.62
247.733	103.62
247.966	99.62
248.2	126.62
248.433	114.62
248.666	122.62
248.899	128.62
249.133	120.62
249.366	122.62
249.599	127.62
249.832	104.62
250.066	123.62
250.299	117.62
250.532	132.62
250.765	106.62
250.998	108.62
251.231	109.62
251.465	116.62
251.698	135.62
251.931	144.62
252.164	150.62
252.397	148.62
252.63	137.62
252.863	138.62
253.096	134.62
253.329	125.62
253.562	138.62
253.795	143.62
254.028	143.62
254.261	147.62
254.494	138.62
254.727	132.62
254.96	128.62
255.193	134.62
255.426	133.62
255.659	134.62
255.892	136.62
256.124	135.62
256.357	143.62
256.59	157.62
256.823	146.62
257.056	132.62
257.289	150.62
257.521	157.62
257.754	158.62
257.987	152.62
258.22	148.62
258.452	138.62
258.685	160.62
258.918	151.62
259.151	140.62
259.383	160.62
259.616	153.62
259.849	140.62
260.081	151.62
260.314	144.62
260.547	155.62
260.779	185.62
261.012	173.62
261.244	163.62
261.477	178.62
261.71	157.62
261.942	164.62
262.175	172.62
262.407	175.62
262.64	181.62
262.872	186.62
263.105	171.62
263.337	182.62
263.57	177.62
263.802	153.62
264.035	175.62
264.267	173.62
264.499	153.62
264.732	169.62
264.964	164.62
265.197	171.62
265.429	182.62
265.661	186.62
265.894	219.62
266.126	240.62
266.358	259.62
266.591	293.62
266.823	289.62
267.055	288.62
267.287	278.62
267.52	301.62
267.752	302.62
267.984	336.62
268.216	270.62
268.448	230.62
268.681	228.62
268.913	246.62
269.145	257.62
269.377	245.62
269.609	253.62
269.841	267.62
270.073	283.62
270.306	258.62
270.538	238.62
270.77	221.62
271.002	238.62
271.234	238.62
271.466	234.62
271.698	209.62
271.93	223.62
272.162	256.62
272.394	257.62
272.626	238.62
272.858	221.62
273.09	204.62
273.322	191.62
273.553	199.62
273.785	200.62
274.017	234.62
274.249	246.62
274.481	270.62
274.713	299.62
274.945	323.62
275.176	340.62
275.408	343.62
275.64	319.62
275.872	359.62
276.104	390.62
276.335	404.62
276.567	395.62
276.799	390.62
277.031	320.62
277.262	265.62
277.494	244.62
277.726	278.62
277.957	289.62
278.189	305.62
278.421	283.62
278.652	285.62
278.884	281.62
279.115	268.62
279.347	255.62
279.579	235.62
279.81	216.62
280.042	273.62
280.273	275.62
280.505	247.62
280.736	222.62
280.968	243.62
281.199	268.62
281.431	276.62
281.662	281.62
281.894	311.62
282.125	340.62
282.356	343.62
282.588	337.62
282.819	313.62
283.051	352.62
283.282	432.62
283.513	488.62
283.745	541.62
283.976	499.62
284.207	473.62
284.439	474.62
284.67	458.62
284.901	422.62
285.132	503.62
285.364	473.62
285.595	458.62
285.826	479.62
286.057	481.62
286.288	490.62
286.52	503.62
286.751	506.62
286.982	471.62
287.213	402.62
287.444	418.62
287.675	428.62
287.906	413.62
288.138	339.62
288.369	290.62
288.6	277.62
288.831	327.62
289.062	367.62
289.293	380.62
289.524	367.62
289.755	392.62
289.986	379.62
290.217	321.62
290.448	256.62
290.679	246.62
290.91	245.62
291.141	263.62
291.371	254.62
291.602	252.62
291.833	289.62
292.064	296.62
292.295	347.62
292.526	351.62
292.757	365.62
292.987	361.62
293.218	332.62
293.449	323.62
293.68	321.62
293.91	292.62
294.141	264.62
294.372	261.62
294.603	235.62
294.833	273.62
295.064	259.62
295.295	247.62
295.525	246.62
295.756	230.62
295.987	217.62
296.217	232.62
296.448	246.62
296.679	237.62
296.909	271.62
297.14	296.62
297.37	324.62
297.601	301.62
297.831	305.62
298.062	315.62
298.292	323.62
298.523	336.62
298.753	342.62
298.984	308.62
299.214	282.62
299.445	254.62
299.675	230.62
299.905	242.62
300.136	209.62
300.366	200.62
300.597	185.62
300.827	205.62
301.057	232.62
301.288	245.62
301.518	283.62
301.748	296.62
301.979	262.62
302.209	244.62
302.439	251.62
302.669	264.62
302.9	275.62
303.13	241.62
303.36	250.62
303.59	263.62
303.82	273.62
304.051	303.62
304.281	315.62
304.511	302.62
304.741	278.62
304.971	293.62
305.201	307.62
305.431	266.62
305.661	210.62
305.891	218.62
306.121	216.62
306.352	197.62
306.582	179.62
306.812	187.62
307.042	187.62
307.272	212.62
307.502	191.62
307.731	191.62
307.961	189.62
308.191	193.62
308.421	204.62
308.651	195.62
308.881	212.62
309.111	219.62
309.341	217.62
309.571	220.62
309.8	211.62
310.03	199.62
310.26	202.62
310.49	198.62
310.72	220.62
310.949	233.62
311.179	255.62
311.409	290.62
311.639	330.62
311.868	419.62
312.098	508.62
312.328	512.62
312.557	508.62
312.787	509.62
313.017	474.62
313.246	513.62
313.476	489.62
313.706	391.62
313.935	321.62
314.165	285.62
314.394	240.62
314.624	266.62
314.853	274.62
315.083	263.62
315.312	243.62
315.542	207.62
315.771	185.62
316.001	209.62
316.23	217.62
316.46	184.62
316.689	187.62
316.919	201.62
317.148	201.62
317.377	224.62
317.607	239.62
317.836	231.62
318.065	277.62
318.295	303.62
318.524	252.62
318.753	205.62
318.983	207.62
319.212	208.62
319.441	228.62
319.67	264.62
319.9	277.62
320.129	253.62
320.358	219.62
320.587	208.62
320.816	241.62
321.046	249.62
321.275	262.62
321.504	236.62
321.733	227.62
321.962	260.62
322.191	231.62
322.42	188.62
322.649	188.62
322.878	204.62
323.108	190.62
323.337	212.62
323.566	238.62
323.795	223.62
324.024	210.62
324.253	183.62
324.482	198.62
324.71	185.62
324.939	192.62
325.168	172.62
325.397	188.62
325.626	178.62
325.855	205.62
326.084	201.62
326.313	203.62
326.542	188.62
326.77	205.62
326.999	208.62
327.228	205.62
327.457	202.62
327.686	177.62
327.914	182.62
328.143	165.62
328.372	179.62
328.6	185.62
328.829	179.62
329.058	186.62
329.287	221.62
329.515	210.62
329.744	210.62
329.972	199.62
330.201	185.62
330.43	197.62
330.658	226.62
330.887	240.62
331.115	242.62
331.344	250.62
331.572	243.62
331.801	210.62
332.03	216.62
332.258	216.62
332.486	240.62
332.715	223.62
332.943	223.62
333.172	251.62
333.4	256.62
333.629	295.62
333.857	277.62
334.085	276.62
334.314	267.62
334.542	255.62
334.771	250.62
334.999	253.62
335.227	249.62
335.455	235.62
335.684	293.62
335.912	359.62
336.14	347.62
336.369	328.62
336.597	344.62
336.825	373.62
337.053	348.62
337.281	254.62
337.51	221.62
337.738	254.62
337.966	267.62
338.194	283.62
338.422	233.62
338.65	218.62
338.878	218.62
339.106	222.62
339.334	240.62
339.562	242.62
339.79	241.62
340.018	240.62
340.246	272.62
340.474	295.62
340.702	267.62
340.93	291.62
341.158	276.62
341.386	228.62
341.614	228.62
341.842	249.62
342.07	301.62
342.298	317.62
342.526	269.62
342.754	210.62
342.981	228.62
343.209	237.62
343.437	255.62
343.665	233.62
343.893	223.62
344.12	226.62
344.348	195.62
344.576	203.62
344.804	191.62
345.031	196.62
345.259	186.62
345.487	211.62
345.714	187.62
345.942	207.62
346.17	183.62
346.397	159.62
346.625	184.62
346.853	185.62
347.08	182.62
347.308	184.62
347.535	170.62
347.763	181.62
347.99	178.62
348.218	187.62
348.445	185.62
348.673	184.62
348.9	183.62
349.128	170.62
349.355	178.62
349.583	189.62
349.81	181.62
350.037	180.62
350.265	173.62
350.492	165.62
350.72	162.62
350.947	187.62
351.174	173.62
351.402	169.62
351.629	179.62
351.856	170.62
352.083	165.62
352.311	182.62
352.538	164.62
352.765	187.62
352.992	185.62
353.22	174.62
353.447	169.62
353.674	167.62
353.901	180.62
354.128	171.62
354.355	177.62
354.583	174.62
354.81	191.62
355.037	178.62
355.264	187.62
355.491	186.62
355.718	186.62
355.945	193.62
356.172	193.62
356.399	195.62
356.626	191.62
356.853	192.62
357.08	195.62
357.307	207.62
357.534	243.62
357.761	274.62
357.988	339.62
358.215	269.62
358.441	240.62
358.668	253.62
358.895	216.62
359.122	243.62
359.349	267.62
359.576	273.62
359.802	227.62
360.029	220.62
360.256	263.62
360.483	267.62
360.709	270.62
360.936	227.62
361.163	186.62
361.39	165.62
361.616	187.62
361.843	179.62
362.07	178.62
362.296	158.62
362.523	168.62
362.749	181.62
362.976	177.62
363.203	208.62
363.429	185.62
363.656	191.62
363.882	216.62
364.109	209.62
364.335	200.62
364.562	193.62
364.788	198.62
365.015	205.62
365.241	196.62
365.468	195.62
365.694	184.62
365.92	182.62
366.147	178.62
366.373	184.62
366.599	186.62
366.826	179.62
367.052	181.62
367.278	163.62
367.505	181.62
367.731	194.62
367.957	202.62
368.184	195.62
368.41	191.62
368.636	190.62
368.862	181.62
369.089	191.62
369.315	191.62
369.541	179.62
369.767	183.62
369.993	186.62
370.219	171.62
370.445	171.62
370.672	180.62
370.898	183.62
371.124	175.62
371.35	190.62
371.576	203.62
371.802	191.62
372.028	171.62
372.254	181.62
372.48	186.62
372.706	187.62
372.932	185.62
373.158	168.62
373.384	168.62
373.61	196.62
373.835	192.62
374.061	179.62
374.287	231.62
374.513	213.62
374.739	205.62
374.965	184.62
375.191	187.62
375.416	176.62
375.642	182.62
375.868	187.62
376.094	166.62
376.319	175.62
376.545	176.62
376.771	197.62
376.997	199.62
377.222	179.62
377.448	148.62
377.674	169.62
377.899	165.62
378.125	165.62
378.35	185.62
378.576	166.62
378.802	175.62
379.027	183.62
379.253	196.62
379.478	174.62
379.704	185.62
379.929	189.62
380.155	178.62
380.38	199.62
380.606	198.62
380.831	203.62
381.057	201.62
381.282	205.62
381.507	183.62
381.733	196.62
381.958	183.62
382.184	199.62
382.409	204.62
382.634	195.62
382.86	201.62
383.085	182.62
383.31	195.62
383.535	202.62
383.761	202.62
383.986	218.62
384.211	207.62
384.436	200.62
384.662	207.62
384.887	195.62
385.112	225.62
385.337	217.62
385.562	210.62
385.787	217.62
386.013	222.62
386.238	218.62
386.463	202.62
386.688	219.62
386.913	209.62
387.138	205.62
387.363	203.62
387.588	190.62
387.813	203.62
388.038	225.62
388.263	211.62
388.488	213.62
388.713	213.62
388.938	196.62
389.163	207.62
389.387	209.62
389.612	185.62
389.837	188.62
390.062	198.62
390.287	195.62
390.512	206.62
390.736	210.62
390.961	217.62
391.186	205.62
391.411	190.62
391.636	209.62
391.86	223.62
392.085	237.62
392.31	209.62
392.534	209.62
392.759	209.62
392.984	221.62
393.208	205.62
393.433	187.62
393.658	197.62
393.882	185.62
394.107	197.62
394.331	208.62
394.556	178.62
394.78	198.62
395.005	195.62
395.229	187.62
395.454	202.62
395.678	197.62
395.903	192.62
396.127	217.62
396.352	229.62
396.576	263.62
396.801	218.62
397.025	248.62
397.249	235.62
397.474	207.62
397.698	227.62
397.922	236.62
398.147	237.62
398.371	234.62
398.595	245.62
398.82	224.62
399.044	243.62
399.268	249.62
399.492	238.62
399.717	249.62
399.941	222.62
400.165	225.62
400.389	231.62
400.613	224.62
400.837	216.62
401.062	200.62
401.286	211.62
401.51	208.62
401.734	205.62
401.958	218.62
402.182	209.62
402.406	206.62
402.63	216.62
402.854	227.62
403.078	211.62
403.302	224.62
403.526	218.62
403.75	232.62
403.974	245.62
404.198	210.62
404.422	225.62
404.645	205.62
404.869	216.62
405.093	211.62
405.317	213.62
405.541	223.62
405.765	225.62
405.988	217.62
406.212	226.62
406.436	219.62
406.66	227.62
406.883	239.62
407.107	233.62
407.331	227.62
407.555	248.62
407.778	223.62
408.002	218.62
408.226	240.62
408.449	203.62
408.673	219.62
408.896	220.62
409.12	221.62
409.344	214.62
409.567	221.62
409.791	204.62
410.014	229.62
410.238	206.62
410.461	214.62
410.685	206.62
410.908	208.62
411.132	233.62
411.355	217.62
411.578	223.62
411.802	217.62
412.025	217.62
412.249	211.62
412.472	208.62
412.695	227.62
412.919	221.62
413.142	208.62
413.365	223.62
413.589	222.62
413.812	216.62
414.035	197.62
414.258	199.62
414.482	222.62
414.705	208.62
414.928	211.62
415.151	198.62
415.374	209.62
415.597	197.62
415.821	187.62
416.044	193.62
416.267	216.62
416.49	196.62
416.713	221.62
416.936	210.62
417.159	193.62
417.382	199.62
417.605	212.62
417.828	204.62
418.051	217.62
418.274	201.62
418.497	201.62
418.72	208.62
418.943	227.62
419.166	210.62
419.389	240.62
419.611	230.62
419.834	205.62
420.057	217.62
420.28	211.62
420.503	197.62
420.726	217.62
420.948	208.62
421.171	209.62
421.394	201.62
421.617	201.62
421.839	195.62
422.062	212.62
422.285	208.62
422.507	204.62
422.73	213.62
422.953	204.62
423.175	206.62
423.398	195.62
423.621	216.62
423.843	221.62
424.066	225.62
424.288	210.62
424.511	218.62
424.733	210.62
424.956	205.62
425.178	231.62
425.401	298.62
425.623	331.62
425.846	242.62
426.068	219.62
426.291	241.62
426.513	236.62
426.735	227.62
426.958	231.62
427.18	259.62
427.402	299.62
427.625	353.62
427.847	250.62
428.069	237.62
428.292	212.62
428.514	225.62
428.736	238.62
428.958	267.62
429.181	303.62
429.403	224.62
429.625	192.62
429.847	209.62
430.069	226.62
430.292	206.62
430.514	195.62
430.736	201.62
430.958	195.62
431.18	212.62
431.402	189.62
431.624	208.62
431.846	185.62
432.068	194.62
432.29	199.62
432.512	201.62
432.734	182.62
432.956	210.62
433.178	203.62
433.4	195.62
433.622	218.62
433.844	240.62
434.066	256.62
434.287	246.62
434.509	256.62
434.731	239.62
434.953	237.62
435.175	245.62
435.397	265.62
435.618	204.62
435.84	187.62
436.062	210.62
436.284	193.62
436.505	197.62
436.727	200.62
436.949	206.62
437.17	211.62
437.392	210.62
437.614	213.62
437.835	200.62
438.057	193.62
438.278	202.62
438.5	204.62
438.721	211.62
438.943	193.62
439.165	182.62
439.386	221.62
439.608	203.62
439.829	201.62
440.05	192.62
440.272	179.62
440.493	204.62
440.715	187.62
440.936	205.62
441.158	198.62
441.379	203.62
441.6	214.62
441.822	207.62
442.043	194.62
442.264	194.62
442.486	225.62
442.707	215.62
442.928	200.62
443.149	213.62
443.371	217.62
443.592	203.62
443.813	206.62
444.034	206.62
444.255	201.62
444.476	203.62
444.698	197.62
444.919	214.62
445.14	286.62
445.361	242.62
445.582	209.62
445.803	202.62
446.024	208.62
446.245	195.62
446.466	201.62
446.687	201.62
446.908	191.62
447.129	191.62
447.35	182.62
447.571	187.62
447.792	194.62
448.013	187.62
448.234	186.62
448.455	185.62
448.675	203.62
448.896	211.62
449.117	211.62
449.338	209.62
449.559	199.62
449.779	210.62
450	215.62
450.221	196.62
450.442	181.62
450.662	180.62
450.883	208.62
451.104	204.62
451.324	200.62
451.545	197.62
451.766	202.62
451.986	194.62
452.207	195.62
452.428	194.62
452.648	194.62
452.869	202.62
453.089	210.62
453.31	224.62
453.53	189.62
453.751	191.62
453.971	186.62
454.192	205.62
454.412	188.62
454.633	203.62
454.853	205.62
455.073	185.62
455.294	197.62
455.514	199.62
455.734	193.62
455.955	230.62
456.175	195.62
456.395	185.62
456.616	189.62
456.836	202.62
457.056	193.62
457.276	198.62
457.497	189.62
457.717	176.62
457.937	197.62
458.157	192.62
458.377	183.62
458.598	194.62
458.818	188.62
459.038	212.62
459.258	210.62
459.478	220.62
459.698	229.62
459.918	201.62
460.138	223.62
460.358	224.62
460.578	223.62
460.798	197.62
461.018	231.62
461.238	227.62
461.458	237.62
461.678	240.62
461.898	270.62
462.118	223.62
462.338	240.62
462.558	215.62
462.777	240.62
462.997	247.62
463.217	251.62
463.437	231.62
463.657	235.62
463.876	237.62
464.096	241.62
464.316	243.62
464.536	241.62
464.755	266.62
464.975	239.62
465.195	247.62
465.414	253.62
465.634	205.62
465.854	204.62
466.073	195.62
466.293	187.62
466.512	215.62
466.732	211.62
466.951	218.62
467.171	212.62
467.391	194.62
467.61	184.62
467.829	200.62
468.049	194.62
468.268	185.62
468.488	185.62
468.707	180.62
468.927	197.62
469.146	203.62
469.365	199.62
469.585	192.62
469.804	192.62
470.023	206.62
470.243	207.62
470.462	188.62
470.681	190.62
470.901	205.62
471.12	181.62
471.339	201.62
471.558	201.62
471.777	216.62
471.997	213.62
472.216	208.62
472.435	185.62
472.654	208.62
472.873	196.62
473.092	210.62
473.311	195.62
473.53	193.62
473.749	213.62
473.968	199.62
474.187	190.62
474.406	199.62
474.625	197.62
474.844	198.62
475.063	204.62
475.282	187.62
475.501	225.62
475.72	225.62
475.939	229.62
476.158	181.62
476.377	206.62
476.596	200.62
476.814	207.62
477.033	187.62
477.252	193.62
477.471	193.62
477.69	204.62
477.908	207.62
478.127	208.62
478.346	226.62
478.564	210.62
478.783	201.62
479.002	229.62
479.22	223.62
479.439	242.62
479.658	224.62
479.876	231.62
480.095	230.62
480.313	229.62
480.532	234.62
480.751	207.62
480.969	226.62
481.188	219.62
481.406	223.62
481.624	200.62
481.843	222.62
482.061	208.62
482.28	207.62
482.498	232.62
482.717	226.62
482.935	234.62
483.153	227.62
483.372	217.62
483.59	217.62
483.808	207.62
484.027	217.62
484.245	210.62
484.463	221.62
484.681	224.62
484.9	244.62
485.118	221.62
485.336	228.62
485.554	224.62
485.772	205.62
485.99	218.62
486.209	230.62
486.427	227.62
486.645	235.62
486.863	237.62
487.081	231.62
487.299	251.62
487.517	246.62
487.735	240.62
487.953	217.62
488.171	235.62
488.389	216.62
488.607	242.62
488.825	265.62
489.043	243.62
489.261	225.62
489.479	209.62
489.696	210.62
489.914	213.62
490.132	208.62
490.35	263.62
490.568	251.62
490.786	226.62
491.003	225.62
491.221	238.62
491.439	232.62
491.657	203.62
491.874	223.62
492.092	241.62
492.31	273.62
492.527	290.62
492.745	250.62
492.963	231.62
493.18	234.62
493.398	250.62
493.615	245.62
493.833	255.62
494.05	250.62
494.268	252.62
494.485	240.62
494.703	234.62
494.92	225.62
495.138	245.62
495.355	253.62
495.573	260.62
495.79	234.62
496.008	251.62
496.225	253.62
496.442	239.62
496.66	268.62
496.877	248.62
497.094	276.62
497.312	248.62
497.529	247.62
497.746	247.62
497.963	238.62
498.181	255.62
498.398	288.62
498.615	283.62
498.832	317.62
499.049	293.62
499.267	292.62
499.484	326.62
499.701	320.62
499.918	345.62
500.135	355.62
500.352	379.62
500.569	379.62
500.786	352.62
501.003	347.62
501.22	331.62
501.437	327.62
501.654	302.62
501.871	306.62
502.088	288.62
502.305	278.62
502.522	269.62
502.739	274.62
502.956	261.62
503.172	257.62
503.389	263.62
503.606	241.62
