Data from StA_HRD10591_095.txt Node
Date: Fri May 16 15:19:30 EDT 2025
User: Yrep
Spectrometer: HR+D1059
Trigger mode: 1
Integration Time (sec): 1.000000E-1
Scans to average: 1
Electric dark correction enabled: true
Nonlinearity correction enabled: false
Boxcar width: 0
XAxis mode: Wavelengths
Number of Pixels in Spectrum: 2048
>>>>>Begin Spectral Data<<<<<
223.165	-19.06
223.4	-19.06
223.635	-19.06
223.869	-6.06
224.104	-12.06
224.338	1.94
224.573	-23.06
224.808	-18.06
225.042	-20.06
225.277	-18.06
225.511	-6.06
225.746	2.94
225.98	14.94
226.215	17.94
226.449	10.94
226.683	18.94
226.918	23.94
227.152	30.94
227.387	34.94
227.621	45.94
227.856	49.94
228.09	47.94
228.324	53.94
228.559	44.94
228.793	65.94
229.027	65.94
229.262	74.94
229.496	68.94
229.73	71.94
229.964	71.94
230.199	90.94
230.433	71.94
230.667	75.94
230.901	73.94
231.136	79.94
231.37	75.94
231.604	77.94
231.838	81.94
232.072	87.94
232.306	92.94
232.541	76.94
232.775	78.94
233.009	72.94
233.243	80.94
233.477	77.94
233.711	73.94
233.945	72.94
234.179	76.94
234.413	85.94
234.647	82.94
234.881	87.94
235.115	89.94
235.349	77.94
235.583	83.94
235.817	75.94
236.051	93.94
236.285	84.94
236.519	91.94
236.753	91.94
236.987	77.94
237.221	57.94
237.455	85.94
237.689	73.94
237.922	94.94
238.156	82.94
238.39	75.94
238.624	70.94
238.858	78.94
239.091	62.94
239.325	90.94
239.559	89.94
239.793	72.94
240.027	79.94
240.26	65.94
240.494	79.94
240.728	77.94
240.961	75.94
241.195	81.94
241.429	74.94
241.662	81.94
241.896	54.94
242.13	73.94
242.363	81.94
242.597	69.94
242.83	84.94
243.064	79.94
243.298	83.94
243.531	80.94
243.765	89.94
243.998	81.94
244.232	74.94
244.465	63.94
244.699	85.94
244.932	80.94
245.166	78.94
245.399	85.94
245.633	77.94
245.866	82.94
246.099	66.94
246.333	81.94
246.566	83.94
246.8	91.94
247.033	75.94
247.266	83.94
247.5	77.94
247.733	76.94
247.966	66.94
248.2	73.94
248.433	69.94
248.666	74.94
248.899	76.94
249.133	68.94
249.366	74.94
249.599	66.94
249.832	85.94
250.066	77.94
250.299	84.94
250.532	91.94
250.765	71.94
250.998	82.94
251.231	66.94
251.465	68.94
251.698	85.94
251.931	73.94
252.164	86.94
252.397	80.94
252.63	75.94
252.863	82.94
253.096	81.94
253.329	72.94
253.562	91.94
253.795	81.94
254.028	74.94
254.261	81.94
254.494	82.94
254.727	82.94
254.96	74.94
255.193	83.94
255.426	65.94
255.659	76.94
255.892	83.94
256.124	74.94
256.357	75.94
256.59	94.94
256.823	72.94
257.056	66.94
257.289	75.94
257.521	77.94
257.754	92.94
257.987	86.94
258.22	77.94
258.452	69.94
258.685	84.94
258.918	77.94
259.151	91.94
259.383	63.94
259.616	92.94
259.849	75.94
260.081	90.94
260.314	87.94
260.547	72.94
260.779	87.94
261.012	74.94
261.244	71.94
261.477	93.94
261.71	80.94
261.942	77.94
262.175	83.94
262.407	79.94
262.64	88.94
262.872	79.94
263.105	77.94
263.337	94.94
263.57	79.94
263.802	95.94
264.035	79.94
264.267	83.94
264.499	79.94
264.732	82.94
264.964	97.94
265.197	80.94
265.429	89.94
265.661	95.94
265.894	84.94
266.126	88.94
266.358	80.94
266.591	82.94
266.823	80.94
267.055	95.94
267.287	92.94
267.52	87.94
267.752	88.94
267.984	82.94
268.216	80.94
268.448	86.94
268.681	101.94
268.913	75.94
269.145	88.94
269.377	89.94
269.609	67.94
269.841	80.94
270.073	78.94
270.306	82.94
270.538	71.94
270.77	75.94
271.002	78.94
271.234	90.94
271.466	90.94
271.698	91.94
271.93	82.94
272.162	89.94
272.394	85.94
272.626	72.94
272.858	83.94
273.09	85.94
273.322	76.94
273.553	90.94
273.785	79.94
274.017	96.94
274.249	87.94
274.481	85.94
274.713	88.94
274.945	82.94
275.176	84.94
275.408	87.94
275.64	80.94
275.872	94.94
276.104	92.94
276.335	73.94
276.567	81.94
276.799	96.94
277.031	92.94
277.262	100.94
277.494	93.94
277.726	82.94
277.957	101.94
278.189	85.94
278.421	90.94
278.652	79.94
278.884	89.94
279.115	79.94
279.347	69.94
279.579	94.94
279.81	82.94
280.042	82.94
280.273	83.94
280.505	89.94
280.736	74.94
280.968	97.94
281.199	101.94
281.431	77.94
281.662	79.94
281.894	76.94
282.125	80.94
282.356	81.94
282.588	82.94
282.819	85.94
283.051	77.94
283.282	92.94
283.513	78.94
283.745	88.94
283.976	84.94
284.207	67.94
284.439	98.94
284.67	95.94
284.901	101.94
285.132	91.94
285.364	85.94
285.595	94.94
285.826	81.94
286.057	83.94
286.288	103.94
286.52	92.94
286.751	71.94
286.982	93.94
287.213	92.94
287.444	92.94
287.675	90.94
287.906	92.94
288.138	67.94
288.369	69.94
288.6	83.94
288.831	78.94
289.062	79.94
289.293	78.94
289.524	103.94
289.755	87.94
289.986	87.94
290.217	74.94
290.448	89.94
290.679	76.94
290.91	78.94
291.141	89.94
291.371	79.94
291.602	97.94
291.833	85.94
292.064	94.94
292.295	81.94
292.526	97.94
292.757	78.94
292.987	82.94
293.218	75.94
293.449	79.94
293.68	87.94
293.91	78.94
294.141	91.94
294.372	83.94
294.603	78.94
294.833	84.94
295.064	73.94
295.295	83.94
295.525	83.94
295.756	89.94
295.987	101.94
296.217	90.94
296.448	89.94
296.679	90.94
296.909	99.94
297.14	94.94
297.37	86.94
297.601	78.94
297.831	82.94
298.062	89.94
298.292	82.94
298.523	97.94
298.753	91.94
298.984	87.94
299.214	96.94
299.445	85.94
299.675	87.94
299.905	89.94
300.136	93.94
300.366	87.94
300.597	86.94
300.827	98.94
301.057	89.94
301.288	90.94
301.518	88.94
301.748	101.94
301.979	127.94
302.209	103.94
302.439	90.94
302.669	82.94
302.9	85.94
303.13	85.94
303.36	92.94
303.59	80.94
303.82	88.94
304.051	87.94
304.281	90.94
304.511	89.94
304.741	106.94
304.971	86.94
305.201	81.94
305.431	90.94
305.661	88.94
305.891	86.94
306.121	92.94
306.352	83.94
306.582	93.94
306.812	83.94
307.042	80.94
307.272	65.94
307.502	84.94
307.731	96.94
307.961	92.94
308.191	94.94
308.421	94.94
308.651	97.94
308.881	85.94
309.111	86.94
309.341	73.94
309.571	75.94
309.8	77.94
310.03	83.94
310.26	87.94
310.49	86.94
310.72	74.94
310.949	78.94
311.179	82.94
311.409	74.94
311.639	67.94
311.868	94.94
312.098	80.94
312.328	101.94
312.557	81.94
312.787	79.94
313.017	86.94
313.246	83.94
313.476	97.94
313.706	81.94
313.935	92.94
314.165	87.94
314.394	74.94
314.624	78.94
314.853	88.94
315.083	86.94
315.312	93.94
315.542	88.94
315.771	82.94
316.001	77.94
316.23	85.94
316.46	85.94
316.689	80.94
316.919	75.94
317.148	80.94
317.377	87.94
317.607	97.94
317.836	110.94
318.065	86.94
318.295	93.94
318.524	78.94
318.753	97.94
318.983	85.94
319.212	86.94
319.441	83.94
319.67	83.94
319.9	81.94
320.129	69.94
320.358	92.94
320.587	86.94
320.816	91.94
321.046	81.94
321.275	76.94
321.504	78.94
321.733	88.94
321.962	69.94
322.191	98.94
322.42	88.94
322.649	83.94
322.878	88.94
323.108	94.94
323.337	90.94
323.566	90.94
323.795	86.94
324.024	96.94
324.253	85.94
324.482	98.94
324.71	82.94
324.939	96.94
325.168	70.94
325.397	105.94
325.626	76.94
325.855	77.94
326.084	94.94
326.313	84.94
326.542	93.94
326.77	86.94
326.999	93.94
327.228	84.94
327.457	78.94
327.686	75.94
327.914	86.94
328.143	85.94
328.372	87.94
328.6	86.94
328.829	84.94
329.058	93.94
329.287	80.94
329.515	77.94
329.744	79.94
329.972	78.94
330.201	88.94
330.43	96.94
330.658	96.94
330.887	96.94
331.115	77.94
331.344	80.94
331.572	89.94
331.801	81.94
332.03	85.94
332.258	92.94
332.486	76.94
332.715	87.94
332.943	91.94
333.172	96.94
333.4	79.94
333.629	83.94
333.857	82.94
334.085	81.94
334.314	88.94
334.542	101.94
334.771	103.94
334.999	80.94
335.227	85.94
335.455	103.94
335.684	95.94
335.912	86.94
336.14	85.94
336.369	82.94
336.597	91.94
336.825	92.94
337.053	100.94
337.281	104.94
337.51	92.94
337.738	80.94
337.966	88.94
338.194	87.94
338.422	73.94
338.65	91.94
338.878	86.94
339.106	97.94
339.334	106.94
339.562	87.94
339.79	89.94
340.018	79.94
340.246	80.94
340.474	83.94
340.702	82.94
340.93	86.94
341.158	90.94
341.386	81.94
341.614	94.94
341.842	92.94
342.07	72.94
342.298	85.94
342.526	98.94
342.754	90.94
342.981	79.94
343.209	94.94
343.437	95.94
343.665	86.94
343.893	87.94
344.12	86.94
344.348	92.94
344.576	81.94
344.804	101.94
345.031	91.94
345.259	86.94
345.487	96.94
345.714	82.94
345.942	75.94
346.17	71.94
346.397	81.94
346.625	89.94
346.853	80.94
347.08	94.94
347.308	83.94
347.535	98.94
347.763	89.94
347.99	88.94
348.218	78.94
348.445	80.94
348.673	81.94
348.9	86.94
349.128	95.94
349.355	93.94
349.583	93.94
349.81	74.94
350.037	73.94
350.265	80.94
350.492	88.94
350.72	77.94
350.947	85.94
351.174	77.94
351.402	88.94
351.629	88.94
351.856	94.94
352.083	87.94
352.311	79.94
352.538	72.94
352.765	89.94
352.992	105.94
353.22	84.94
353.447	74.94
353.674	96.94
353.901	66.94
354.128	94.94
354.355	87.94
354.583	76.94
354.81	99.94
355.037	87.94
355.264	86.94
355.491	85.94
355.718	96.94
355.945	82.94
356.172	77.94
356.399	96.94
356.626	95.94
356.853	93.94
357.08	99.94
357.307	92.94
357.534	99.94
357.761	110.94
357.988	129.94
358.215	101.94
358.441	92.94
358.668	91.94
358.895	104.94
359.122	97.94
359.349	113.94
359.576	93.94
359.802	84.94
360.029	89.94
360.256	105.94
360.483	123.94
360.709	110.94
360.936	93.94
361.163	88.94
361.39	89.94
361.616	88.94
361.843	90.94
362.07	91.94
362.296	84.94
362.523	94.94
362.749	93.94
362.976	88.94
363.203	86.94
363.429	73.94
363.656	92.94
363.882	91.94
364.109	104.94
364.335	83.94
364.562	82.94
364.788	84.94
365.015	95.94
365.241	93.94
365.468	97.94
365.694	73.94
365.92	75.94
366.147	85.94
366.373	78.94
366.599	98.94
366.826	91.94
367.052	82.94
367.278	79.94
367.505	71.94
367.731	81.94
367.957	90.94
368.184	85.94
368.41	80.94
368.636	89.94
368.862	88.94
369.089	79.94
369.315	93.94
369.541	90.94
369.767	71.94
369.993	99.94
370.219	79.94
370.445	82.94
370.672	87.94
370.898	81.94
371.124	96.94
371.35	86.94
371.576	76.94
371.802	86.94
372.028	85.94
372.254	86.94
372.48	80.94
372.706	90.94
372.932	97.94
373.158	89.94
373.384	99.94
373.61	87.94
373.835	91.94
374.061	76.94
374.287	107.94
374.513	104.94
374.739	94.94
374.965	101.94
375.191	92.94
375.416	80.94
375.642	90.94
375.868	101.94
376.094	79.94
376.319	78.94
376.545	86.94
376.771	83.94
376.997	77.94
377.222	79.94
377.448	95.94
377.674	66.94
377.899	83.94
378.125	86.94
378.35	89.94
378.576	85.94
378.802	81.94
379.027	75.94
379.253	90.94
379.478	82.94
379.704	92.94
379.929	69.94
380.155	90.94
380.38	84.94
380.606	93.94
380.831	82.94
381.057	98.94
381.282	99.94
381.507	79.94
381.733	92.94
381.958	86.94
382.184	92.94
382.409	85.94
382.634	89.94
382.86	88.94
383.085	96.94
383.31	88.94
383.535	96.94
383.761	85.94
383.986	82.94
384.211	81.94
384.436	77.94
384.662	92.94
384.887	91.94
385.112	102.94
385.337	102.94
385.562	105.94
385.787	93.94
386.013	90.94
386.238	79.94
386.463	77.94
386.688	92.94
386.913	67.94
387.138	81.94
387.363	97.94
387.588	95.94
387.813	105.94
388.038	86.94
388.263	77.94
388.488	87.94
388.713	108.94
388.938	84.94
389.163	74.94
389.387	94.94
389.612	83.94
389.837	86.94
390.062	81.94
390.287	97.94
390.512	78.94
390.736	95.94
390.961	88.94
391.186	96.94
391.411	78.94
391.636	97.94
391.86	89.94
392.085	98.94
392.31	88.94
392.534	86.94
392.759	94.94
392.984	88.94
393.208	89.94
393.433	87.94
393.658	86.94
393.882	95.94
394.107	105.94
394.331	89.94
394.556	84.94
394.78	101.94
395.005	89.94
395.229	77.94
395.454	82.94
395.678	83.94
395.903	86.94
396.127	96.94
396.352	102.94
396.576	101.94
396.801	87.94
397.025	95.94
397.249	104.94
397.474	95.94
397.698	97.94
397.922	92.94
398.147	84.94
398.371	91.94
398.595	102.94
398.82	92.94
399.044	79.94
399.268	88.94
399.492	86.94
399.717	87.94
399.941	70.94
400.165	89.94
400.389	89.94
400.613	73.94
400.837	78.94
401.062	85.94
401.286	86.94
401.51	85.94
401.734	90.94
401.958	68.94
402.182	87.94
402.406	73.94
402.63	83.94
402.854	100.94
403.078	91.94
403.302	81.94
403.526	80.94
403.75	80.94
403.974	86.94
404.198	81.94
404.422	74.94
404.645	85.94
404.869	95.94
405.093	102.94
405.317	89.94
405.541	88.94
405.765	90.94
405.988	82.94
406.212	90.94
406.436	69.94
406.66	91.94
406.883	85.94
407.107	73.94
407.331	91.94
407.555	92.94
407.778	71.94
408.002	81.94
408.226	79.94
408.449	86.94
408.673	84.94
408.896	87.94
409.12	89.94
409.344	76.94
409.567	87.94
409.791	93.94
410.014	82.94
410.238	87.94
410.461	81.94
410.685	81.94
410.908	86.94
411.132	81.94
411.355	95.94
411.578	90.94
411.802	73.94
412.025	75.94
412.249	95.94
412.472	95.94
412.695	102.94
412.919	89.94
413.142	87.94
413.365	90.94
413.589	95.94
413.812	73.94
414.035	84.94
414.258	90.94
414.482	82.94
414.705	83.94
414.928	92.94
415.151	77.94
415.374	82.94
415.597	81.94
415.821	86.94
416.044	90.94
416.267	71.94
416.49	83.94
416.713	81.94
416.936	85.94
417.159	108.94
417.382	85.94
417.605	83.94
417.828	77.94
418.051	73.94
418.274	82.94
418.497	83.94
418.72	77.94
418.943	91.94
419.166	79.94
419.389	90.94
419.611	73.94
419.834	89.94
420.057	88.94
420.28	75.94
420.503	78.94
420.726	89.94
420.948	91.94
421.171	71.94
421.394	88.94
421.617	88.94
421.839	76.94
422.062	85.94
422.285	73.94
422.507	87.94
422.73	79.94
422.953	82.94
423.175	71.94
423.398	88.94
423.621	95.94
423.843	87.94
424.066	73.94
424.288	91.94
424.511	80.94
424.733	92.94
424.956	92.94
425.178	99.94
425.401	122.94
425.623	141.94
425.846	74.94
426.068	83.94
426.291	74.94
426.513	87.94
426.735	90.94
426.958	91.94
427.18	106.94
427.402	113.94
427.625	155.94
427.847	94.94
428.069	85.94
428.292	90.94
428.514	96.94
428.736	105.94
428.958	117.94
429.181	136.94
429.403	94.94
429.625	83.94
429.847	91.94
430.069	87.94
430.292	79.94
430.514	83.94
430.736	96.94
430.958	73.94
431.18	78.94
431.402	81.94
431.624	98.94
431.846	88.94
432.068	72.94
432.29	86.94
432.512	94.94
432.734	72.94
432.956	91.94
433.178	87.94
433.4	83.94
433.622	89.94
433.844	101.94
434.066	121.94
434.287	98.94
434.509	103.94
434.731	99.94
434.953	94.94
435.175	96.94
435.397	103.94
435.618	89.94
435.84	84.94
436.062	87.94
436.284	89.94
436.505	81.94
436.727	101.94
436.949	89.94
437.17	91.94
437.392	89.94
437.614	99.94
437.835	80.94
438.057	91.94
438.278	87.94
438.5	98.94
438.721	95.94
438.943	70.94
439.165	84.94
439.386	90.94
439.608	71.94
439.829	89.94
440.05	94.94
440.272	85.94
440.493	81.94
440.715	85.94
440.936	80.94
441.158	80.94
441.379	91.94
441.6	87.94
441.822	70.94
442.043	82.94
442.264	95.94
442.486	88.94
442.707	85.94
442.928	87.94
443.149	91.94
443.371	81.94
443.592	73.94
443.813	78.94
444.034	78.94
444.255	84.94
444.476	86.94
444.698	73.94
444.919	85.94
445.14	167.94
445.361	118.94
445.582	95.94
445.803	82.94
446.024	85.94
446.245	95.94
446.466	73.94
446.687	93.94
446.908	93.94
447.129	89.94
447.35	83.94
447.571	80.94
447.792	76.94
448.013	92.94
448.234	86.94
448.455	87.94
448.675	69.94
448.896	90.94
449.117	85.94
449.338	94.94
449.559	93.94
449.779	99.94
450	85.94
450.221	97.94
450.442	103.94
450.662	81.94
450.883	89.94
451.104	86.94
451.324	82.94
451.545	78.94
451.766	96.94
451.986	85.94
452.207	90.94
452.428	97.94
452.648	86.94
452.869	104.94
453.089	79.94
453.31	97.94
453.53	81.94
453.751	108.94
453.971	82.94
454.192	103.94
454.412	89.94
454.633	95.94
454.853	91.94
455.073	90.94
455.294	82.94
455.514	83.94
455.734	71.94
455.955	87.94
456.175	88.94
456.395	90.94
456.616	103.94
456.836	96.94
457.056	85.94
457.276	89.94
457.497	87.94
457.717	92.94
457.937	85.94
458.157	76.94
458.377	98.94
458.598	76.94
458.818	97.94
459.038	81.94
459.258	80.94
459.478	82.94
459.698	84.94
459.918	79.94
460.138	90.94
460.358	106.94
460.578	89.94
460.798	73.94
461.018	90.94
461.238	92.94
461.458	96.94
461.678	100.94
461.898	96.94
462.118	87.94
462.338	81.94
462.558	85.94
462.777	95.94
462.997	82.94
463.217	85.94
463.437	75.94
463.657	80.94
463.876	84.94
464.096	93.94
464.316	99.94
464.536	90.94
464.755	113.94
464.975	99.94
465.195	107.94
465.414	113.94
465.634	89.94
465.854	89.94
466.073	77.94
466.293	88.94
466.512	87.94
466.732	102.94
466.951	101.94
467.171	67.94
467.391	95.94
467.61	77.94
467.829	86.94
468.049	92.94
468.268	78.94
468.488	86.94
468.707	82.94
468.927	95.94
469.146	82.94
469.365	82.94
469.585	77.94
469.804	82.94
470.023	98.94
470.243	98.94
470.462	81.94
470.681	94.94
470.901	85.94
471.12	77.94
471.339	81.94
471.558	78.94
471.777	86.94
471.997	98.94
472.216	87.94
472.435	81.94
472.654	79.94
472.873	77.94
473.092	93.94
473.311	90.94
473.53	76.94
473.749	85.94
473.968	85.94
474.187	81.94
474.406	88.94
474.625	78.94
474.844	104.94
475.063	81.94
475.282	85.94
475.501	79.94
475.72	106.94
475.939	78.94
476.158	89.94
476.377	83.94
476.596	96.94
476.814	79.94
477.033	83.94
477.252	96.94
477.471	77.94
477.69	86.94
477.908	86.94
478.127	94.94
478.346	73.94
478.564	101.94
478.783	85.94
479.002	89.94
479.22	80.94
479.439	85.94
479.658	83.94
479.876	88.94
480.095	74.94
480.313	84.94
480.532	95.94
480.751	79.94
480.969	74.94
481.188	83.94
481.406	65.94
481.624	75.94
481.843	78.94
482.061	93.94
482.28	73.94
482.498	80.94
482.717	91.94
482.935	87.94
483.153	92.94
483.372	75.94
483.59	75.94
483.808	91.94
484.027	79.94
484.245	93.94
484.463	77.94
484.681	102.94
484.9	85.94
485.118	90.94
485.336	85.94
485.554	91.94
485.772	86.94
485.99	78.94
486.209	88.94
486.427	77.94
486.645	81.94
486.863	73.94
487.081	88.94
487.299	86.94
487.517	71.94
487.735	73.94
487.953	87.94
488.171	79.94
488.389	88.94
488.607	96.94
488.825	89.94
489.043	90.94
489.261	72.94
489.479	76.94
489.696	82.94
489.914	82.94
490.132	89.94
490.35	92.94
490.568	99.94
490.786	80.94
491.003	76.94
491.221	80.94
491.439	85.94
491.657	87.94
491.874	96.94
492.092	97.94
492.31	114.94
492.527	99.94
492.745	79.94
492.963	95.94
493.18	92.94
493.398	95.94
493.615	99.94
493.833	83.94
494.05	92.94
494.268	120.94
494.485	111.94
494.703	89.94
494.92	85.94
495.138	92.94
495.355	90.94
495.573	95.94
495.79	102.94
496.008	69.94
496.225	82.94
496.442	76.94
496.66	94.94
496.877	80.94
497.094	83.94
497.312	84.94
497.529	79.94
497.746	86.94
497.963	92.94
498.181	77.94
498.398	86.94
498.615	103.94
498.832	91.94
499.049	90.94
499.267	89.94
499.484	98.94
499.701	95.94
499.918	77.94
500.135	78.94
500.352	77.94
500.569	77.94
500.786	86.94
501.003	79.94
501.22	76.94
501.437	83.94
501.654	94.94
501.871	94.94
502.088	88.94
502.305	90.94
502.522	89.94
502.739	89.94
502.956	70.94
503.172	85.94
503.389	83.94
503.606	82.94
503.823	84.94
504.04	74.94
504.256	69.94
504.473	74.94
504.69	101.94
504.907	83.94
505.123	69.94
505.34	66.94
505.557	79.94
505.773	89.94
505.99	89.94
506.207	79.94
506.423	89.94
506.64	77.94
506.856	86.94
507.073	78.94
507.289	88.94
507.506	92.94
507.722	85.94
507.939	85.94
508.155	85.94
508.372	87.94
508.588	98.94
508.805	81.94
509.021	96.94
509.238	93.94
509.454	92.94
509.67	85.94
509.887	86.94
510.103	84.94
510.319	85.94
510.536	89.94
510.752	76.94
510.968	90.94
511.184	101.94
511.401	83.94
511.617	93.94
511.833	81.94
512.049	84.94
512.265	87.94
512.481	73.94
512.698	87.94
512.914	84.94
513.13	94.94
513.346	91.94
513.562	77.94
513.778	81.94
513.994	80.94
514.21	94.94
514.426	94.94
514.642	78.94
514.858	82.94
515.074	86.94
515.29	91.94
515.506	96.94
515.721	82.94
515.937	88.94
516.153	78.94
516.369	77.94
516.585	85.94
516.801	87.94
517.016	82.94
517.232	85.94
517.448	95.94
517.664	83.94
517.879	94.94
518.095	91.94
518.311	97.94
518.527	89.94
518.742	79.94
518.958	86.94
519.173	74.94
