Data from StA_HRD10591_024.txt Node
Date: Fri May 16 15:18:56 EDT 2025
User: Yrep
Spectrometer: HR+D1059
Trigger mode: 1
Integration Time (sec): 1.000000E-1
Scans to average: 1
Electric dark correction enabled: true
Nonlinearity correction enabled: false
Boxcar width: 0
XAxis mode: Wavelengths
Number of Pixels in Spectrum: 2048
>>>>>Begin Spectral Data<<<<<
223.165	-9.19
223.4	-9.19
223.635	-9.19
223.869	-24.19
224.104	-22.19
224.338	-18.19
224.573	-11.19
224.808	-31.19
225.042	-3.19
225.277	15.81
225.511	-3.19
225.746	7.81
225.98	8.81
226.215	6.81
226.449	14.81
226.683	15.81
226.918	15.81
227.152	36.81
227.387	47.81
227.621	29.81
227.856	48.81
228.09	45.81
228.324	51.81
228.559	66.81
228.793	67.81
229.027	69.81
229.262	70.81
229.496	62.81
229.73	77.81
229.964	57.81
230.199	73.81
230.433	74.81
230.667	82.81
230.901	74.81
231.136	79.81
231.37	79.81
231.604	74.81
231.838	85.81
232.072	69.81
232.306	85.81
232.541	78.81
232.775	76.81
233.009	85.81
233.243	89.81
233.477	92.81
233.711	83.81
233.945	71.81
234.179	81.81
234.413	74.81
234.647	69.81
234.881	85.81
235.115	76.81
235.349	78.81
235.583	81.81
235.817	81.81
236.051	89.81
236.285	77.81
236.519	78.81
236.753	86.81
236.987	90.81
237.221	77.81
237.455	80.81
237.689	80.81
237.922	66.81
238.156	72.81
238.39	59.81
238.624	73.81
238.858	57.81
239.091	64.81
239.325	71.81
239.559	75.81
239.793	68.81
240.027	75.81
240.26	76.81
240.494	76.81
240.728	68.81
240.961	77.81
241.195	76.81
241.429	73.81
241.662	77.81
241.896	86.81
242.13	81.81
242.363	75.81
242.597	80.81
242.83	84.81
243.064	64.81
243.298	72.81
243.531	75.81
243.765	64.81
243.998	68.81
244.232	86.81
244.465	91.81
244.699	78.81
244.932	66.81
245.166	63.81
245.399	80.81
245.633	76.81
245.866	66.81
246.099	73.81
246.333	86.81
246.566	62.81
246.8	83.81
247.033	78.81
247.266	83.81
247.5	74.81
247.733	85.81
247.966	62.81
248.2	71.81
248.433	76.81
248.666	87.81
248.899	79.81
249.133	75.81
249.366	77.81
249.599	70.81
249.832	75.81
250.066	78.81
250.299	73.81
250.532	78.81
250.765	69.81
250.998	76.81
251.231	72.81
251.465	82.81
251.698	75.81
251.931	79.81
252.164	92.81
252.397	75.81
252.63	89.81
252.863	77.81
253.096	67.81
253.329	69.81
253.562	80.81
253.795	81.81
254.028	67.81
254.261	59.81
254.494	74.81
254.727	85.81
254.96	92.81
255.193	81.81
255.426	61.81
255.659	75.81
255.892	75.81
256.124	75.81
256.357	70.81
256.59	81.81
256.823	72.81
257.056	82.81
257.289	84.81
257.521	71.81
257.754	71.81
257.987	84.81
258.22	81.81
258.452	65.81
258.685	82.81
258.918	79.81
259.151	92.81
259.383	90.81
259.616	90.81
259.849	78.81
260.081	78.81
260.314	75.81
260.547	64.81
260.779	79.81
261.012	75.81
261.244	83.81
261.477	74.81
261.71	88.81
261.942	73.81
262.175	78.81
262.407	57.81
262.64	67.81
262.872	72.81
263.105	99.81
263.337	91.81
263.57	84.81
263.802	79.81
264.035	74.81
264.267	73.81
264.499	82.81
264.732	86.81
264.964	77.81
265.197	73.81
265.429	83.81
265.661	78.81
265.894	72.81
266.126	80.81
266.358	92.81
266.591	83.81
266.823	67.81
267.055	76.81
267.287	80.81
267.52	94.81
267.752	74.81
267.984	79.81
268.216	80.81
268.448	85.81
268.681	96.81
268.913	83.81
269.145	91.81
269.377	86.81
269.609	79.81
269.841	83.81
270.073	79.81
270.306	69.81
270.538	85.81
270.77	91.81
271.002	72.81
271.234	76.81
271.466	84.81
271.698	89.81
271.93	82.81
272.162	73.81
272.394	75.81
272.626	83.81
272.858	92.81
273.09	85.81
273.322	90.81
273.553	84.81
273.785	91.81
274.017	81.81
274.249	67.81
274.481	80.81
274.713	87.81
274.945	71.81
275.176	77.81
275.408	78.81
275.64	89.81
275.872	84.81
276.104	81.81
276.335	76.81
276.567	81.81
276.799	83.81
277.031	76.81
277.262	83.81
277.494	86.81
277.726	94.81
277.957	79.81
278.189	70.81
278.421	84.81
278.652	83.81
278.884	88.81
279.115	91.81
279.347	73.81
279.579	77.81
279.81	80.81
280.042	80.81
280.273	84.81
280.505	83.81
280.736	77.81
280.968	91.81
281.199	75.81
281.431	76.81
281.662	81.81
281.894	78.81
282.125	92.81
282.356	78.81
282.588	73.81
282.819	80.81
283.051	73.81
283.282	82.81
283.513	91.81
283.745	76.81
283.976	66.81
284.207	77.81
284.439	88.81
284.67	83.81
284.901	75.81
285.132	94.81
285.364	80.81
285.595	76.81
285.826	79.81
286.057	92.81
286.288	79.81
286.52	83.81
286.751	79.81
286.982	59.81
287.213	83.81
287.444	85.81
287.675	87.81
287.906	89.81
288.138	76.81
288.369	95.81
288.6	77.81
288.831	88.81
289.062	83.81
289.293	86.81
289.524	71.81
289.755	68.81
289.986	76.81
290.217	72.81
290.448	79.81
290.679	80.81
290.91	76.81
291.141	85.81
291.371	82.81
291.602	67.81
291.833	106.81
292.064	85.81
292.295	87.81
292.526	87.81
292.757	96.81
292.987	79.81
293.218	71.81
293.449	78.81
293.68	84.81
293.91	88.81
294.141	87.81
294.372	78.81
294.603	96.81
294.833	87.81
295.064	91.81
295.295	91.81
295.525	91.81
295.756	78.81
295.987	80.81
296.217	74.81
296.448	73.81
296.679	77.81
296.909	71.81
297.14	92.81
297.37	83.81
297.601	73.81
297.831	81.81
298.062	87.81
298.292	90.81
298.523	90.81
298.753	87.81
298.984	84.81
299.214	88.81
299.445	85.81
299.675	85.81
299.905	85.81
300.136	71.81
300.366	86.81
300.597	79.81
300.827	86.81
301.057	72.81
301.288	74.81
301.518	72.81
301.748	84.81
301.979	97.81
302.209	85.81
302.439	77.81
302.669	79.81
302.9	69.81
303.13	78.81
303.36	74.81
303.59	79.81
303.82	73.81
304.051	72.81
304.281	80.81
304.511	88.81
304.741	91.81
304.971	84.81
305.201	87.81
305.431	89.81
305.661	88.81
305.891	96.81
306.121	76.81
306.352	77.81
306.582	81.81
306.812	89.81
307.042	80.81
307.272	91.81
307.502	88.81
307.731	71.81
307.961	79.81
308.191	76.81
308.421	88.81
308.651	62.81
308.881	83.81
309.111	77.81
309.341	86.81
309.571	79.81
309.8	88.81
310.03	83.81
310.26	80.81
310.49	75.81
310.72	80.81
310.949	73.81
311.179	80.81
311.409	77.81
311.639	88.81
311.868	81.81
312.098	88.81
312.328	83.81
312.557	87.81
312.787	83.81
313.017	72.81
313.246	79.81
313.476	97.81
313.706	89.81
313.935	100.81
314.165	83.81
314.394	85.81
314.624	92.81
314.853	77.81
315.083	73.81
315.312	94.81
315.542	78.81
315.771	71.81
316.001	72.81
316.23	86.81
316.46	90.81
316.689	79.81
316.919	71.81
317.148	88.81
317.377	77.81
317.607	78.81
317.836	85.81
318.065	84.81
318.295	85.81
318.524	91.81
318.753	81.81
318.983	70.81
319.212	80.81
319.441	82.81
319.67	71.81
319.9	94.81
320.129	94.81
320.358	78.81
320.587	72.81
320.816	88.81
321.046	87.81
321.275	88.81
321.504	84.81
321.733	80.81
321.962	94.81
322.191	78.81
322.42	77.81
322.649	73.81
322.878	83.81
323.108	88.81
323.337	75.81
323.566	83.81
323.795	82.81
324.024	96.81
324.253	73.81
324.482	85.81
324.71	80.81
324.939	82.81
325.168	102.81
325.397	81.81
325.626	75.81
325.855	78.81
326.084	102.81
326.313	97.81
326.542	87.81
326.77	68.81
326.999	75.81
327.228	86.81
327.457	87.81
327.686	80.81
327.914	77.81
328.143	90.81
328.372	81.81
328.6	77.81
328.829	84.81
329.058	91.81
329.287	86.81
329.515	78.81
329.744	90.81
329.972	84.81
330.201	73.81
330.43	78.81
330.658	88.81
330.887	85.81
331.115	92.81
331.344	90.81
331.572	86.81
331.801	81.81
332.03	85.81
332.258	94.81
332.486	83.81
332.715	78.81
332.943	96.81
333.172	78.81
333.4	87.81
333.629	90.81
333.857	95.81
334.085	93.81
334.314	92.81
334.542	78.81
334.771	90.81
334.999	73.81
335.227	71.81
335.455	78.81
335.684	82.81
335.912	83.81
336.14	85.81
336.369	89.81
336.597	76.81
336.825	93.81
337.053	67.81
337.281	75.81
337.51	83.81
337.738	74.81
337.966	80.81
338.194	97.81
338.422	92.81
338.65	99.81
338.878	80.81
339.106	80.81
339.334	78.81
339.562	80.81
339.79	84.81
340.018	81.81
340.246	84.81
340.474	82.81
340.702	92.81
340.93	81.81
341.158	92.81
341.386	105.81
341.614	101.81
341.842	91.81
342.07	85.81
342.298	73.81
342.526	89.81
342.754	96.81
342.981	81.81
343.209	97.81
343.437	88.81
343.665	73.81
343.893	75.81
344.12	91.81
344.348	84.81
344.576	91.81
344.804	80.81
345.031	83.81
345.259	88.81
345.487	91.81
345.714	96.81
345.942	81.81
346.17	68.81
346.397	91.81
346.625	90.81
346.853	83.81
347.08	84.81
347.308	89.81
347.535	81.81
347.763	81.81
347.99	92.81
348.218	92.81
348.445	86.81
348.673	88.81
348.9	82.81
349.128	89.81
349.355	79.81
349.583	78.81
349.81	86.81
350.037	80.81
350.265	80.81
350.492	70.81
350.72	83.81
350.947	87.81
351.174	83.81
351.402	72.81
351.629	68.81
351.856	78.81
352.083	89.81
352.311	95.81
352.538	73.81
352.765	88.81
352.992	90.81
353.22	89.81
353.447	70.81
353.674	88.81
353.901	75.81
354.128	79.81
354.355	78.81
354.583	83.81
354.81	91.81
355.037	90.81
355.264	87.81
355.491	70.81
355.718	83.81
355.945	80.81
356.172	85.81
356.399	90.81
356.626	73.81
356.853	87.81
357.08	92.81
357.307	80.81
357.534	76.81
357.761	78.81
357.988	82.81
358.215	84.81
358.441	79.81
358.668	83.81
358.895	79.81
359.122	82.81
359.349	68.81
359.576	75.81
359.802	69.81
360.029	65.81
360.256	95.81
360.483	89.81
360.709	84.81
360.936	107.81
361.163	81.81
361.39	92.81
361.616	79.81
361.843	84.81
362.07	86.81
362.296	86.81
362.523	80.81
362.749	87.81
362.976	87.81
363.203	98.81
363.429	85.81
363.656	88.81
363.882	80.81
364.109	87.81
364.335	83.81
364.562	83.81
364.788	85.81
365.015	79.81
365.241	84.81
365.468	87.81
365.694	76.81
365.92	85.81
366.147	93.81
366.373	93.81
366.599	93.81
366.826	75.81
367.052	75.81
367.278	77.81
367.505	82.81
367.731	92.81
367.957	83.81
368.184	84.81
368.41	76.81
368.636	69.81
368.862	82.81
369.089	67.81
369.315	76.81
369.541	84.81
369.767	85.81
369.993	85.81
370.219	90.81
370.445	85.81
370.672	89.81
370.898	67.81
371.124	83.81
371.35	84.81
371.576	75.81
371.802	82.81
372.028	77.81
372.254	79.81
372.48	87.81
372.706	89.81
372.932	93.81
373.158	81.81
373.384	88.81
373.61	77.81
373.835	85.81
374.061	73.81
374.287	81.81
374.513	87.81
374.739	88.81
374.965	81.81
375.191	87.81
375.416	87.81
375.642	73.81
375.868	90.81
376.094	86.81
376.319	72.81
376.545	74.81
376.771	83.81
376.997	71.81
377.222	68.81
377.448	86.81
377.674	83.81
377.899	70.81
378.125	75.81
378.35	74.81
378.576	81.81
378.802	99.81
379.027	90.81
379.253	88.81
379.478	89.81
379.704	78.81
379.929	80.81
380.155	102.81
380.38	73.81
380.606	85.81
380.831	76.81
381.057	96.81
381.282	94.81
381.507	81.81
381.733	83.81
381.958	85.81
382.184	71.81
382.409	74.81
382.634	87.81
382.86	80.81
383.085	86.81
383.31	79.81
383.535	75.81
383.761	79.81
383.986	73.81
384.211	89.81
384.436	95.81
384.662	86.81
384.887	89.81
385.112	104.81
385.337	86.81
385.562	71.81
385.787	90.81
386.013	89.81
386.238	71.81
386.463	73.81
386.688	93.81
386.913	101.81
387.138	65.81
387.363	82.81
387.588	75.81
387.813	74.81
388.038	86.81
388.263	71.81
388.488	75.81
388.713	78.81
388.938	80.81
389.163	73.81
389.387	77.81
389.612	76.81
389.837	97.81
390.062	94.81
390.287	80.81
390.512	86.81
390.736	84.81
390.961	59.81
391.186	66.81
391.411	72.81
391.636	69.81
391.86	81.81
392.085	75.81
392.31	84.81
392.534	87.81
392.759	86.81
392.984	71.81
393.208	88.81
393.433	73.81
393.658	89.81
393.882	68.81
394.107	69.81
394.331	69.81
394.556	84.81
394.78	70.81
395.005	88.81
395.229	74.81
395.454	80.81
395.678	82.81
395.903	83.81
396.127	82.81
396.352	85.81
396.576	79.81
396.801	73.81
397.025	86.81
397.249	76.81
397.474	89.81
397.698	80.81
397.922	71.81
398.147	71.81
398.371	73.81
398.595	89.81
398.82	87.81
399.044	71.81
399.268	86.81
399.492	84.81
399.717	84.81
399.941	81.81
400.165	87.81
400.389	74.81
400.613	79.81
400.837	76.81
401.062	87.81
401.286	96.81
401.51	77.81
401.734	85.81
401.958	78.81
402.182	79.81
402.406	84.81
402.63	72.81
402.854	79.81
403.078	95.81
403.302	93.81
403.526	86.81
403.75	81.81
403.974	84.81
404.198	73.81
404.422	89.81
404.645	87.81
404.869	81.81
405.093	88.81
405.317	79.81
405.541	87.81
405.765	88.81
405.988	72.81
406.212	77.81
406.436	79.81
406.66	95.81
406.883	77.81
407.107	72.81
407.331	84.81
407.555	87.81
407.778	93.81
408.002	90.81
408.226	78.81
408.449	79.81
408.673	82.81
408.896	68.81
409.12	77.81
409.344	78.81
409.567	86.81
409.791	82.81
410.014	92.81
410.238	83.81
410.461	75.81
410.685	74.81
410.908	83.81
411.132	75.81
411.355	74.81
411.578	88.81
411.802	79.81
412.025	79.81
412.249	81.81
412.472	81.81
412.695	79.81
412.919	59.81
413.142	71.81
413.365	88.81
413.589	83.81
413.812	72.81
414.035	87.81
414.258	91.81
414.482	83.81
414.705	67.81
414.928	88.81
415.151	86.81
415.374	90.81
415.597	76.81
415.821	59.81
416.044	76.81
416.267	85.81
416.49	78.81
416.713	91.81
416.936	75.81
417.159	92.81
417.382	83.81
417.605	77.81
417.828	91.81
418.051	75.81
418.274	84.81
418.497	85.81
418.72	86.81
418.943	87.81
419.166	88.81
419.389	72.81
419.611	71.81
419.834	90.81
420.057	75.81
420.28	67.81
420.503	80.81
420.726	77.81
420.948	89.81
421.171	82.81
421.394	85.81
421.617	76.81
421.839	87.81
422.062	76.81
422.285	76.81
422.507	76.81
422.73	78.81
422.953	78.81
423.175	81.81
423.398	87.81
423.621	86.81
423.843	87.81
424.066	63.81
424.288	78.81
424.511	77.81
424.733	86.81
424.956	90.81
425.178	89.81
425.401	87.81
425.623	88.81
425.846	83.81
426.068	87.81
426.291	82.81
426.513	90.81
426.735	79.81
426.958	76.81
427.18	81.81
427.402	92.81
427.625	83.81
427.847	76.81
428.069	85.81
428.292	70.81
428.514	82.81
428.736	65.81
428.958	72.81
429.181	87.81
429.403	92.81
429.625	85.81
429.847	92.81
430.069	93.81
430.292	90.81
430.514	95.81
430.736	87.81
430.958	73.81
431.18	80.81
431.402	64.81
431.624	79.81
431.846	89.81
432.068	88.81
432.29	87.81
432.512	88.81
432.734	80.81
432.956	90.81
433.178	88.81
433.4	77.81
433.622	95.81
433.844	81.81
434.066	83.81
434.287	62.81
434.509	90.81
434.731	85.81
434.953	80.81
435.175	80.81
435.397	80.81
435.618	60.81
435.84	71.81
436.062	85.81
436.284	71.81
436.505	85.81
436.727	76.81
436.949	82.81
437.17	88.81
437.392	78.81
437.614	76.81
437.835	71.81
438.057	74.81
438.278	83.81
438.5	78.81
438.721	77.81
438.943	79.81
439.165	86.81
439.386	85.81
439.608	67.81
439.829	71.81
440.05	89.81
440.272	63.81
440.493	85.81
440.715	77.81
440.936	86.81
441.158	76.81
441.379	83.81
441.6	76.81
441.822	94.81
442.043	89.81
442.264	68.81
442.486	71.81
442.707	74.81
442.928	92.81
443.149	89.81
443.371	84.81
443.592	75.81
443.813	92.81
444.034	79.81
444.255	87.81
444.476	79.81
444.698	65.81
444.919	75.81
445.14	165.81
445.361	124.81
445.582	83.81
445.803	83.81
446.024	79.81
446.245	79.81
446.466	89.81
446.687	89.81
446.908	84.81
447.129	69.81
447.35	78.81
447.571	84.81
447.792	82.81
448.013	91.81
448.234	101.81
448.455	75.81
448.675	84.81
448.896	76.81
449.117	85.81
449.338	92.81
449.559	79.81
449.779	79.81
450	77.81
450.221	79.81
450.442	82.81
450.662	81.81
450.883	69.81
451.104	78.81
451.324	83.81
451.545	80.81
451.766	77.81
451.986	77.81
452.207	84.81
452.428	84.81
452.648	76.81
452.869	74.81
453.089	77.81
453.31	65.81
453.53	75.81
453.751	85.81
453.971	92.81
454.192	79.81
454.412	86.81
454.633	78.81
454.853	101.81
455.073	83.81
455.294	83.81
455.514	72.81
455.734	83.81
455.955	80.81
456.175	77.81
456.395	83.81
456.616	83.81
456.836	78.81
457.056	69.81
457.276	61.81
457.497	73.81
457.717	61.81
457.937	63.81
458.157	80.81
458.377	86.81
458.598	83.81
458.818	84.81
459.038	80.81
459.258	85.81
459.478	81.81
459.698	78.81
459.918	82.81
460.138	80.81
460.358	70.81
460.578	85.81
460.798	81.81
461.018	82.81
461.238	79.81
461.458	72.81
461.678	86.81
461.898	84.81
462.118	81.81
462.338	79.81
462.558	100.81
462.777	91.81
462.997	80.81
463.217	66.81
463.437	66.81
463.657	68.81
463.876	80.81
464.096	89.81
464.316	79.81
464.536	74.81
464.755	73.81
464.975	93.81
465.195	83.81
465.414	80.81
465.634	80.81
465.854	83.81
466.073	83.81
466.293	80.81
466.512	83.81
466.732	87.81
466.951	92.81
467.171	83.81
467.391	64.81
467.61	72.81
467.829	78.81
468.049	80.81
468.268	84.81
468.488	83.81
468.707	80.81
468.927	73.81
469.146	65.81
469.365	73.81
469.585	71.81
469.804	85.81
470.023	72.81
470.243	84.81
470.462	76.81
470.681	82.81
470.901	86.81
471.12	79.81
471.339	80.81
471.558	84.81
471.777	80.81
471.997	91.81
472.216	79.81
472.435	79.81
472.654	73.81
472.873	78.81
473.092	77.81
473.311	68.81
473.53	78.81
473.749	74.81
473.968	74.81
474.187	90.81
474.406	74.81
474.625	84.81
474.844	93.81
475.063	84.81
475.282	72.81
475.501	88.81
475.72	86.81
475.939	85.81
476.158	85.81
476.377	85.81
476.596	88.81
476.814	83.81
477.033	75.81
477.252	79.81
477.471	82.81
477.69	80.81
477.908	91.81
478.127	88.81
478.346	71.81
478.564	80.81
478.783	71.81
479.002	71.81
479.22	66.81
479.439	86.81
479.658	75.81
479.876	67.81
480.095	72.81
480.313	70.81
480.532	86.81
480.751	75.81
480.969	93.81
481.188	69.81
481.406	76.81
481.624	75.81
481.843	77.81
482.061	94.81
482.28	79.81
482.498	83.81
482.717	73.81
482.935	75.81
483.153	76.81
483.372	76.81
483.59	91.81
483.808	99.81
484.027	89.81
484.245	77.81
484.463	94.81
484.681	78.81
484.9	80.81
485.118	80.81
485.336	60.81
485.554	89.81
485.772	90.81
485.99	80.81
486.209	69.81
486.427	83.81
486.645	81.81
486.863	85.81
487.081	86.81
487.299	85.81
487.517	75.81
487.735	79.81
487.953	79.81
488.171	87.81
488.389	63.81
488.607	80.81
488.825	92.81
489.043	78.81
489.261	85.81
489.479	85.81
489.696	88.81
489.914	83.81
490.132	71.81
490.35	80.81
490.568	88.81
490.786	91.81
491.003	88.81
491.221	81.81
491.439	83.81
491.657	81.81
491.874	80.81
492.092	82.81
492.31	83.81
492.527	79.81
492.745	77.81
492.963	86.81
493.18	71.81
493.398	79.81
493.615	77.81
493.833	75.81
494.05	90.81
494.268	84.81
494.485	76.81
494.703	67.81
494.92	87.81
495.138	80.81
495.355	80.81
495.573	72.81
495.79	92.81
496.008	83.81
496.225	82.81
496.442	75.81
496.66	89.81
496.877	87.81
497.094	80.81
497.312	91.81
497.529	79.81
497.746	73.81
497.963	81.81
498.181	89.81
498.398	76.81
498.615	82.81
498.832	83.81
499.049	80.81
499.267	79.81
499.484	89.81
499.701	89.81
499.918	100.81
500.135	77.81
500.352	77.81
500.569	88.81
500.786	84.81
501.003	71.81
501.22	99.81
501.437	78.81
501.654	80.81
501.871	84.81
502.088	81.81
502.305	76.81
502.522	83.81
502.739	77.81
502.956	78.81
503.172	87.81
503.389	74.81
503.606	81.81
503.823	84.81
504.04	79.81
504.256	79.81
504.473	80.81
504.69	89.81
504.907	90.81
505.123	71.81
505.34	81.81
505.557	77.81
505.773	93.81
505.99	83.81
506.207	72.81
506.423	75.81
506.64	83.81
506.856	88.81
507.073	80.81
507.289	80.81
507.506	81.81
507.722	86.81
507.939	72.81
508.155	87.81
508.372	73.81
508.588	84.81
508.805	90.81
509.021	80.81
509.238	69.81
509.454	82.81
509.67	74.81
509.887	85.81
510.103	74.81
510.319	87.81
510.536	77.81
510.752	87.81
510.968	79.81
511.184	78.81
511.401	87.81
511.617	79.81
511.833	85.81
512.049	86.81
512.265	71.81
512.481	82.81
512.698	71.81
512.914	87.81
513.13	91.81
513.346	73.81
513.562	73.81
513.778	84.81
513.994	78.81
514.21	80.81
514.426	86.81
514.642	85.81
514.858	84.81
515.074	91.81
515.29	74.81
515.506	78.81
515.721	72.81
515.937	89.81
516.153	84.81
516.369	89.81
516.585	88.81
516.801	87.81
517.016	94.81
517.232	75.81
517.448	64.81
517.664	69.81
517.879	78.81
518.095	88.81
518.311	96.81
518.527	80.81
518.742	84.81
518.958	71.81
519.173	83.81
519.389	79.81
519.605	89.81
519.82	76.81
520.036	81.81
520.251	90.81
