Data from StA_HRD10591_085.txt Node
Date: Fri May 16 15:19:25 EDT 2025
User: Yrep
Spectrometer: HR+D1059
Trigger mode: 1
Integration Time (sec): 1.000000E-1
Scans to average: 1
Electric dark correction enabled: true
Nonlinearity correction enabled: false
Boxcar width: 0
XAxis mode: Wavelengths
Number of Pixels in Spectrum: 2048
>>>>>Begin Spectral Data<<<<<
223.165	-16.81
223.4	-16.81
223.635	-16.81
223.869	-13.81
224.104	-22.81
224.338	-10.81
224.573	-12.81
224.808	-16.81
225.042	0.19
225.277	4.19
225.511	4.19
225.746	-6.81
225.98	2.19
226.215	-3.81
226.449	10.19
226.683	26.19
226.918	15.19
227.152	42.19
227.387	46.19
227.621	39.19
227.856	48.19
228.09	50.19
228.324	36.19
228.559	61.19
228.793	60.19
229.027	73.19
229.262	66.19
229.496	54.19
229.73	61.19
229.964	70.19
230.199	67.19
230.433	64.19
230.667	81.19
230.901	74.19
231.136	70.19
231.37	84.19
231.604	53.19
231.838	82.19
232.072	79.19
232.306	78.19
232.541	71.19
232.775	89.19
233.009	67.19
233.243	84.19
233.477	83.19
233.711	79.19
233.945	65.19
234.179	81.19
234.413	80.19
234.647	83.19
234.881	60.19
235.115	65.19
235.349	76.19
235.583	75.19
235.817	59.19
236.051	79.19
236.285	71.19
236.519	62.19
236.753	72.19
236.987	70.19
237.221	68.19
237.455	88.19
237.689	77.19
237.922	74.19
238.156	64.19
238.39	79.19
238.624	65.19
238.858	78.19
239.091	84.19
239.325	66.19
239.559	75.19
239.793	70.19
240.027	73.19
240.26	62.19
240.494	74.19
240.728	73.19
240.961	73.19
241.195	84.19
241.429	77.19
241.662	68.19
241.896	77.19
242.13	62.19
242.363	70.19
242.597	64.19
242.83	71.19
243.064	58.19
243.298	68.19
243.531	74.19
243.765	71.19
243.998	53.19
244.232	74.19
244.465	75.19
244.699	94.19
244.932	74.19
245.166	82.19
245.399	70.19
245.633	80.19
245.866	79.19
246.099	70.19
246.333	68.19
246.566	77.19
246.8	87.19
247.033	82.19
247.266	76.19
247.5	76.19
247.733	84.19
247.966	70.19
248.2	92.19
248.433	86.19
248.666	70.19
248.899	91.19
249.133	73.19
249.366	102.19
249.599	75.19
249.832	71.19
250.066	61.19
250.299	82.19
250.532	74.19
250.765	64.19
250.998	90.19
251.231	62.19
251.465	76.19
251.698	78.19
251.931	88.19
252.164	83.19
252.397	70.19
252.63	70.19
252.863	84.19
253.096	87.19
253.329	82.19
253.562	70.19
253.795	82.19
254.028	81.19
254.261	79.19
254.494	71.19
254.727	71.19
254.96	79.19
255.193	83.19
255.426	70.19
255.659	76.19
255.892	73.19
256.124	86.19
256.357	77.19
256.59	74.19
256.823	68.19
257.056	68.19
257.289	59.19
257.521	76.19
257.754	86.19
257.987	62.19
258.22	85.19
258.452	76.19
258.685	86.19
258.918	85.19
259.151	78.19
259.383	74.19
259.616	72.19
259.849	65.19
260.081	72.19
260.314	79.19
260.547	71.19
260.779	79.19
261.012	77.19
261.244	67.19
261.477	84.19
261.71	73.19
261.942	73.19
262.175	88.19
262.407	92.19
262.64	84.19
262.872	95.19
263.105	82.19
263.337	82.19
263.57	75.19
263.802	70.19
264.035	94.19
264.267	76.19
264.499	64.19
264.732	78.19
264.964	85.19
265.197	74.19
265.429	74.19
265.661	77.19
265.894	94.19
266.126	88.19
266.358	79.19
266.591	68.19
266.823	85.19
267.055	76.19
267.287	91.19
267.52	83.19
267.752	92.19
267.984	85.19
268.216	77.19
268.448	92.19
268.681	89.19
268.913	79.19
269.145	75.19
269.377	86.19
269.609	84.19
269.841	77.19
270.073	87.19
270.306	68.19
270.538	88.19
270.77	73.19
271.002	48.19
271.234	76.19
271.466	93.19
271.698	88.19
271.93	80.19
272.162	82.19
272.394	78.19
272.626	76.19
272.858	76.19
273.09	91.19
273.322	79.19
273.553	64.19
273.785	77.19
274.017	70.19
274.249	94.19
274.481	82.19
274.713	69.19
274.945	76.19
275.176	89.19
275.408	90.19
275.64	83.19
275.872	79.19
276.104	90.19
276.335	96.19
276.567	74.19
276.799	84.19
277.031	85.19
277.262	87.19
277.494	82.19
277.726	81.19
277.957	83.19
278.189	87.19
278.421	90.19
278.652	79.19
278.884	88.19
279.115	78.19
279.347	75.19
279.579	85.19
279.81	76.19
280.042	87.19
280.273	93.19
280.505	83.19
280.736	69.19
280.968	86.19
281.199	87.19
281.431	80.19
281.662	94.19
281.894	78.19
282.125	88.19
282.356	86.19
282.588	87.19
282.819	87.19
283.051	86.19
283.282	80.19
283.513	93.19
283.745	80.19
283.976	87.19
284.207	88.19
284.439	83.19
284.67	104.19
284.901	77.19
285.132	86.19
285.364	76.19
285.595	90.19
285.826	88.19
286.057	82.19
286.288	102.19
286.52	91.19
286.751	82.19
286.982	89.19
287.213	84.19
287.444	89.19
287.675	89.19
287.906	85.19
288.138	84.19
288.369	88.19
288.6	89.19
288.831	94.19
289.062	92.19
289.293	71.19
289.524	90.19
289.755	86.19
289.986	79.19
290.217	74.19
290.448	70.19
290.679	84.19
290.91	80.19
291.141	78.19
291.371	80.19
291.602	84.19
291.833	63.19
292.064	78.19
292.295	88.19
292.526	75.19
292.757	95.19
292.987	81.19
293.218	92.19
293.449	91.19
293.68	79.19
293.91	73.19
294.141	94.19
294.372	82.19
294.603	85.19
294.833	78.19
295.064	74.19
295.295	75.19
295.525	78.19
295.756	84.19
295.987	68.19
296.217	80.19
296.448	82.19
296.679	93.19
296.909	91.19
297.14	85.19
297.37	87.19
297.601	102.19
297.831	107.19
298.062	78.19
298.292	80.19
298.523	106.19
298.753	98.19
298.984	89.19
299.214	87.19
299.445	80.19
299.675	88.19
299.905	94.19
300.136	66.19
300.366	79.19
300.597	86.19
300.827	86.19
301.057	87.19
301.288	93.19
301.518	104.19
301.748	88.19
301.979	112.19
302.209	92.19
302.439	83.19
302.669	76.19
302.9	92.19
303.13	85.19
303.36	93.19
303.59	95.19
303.82	88.19
304.051	102.19
304.281	75.19
304.511	79.19
304.741	85.19
304.971	82.19
305.201	80.19
305.431	90.19
305.661	95.19
305.891	77.19
306.121	69.19
306.352	78.19
306.582	95.19
306.812	84.19
307.042	83.19
307.272	61.19
307.502	91.19
307.731	75.19
307.961	78.19
308.191	78.19
308.421	83.19
308.651	94.19
308.881	90.19
309.111	86.19
309.341	93.19
309.571	91.19
309.8	94.19
310.03	88.19
310.26	78.19
310.49	91.19
310.72	79.19
310.949	77.19
311.179	87.19
311.409	82.19
311.639	85.19
311.868	79.19
312.098	96.19
312.328	93.19
312.557	85.19
312.787	82.19
313.017	79.19
313.246	82.19
313.476	80.19
313.706	72.19
313.935	79.19
314.165	63.19
314.394	85.19
314.624	75.19
314.853	82.19
315.083	90.19
315.312	85.19
315.542	86.19
315.771	80.19
316.001	70.19
316.23	80.19
316.46	94.19
316.689	95.19
316.919	53.19
317.148	90.19
317.377	93.19
317.607	86.19
317.836	94.19
318.065	89.19
318.295	83.19
318.524	77.19
318.753	89.19
318.983	86.19
319.212	77.19
319.441	93.19
319.67	77.19
319.9	89.19
320.129	84.19
320.358	80.19
320.587	89.19
320.816	91.19
321.046	78.19
321.275	79.19
321.504	76.19
321.733	82.19
321.962	95.19
322.191	82.19
322.42	89.19
322.649	72.19
322.878	80.19
323.108	94.19
323.337	71.19
323.566	86.19
323.795	79.19
324.024	85.19
324.253	83.19
324.482	80.19
324.71	84.19
324.939	92.19
325.168	79.19
325.397	93.19
325.626	83.19
325.855	85.19
326.084	89.19
326.313	72.19
326.542	82.19
326.77	98.19
326.999	74.19
327.228	82.19
327.457	84.19
327.686	78.19
327.914	92.19
328.143	86.19
328.372	85.19
328.6	104.19
328.829	88.19
329.058	77.19
329.287	94.19
329.515	83.19
329.744	85.19
329.972	74.19
330.201	86.19
330.43	82.19
330.658	89.19
330.887	85.19
331.115	89.19
331.344	90.19
331.572	92.19
331.801	83.19
332.03	84.19
332.258	77.19
332.486	91.19
332.715	74.19
332.943	72.19
333.172	90.19
333.4	80.19
333.629	70.19
333.857	92.19
334.085	83.19
334.314	77.19
334.542	98.19
334.771	84.19
334.999	94.19
335.227	78.19
335.455	84.19
335.684	70.19
335.912	96.19
336.14	91.19
336.369	91.19
336.597	82.19
336.825	90.19
337.053	88.19
337.281	90.19
337.51	86.19
337.738	90.19
337.966	88.19
338.194	77.19
338.422	91.19
338.65	90.19
338.878	81.19
339.106	74.19
339.334	91.19
339.562	78.19
339.79	91.19
340.018	87.19
340.246	81.19
340.474	81.19
340.702	81.19
340.93	93.19
341.158	77.19
341.386	81.19
341.614	94.19
341.842	76.19
342.07	94.19
342.298	82.19
342.526	101.19
342.754	88.19
342.981	93.19
343.209	93.19
343.437	103.19
343.665	92.19
343.893	89.19
344.12	84.19
344.348	80.19
344.576	79.19
344.804	86.19
345.031	86.19
345.259	81.19
345.487	82.19
345.714	71.19
345.942	74.19
346.17	87.19
346.397	87.19
346.625	84.19
346.853	93.19
347.08	87.19
347.308	91.19
347.535	87.19
347.763	102.19
347.99	84.19
348.218	85.19
348.445	70.19
348.673	79.19
348.9	91.19
349.128	107.19
349.355	74.19
349.583	79.19
349.81	70.19
350.037	90.19
350.265	73.19
350.492	82.19
350.72	75.19
350.947	98.19
351.174	88.19
351.402	85.19
351.629	85.19
351.856	73.19
352.083	84.19
352.311	91.19
352.538	75.19
352.765	76.19
352.992	76.19
353.22	69.19
353.447	88.19
353.674	84.19
353.901	84.19
354.128	80.19
354.355	75.19
354.583	82.19
354.81	88.19
355.037	89.19
355.264	84.19
355.491	75.19
355.718	71.19
355.945	93.19
356.172	87.19
356.399	74.19
356.626	94.19
356.853	78.19
357.08	78.19
357.307	94.19
357.534	104.19
357.761	110.19
357.988	121.19
358.215	102.19
358.441	72.19
358.668	87.19
358.895	79.19
359.122	112.19
359.349	120.19
359.576	113.19
359.802	94.19
360.029	82.19
360.256	102.19
360.483	115.19
360.709	117.19
360.936	90.19
361.163	82.19
361.39	84.19
361.616	72.19
361.843	79.19
362.07	99.19
362.296	75.19
362.523	75.19
362.749	94.19
362.976	75.19
363.203	88.19
363.429	87.19
363.656	83.19
363.882	79.19
364.109	94.19
364.335	106.19
364.562	94.19
364.788	76.19
365.015	88.19
365.241	72.19
365.468	84.19
365.694	81.19
365.92	85.19
366.147	82.19
366.373	80.19
366.599	83.19
366.826	88.19
367.052	78.19
367.278	75.19
367.505	79.19
367.731	80.19
367.957	72.19
368.184	93.19
368.41	84.19
368.636	82.19
368.862	92.19
369.089	82.19
369.315	87.19
369.541	75.19
369.767	88.19
369.993	86.19
370.219	87.19
370.445	72.19
370.672	90.19
370.898	82.19
371.124	83.19
371.35	81.19
371.576	82.19
371.802	79.19
372.028	82.19
372.254	87.19
372.48	78.19
372.706	89.19
372.932	82.19
373.158	91.19
373.384	88.19
373.61	75.19
373.835	87.19
374.061	86.19
374.287	94.19
374.513	87.19
374.739	92.19
374.965	77.19
375.191	90.19
375.416	89.19
375.642	78.19
375.868	106.19
376.094	96.19
376.319	76.19
376.545	92.19
376.771	82.19
376.997	95.19
377.222	93.19
377.448	92.19
377.674	79.19
377.899	106.19
378.125	79.19
378.35	86.19
378.576	94.19
378.802	80.19
379.027	74.19
379.253	88.19
379.478	76.19
379.704	89.19
379.929	80.19
380.155	87.19
380.38	68.19
380.606	91.19
380.831	93.19
381.057	82.19
381.282	76.19
381.507	83.19
381.733	91.19
381.958	83.19
382.184	80.19
382.409	94.19
382.634	83.19
382.86	68.19
383.085	74.19
383.31	77.19
383.535	82.19
383.761	95.19
383.986	88.19
384.211	98.19
384.436	75.19
384.662	83.19
384.887	98.19
385.112	86.19
385.337	89.19
385.562	79.19
385.787	106.19
386.013	93.19
386.238	86.19
386.463	84.19
386.688	88.19
386.913	82.19
387.138	84.19
387.363	92.19
387.588	82.19
387.813	105.19
388.038	88.19
388.263	94.19
388.488	82.19
388.713	92.19
388.938	82.19
389.163	89.19
389.387	89.19
389.612	104.19
389.837	87.19
390.062	81.19
390.287	98.19
390.512	98.19
390.736	95.19
390.961	98.19
391.186	98.19
391.411	94.19
391.636	90.19
391.86	80.19
392.085	100.19
392.31	84.19
392.534	88.19
392.759	87.19
392.984	88.19
393.208	83.19
393.433	84.19
393.658	86.19
393.882	86.19
394.107	85.19
394.331	86.19
394.556	73.19
394.78	96.19
395.005	76.19
395.229	74.19
395.454	72.19
395.678	84.19
395.903	102.19
396.127	91.19
396.352	102.19
396.576	90.19
396.801	98.19
397.025	92.19
397.249	83.19
397.474	82.19
397.698	88.19
397.922	92.19
398.147	90.19
398.371	108.19
398.595	84.19
398.82	82.19
399.044	90.19
399.268	92.19
399.492	77.19
399.717	89.19
399.941	89.19
400.165	87.19
400.389	98.19
400.613	88.19
400.837	82.19
401.062	83.19
401.286	84.19
401.51	72.19
401.734	84.19
401.958	74.19
402.182	92.19
402.406	82.19
402.63	87.19
402.854	90.19
403.078	92.19
403.302	78.19
403.526	84.19
403.75	91.19
403.974	82.19
404.198	86.19
404.422	75.19
404.645	74.19
404.869	89.19
405.093	91.19
405.317	74.19
405.541	71.19
405.765	85.19
405.988	75.19
406.212	84.19
406.436	86.19
406.66	92.19
406.883	83.19
407.107	83.19
407.331	90.19
407.555	93.19
407.778	86.19
408.002	71.19
408.226	76.19
408.449	72.19
408.673	80.19
408.896	91.19
409.12	82.19
409.344	78.19
409.567	79.19
409.791	72.19
410.014	84.19
410.238	90.19
410.461	87.19
410.685	90.19
410.908	84.19
411.132	88.19
411.355	98.19
411.578	82.19
411.802	82.19
412.025	87.19
412.249	100.19
412.472	83.19
412.695	84.19
412.919	94.19
413.142	90.19
413.365	91.19
413.589	81.19
413.812	103.19
414.035	86.19
414.258	74.19
414.482	80.19
414.705	80.19
414.928	75.19
415.151	77.19
415.374	73.19
415.597	83.19
415.821	88.19
416.044	72.19
416.267	88.19
416.49	80.19
416.713	86.19
416.936	85.19
417.159	71.19
417.382	83.19
417.605	85.19
417.828	94.19
418.051	73.19
418.274	85.19
418.497	89.19
418.72	87.19
418.943	102.19
419.166	88.19
419.389	92.19
419.611	83.19
419.834	80.19
420.057	97.19
420.28	78.19
420.503	77.19
420.726	90.19
420.948	90.19
421.171	80.19
421.394	86.19
421.617	87.19
421.839	84.19
422.062	78.19
422.285	78.19
422.507	80.19
422.73	79.19
422.953	79.19
423.175	75.19
423.398	71.19
423.621	86.19
423.843	83.19
424.066	89.19
424.288	82.19
424.511	73.19
424.733	88.19
424.956	91.19
425.178	96.19
425.401	147.19
425.623	153.19
425.846	89.19
426.068	87.19
426.291	91.19
426.513	82.19
426.735	72.19
426.958	88.19
427.18	102.19
427.402	123.19
427.625	138.19
427.847	118.19
428.069	102.19
428.292	95.19
428.514	96.19
428.736	82.19
428.958	107.19
429.181	118.19
429.403	86.19
429.625	94.19
429.847	86.19
430.069	80.19
430.292	89.19
430.514	79.19
430.736	84.19
430.958	94.19
431.18	89.19
431.402	94.19
431.624	102.19
431.846	78.19
432.068	90.19
432.29	82.19
432.512	71.19
432.734	78.19
432.956	94.19
433.178	91.19
433.4	99.19
433.622	93.19
433.844	114.19
434.066	112.19
434.287	115.19
434.509	96.19
434.731	107.19
434.953	86.19
435.175	107.19
435.397	114.19
435.618	93.19
435.84	71.19
436.062	86.19
436.284	96.19
436.505	95.19
436.727	72.19
436.949	73.19
437.17	87.19
437.392	89.19
437.614	83.19
437.835	82.19
438.057	78.19
438.278	92.19
438.5	82.19
438.721	78.19
438.943	89.19
439.165	95.19
439.386	86.19
439.608	78.19
439.829	82.19
440.05	86.19
440.272	90.19
440.493	70.19
440.715	68.19
440.936	89.19
441.158	80.19
441.379	85.19
441.6	89.19
441.822	83.19
442.043	80.19
442.264	99.19
442.486	88.19
442.707	76.19
442.928	80.19
443.149	82.19
443.371	77.19
443.592	75.19
443.813	81.19
444.034	80.19
444.255	76.19
444.476	81.19
444.698	87.19
444.919	80.19
445.14	172.19
445.361	119.19
445.582	82.19
445.803	88.19
446.024	75.19
446.245	82.19
446.466	84.19
446.687	74.19
446.908	94.19
447.129	86.19
447.35	86.19
447.571	86.19
447.792	74.19
448.013	77.19
448.234	87.19
448.455	77.19
448.675	87.19
448.896	82.19
449.117	74.19
449.338	101.19
449.559	95.19
449.779	100.19
450	96.19
450.221	93.19
450.442	78.19
450.662	92.19
450.883	85.19
451.104	78.19
451.324	77.19
451.545	83.19
451.766	87.19
451.986	68.19
452.207	77.19
452.428	89.19
452.648	80.19
452.869	92.19
453.089	96.19
453.31	84.19
453.53	77.19
453.751	107.19
453.971	80.19
454.192	89.19
454.412	85.19
454.633	103.19
454.853	79.19
455.073	98.19
455.294	77.19
455.514	91.19
455.734	92.19
455.955	89.19
456.175	85.19
456.395	81.19
456.616	90.19
456.836	86.19
457.056	102.19
457.276	88.19
457.497	84.19
457.717	81.19
457.937	74.19
458.157	80.19
458.377	80.19
458.598	87.19
458.818	75.19
459.038	89.19
459.258	89.19
459.478	77.19
459.698	81.19
459.918	79.19
460.138	103.19
460.358	90.19
460.578	86.19
460.798	89.19
461.018	89.19
461.238	89.19
461.458	83.19
461.678	112.19
461.898	84.19
462.118	98.19
462.338	84.19
462.558	90.19
462.777	95.19
462.997	98.19
463.217	101.19
463.437	89.19
463.657	96.19
463.876	92.19
464.096	83.19
464.316	92.19
464.536	105.19
464.755	107.19
464.975	119.19
465.195	95.19
465.414	102.19
465.634	114.19
465.854	75.19
466.073	90.19
466.293	87.19
466.512	73.19
466.732	88.19
466.951	90.19
467.171	78.19
467.391	84.19
467.61	79.19
467.829	94.19
468.049	80.19
468.268	94.19
468.488	91.19
468.707	92.19
468.927	78.19
469.146	91.19
469.365	86.19
469.585	92.19
469.804	87.19
470.023	71.19
470.243	77.19
470.462	76.19
470.681	102.19
470.901	92.19
471.12	98.19
471.339	87.19
471.558	90.19
471.777	82.19
471.997	101.19
472.216	74.19
472.435	90.19
472.654	87.19
472.873	87.19
473.092	92.19
473.311	83.19
473.53	92.19
473.749	80.19
473.968	92.19
474.187	83.19
474.406	72.19
474.625	80.19
474.844	87.19
475.063	87.19
475.282	88.19
475.501	85.19
475.72	109.19
475.939	87.19
476.158	96.19
476.377	93.19
476.596	96.19
476.814	87.19
477.033	86.19
477.252	83.19
477.471	78.19
477.69	86.19
477.908	76.19
478.127	86.19
478.346	70.19
478.564	86.19
478.783	87.19
479.002	100.19
479.22	79.19
479.439	72.19
479.658	75.19
479.876	74.19
480.095	77.19
480.313	98.19
480.532	78.19
480.751	83.19
480.969	72.19
481.188	76.19
481.406	76.19
481.624	83.19
481.843	82.19
482.061	79.19
482.28	74.19
482.498	80.19
482.717	88.19
482.935	77.19
483.153	80.19
483.372	78.19
483.59	85.19
483.808	84.19
484.027	91.19
484.245	86.19
484.463	84.19
484.681	88.19
484.9	85.19
485.118	89.19
485.336	87.19
485.554	89.19
485.772	80.19
485.99	90.19
486.209	91.19
486.427	99.19
486.645	94.19
486.863	86.19
487.081	83.19
487.299	90.19
487.517	98.19
487.735	78.19
487.953	91.19
488.171	90.19
488.389	86.19
488.607	99.19
488.825	93.19
489.043	96.19
489.261	92.19
489.479	93.19
489.696	90.19
489.914	71.19
490.132	98.19
490.35	90.19
490.568	88.19
490.786	87.19
491.003	85.19
491.221	79.19
491.439	91.19
491.657	83.19
491.874	85.19
492.092	92.19
492.31	99.19
492.527	92.19
492.745	100.19
492.963	90.19
493.18	84.19
493.398	80.19
493.615	86.19
493.833	100.19
494.05	76.19
494.268	102.19
494.485	94.19
494.703	94.19
494.92	84.19
495.138	86.19
495.355	87.19
495.573	100.19
495.79	84.19
496.008	92.19
496.225	102.19
496.442	94.19
496.66	98.19
496.877	84.19
497.094	84.19
497.312	76.19
497.529	85.19
497.746	94.19
497.963	82.19
498.181	82.19
498.398	83.19
498.615	101.19
498.832	84.19
499.049	87.19
499.267	91.19
499.484	80.19
499.701	91.19
499.918	85.19
500.135	87.19
500.352	89.19
500.569	78.19
500.786	95.19
501.003	79.19
501.22	85.19
501.437	90.19
501.654	79.19
501.871	93.19
502.088	110.19
502.305	80.19
502.522	92.19
502.739	92.19
502.956	72.19
503.172	76.19
503.389	83.19
503.606	100.19
503.823	94.19
504.04	91.19
504.256	78.19
504.473	90.19
504.69	91.19
504.907	85.19
505.123	89.19
505.34	79.19
505.557	81.19
505.773	88.19
505.99	92.19
506.207	87.19
506.423	76.19
506.64	85.19
506.856	72.19
507.073	84.19
507.289	80.19
507.506	85.19
507.722	72.19
507.939	86.19
508.155	88.19
508.372	74.19
508.588	77.19
508.805	82.19
509.021	75.19
509.238	81.19
509.454	74.19
509.67	89.19
509.887	108.19
510.103	74.19
510.319	83.19
510.536	88.19
510.752	79.19
510.968	75.19
511.184	89.19
511.401	92.19
511.617	91.19
511.833	95.19
512.049	85.19
512.265	87.19
512.481	82.19
512.698	68.19
512.914	73.19
513.13	87.19
513.346	77.19
513.562	85.19
513.778	86.19
513.994	94.19
514.21	80.19
514.426	71.19
514.642	93.19
514.858	83.19
515.074	89.19
515.29	83.19
515.506	78.19
515.721	80.19
515.937	77.19
516.153	84.19
516.369	80.19
516.585	97.19
516.801	89.19
517.016	78.19
517.232	85.19
517.448	76.19
517.664	78.19
517.879	95.19
518.095	96.19
518.311	81.19
518.527	80.19
518.742	82.19
518.958	86.19
519.173	84.19
