Data from StA_HRD10591_020.txt Node
Date: Fri May 16 15:18:54 EDT 2025
User: Yrep
Spectrometer: HR+D1059
Trigger mode: 1
Integration Time (sec): 1.000000E-1
Scans to average: 1
Electric dark correction enabled: true
Nonlinearity correction enabled: false
Boxcar width: 0
XAxis mode: Wavelengths
Number of Pixels in Spectrum: 2048
>>>>>Begin Spectral Data<<<<<
223.165	-17.12
223.4	-17.12
223.635	-17.12
223.869	-11.12
224.104	-16.12
224.338	-19.12
224.573	-16.12
224.808	-3.12
225.042	-15.12
225.277	-11.12
225.511	-12.12
225.746	4.88
225.98	7.88
226.215	17.88
226.449	5.88
226.683	17.88
226.918	48.88
227.152	17.88
227.387	46.88
227.621	40.88
227.856	60.88
228.09	45.88
228.324	58.88
228.559	40.88
228.793	53.88
229.027	57.88
229.262	61.88
229.496	61.88
229.73	71.88
229.964	72.88
230.199	79.88
230.433	79.88
230.667	78.88
230.901	59.88
231.136	64.88
231.37	63.88
231.604	71.88
231.838	85.88
232.072	79.88
232.306	79.88
232.541	84.88
232.775	81.88
233.009	72.88
233.243	74.88
233.477	85.88
233.711	83.88
233.945	67.88
234.179	73.88
234.413	61.88
234.647	84.88
234.881	75.88
235.115	72.88
235.349	76.88
235.583	66.88
235.817	73.88
236.051	74.88
236.285	75.88
236.519	69.88
236.753	70.88
236.987	63.88
237.221	71.88
237.455	77.88
237.689	87.88
237.922	61.88
238.156	79.88
238.39	74.88
238.624	61.88
238.858	75.88
239.091	70.88
239.325	73.88
239.559	72.88
239.793	73.88
240.027	62.88
240.26	63.88
240.494	78.88
240.728	76.88
240.961	72.88
241.195	73.88
241.429	65.88
241.662	64.88
241.896	63.88
242.13	64.88
242.363	59.88
242.597	81.88
242.83	69.88
243.064	74.88
243.298	74.88
243.531	73.88
243.765	79.88
243.998	60.88
244.232	64.88
244.465	63.88
244.699	71.88
244.932	89.88
245.166	72.88
245.399	70.88
245.633	59.88
245.866	73.88
246.099	72.88
246.333	80.88
246.566	90.88
246.8	88.88
247.033	84.88
247.266	80.88
247.5	77.88
247.733	77.88
247.966	77.88
248.2	71.88
248.433	84.88
248.666	73.88
248.899	83.88
249.133	79.88
249.366	88.88
249.599	79.88
249.832	79.88
250.066	72.88
250.299	77.88
250.532	78.88
250.765	77.88
250.998	76.88
251.231	75.88
251.465	74.88
251.698	72.88
251.931	78.88
252.164	75.88
252.397	83.88
252.63	77.88
252.863	64.88
253.096	95.88
253.329	83.88
253.562	78.88
253.795	60.88
254.028	65.88
254.261	76.88
254.494	79.88
254.727	86.88
254.96	86.88
255.193	77.88
255.426	69.88
255.659	60.88
255.892	71.88
256.124	71.88
256.357	83.88
256.59	86.88
256.823	60.88
257.056	87.88
257.289	75.88
257.521	77.88
257.754	71.88
257.987	76.88
258.22	69.88
258.452	79.88
258.685	65.88
258.918	70.88
259.151	100.88
259.383	85.88
259.616	84.88
259.849	80.88
260.081	76.88
260.314	73.88
260.547	83.88
260.779	74.88
261.012	89.88
261.244	90.88
261.477	64.88
261.71	73.88
261.942	76.88
262.175	74.88
262.407	65.88
262.64	71.88
262.872	71.88
263.105	74.88
263.337	80.88
263.57	73.88
263.802	80.88
264.035	84.88
264.267	83.88
264.499	90.88
264.732	76.88
264.964	75.88
265.197	76.88
265.429	86.88
265.661	80.88
265.894	77.88
266.126	79.88
266.358	79.88
266.591	89.88
266.823	85.88
267.055	77.88
267.287	83.88
267.52	90.88
267.752	94.88
267.984	87.88
268.216	78.88
268.448	93.88
268.681	92.88
268.913	85.88
269.145	87.88
269.377	92.88
269.609	89.88
269.841	90.88
270.073	75.88
270.306	65.88
270.538	77.88
270.77	77.88
271.002	72.88
271.234	93.88
271.466	87.88
271.698	89.88
271.93	71.88
272.162	90.88
272.394	79.88
272.626	91.88
272.858	73.88
273.09	93.88
273.322	97.88
273.553	80.88
273.785	86.88
274.017	81.88
274.249	75.88
274.481	75.88
274.713	79.88
274.945	93.88
275.176	76.88
275.408	83.88
275.64	74.88
275.872	80.88
276.104	86.88
276.335	74.88
276.567	92.88
276.799	69.88
277.031	67.88
277.262	85.88
277.494	92.88
277.726	86.88
277.957	79.88
278.189	83.88
278.421	85.88
278.652	78.88
278.884	78.88
279.115	76.88
279.347	84.88
279.579	80.88
279.81	83.88
280.042	81.88
280.273	81.88
280.505	83.88
280.736	93.88
280.968	100.88
281.199	80.88
281.431	81.88
281.662	80.88
281.894	78.88
282.125	76.88
282.356	83.88
282.588	86.88
282.819	77.88
283.051	64.88
283.282	88.88
283.513	80.88
283.745	65.88
283.976	90.88
284.207	87.88
284.439	90.88
284.67	87.88
284.901	75.88
285.132	88.88
285.364	95.88
285.595	85.88
285.826	88.88
286.057	82.88
286.288	85.88
286.52	77.88
286.751	82.88
286.982	78.88
287.213	83.88
287.444	93.88
287.675	93.88
287.906	91.88
288.138	106.88
288.369	84.88
288.6	99.88
288.831	96.88
289.062	83.88
289.293	95.88
289.524	89.88
289.755	85.88
289.986	96.88
290.217	91.88
290.448	102.88
290.679	84.88
290.91	86.88
291.141	76.88
291.371	93.88
291.602	88.88
291.833	94.88
292.064	70.88
292.295	79.88
292.526	88.88
292.757	87.88
292.987	70.88
293.218	72.88
293.449	93.88
293.68	88.88
293.91	69.88
294.141	95.88
294.372	88.88
294.603	75.88
294.833	88.88
295.064	83.88
295.295	100.88
295.525	93.88
295.756	94.88
295.987	63.88
296.217	93.88
296.448	97.88
296.679	84.88
296.909	89.88
297.14	84.88
297.37	92.88
297.601	89.88
297.831	85.88
298.062	84.88
298.292	79.88
298.523	87.88
298.753	86.88
298.984	88.88
299.214	73.88
299.445	84.88
299.675	92.88
299.905	85.88
300.136	83.88
300.366	86.88
300.597	75.88
300.827	90.88
301.057	88.88
301.288	65.88
301.518	103.88
301.748	94.88
301.979	115.88
302.209	99.88
302.439	84.88
302.669	103.88
302.9	88.88
303.13	90.88
303.36	100.88
303.59	90.88
303.82	99.88
304.051	88.88
304.281	95.88
304.511	91.88
304.741	87.88
304.971	81.88
305.201	83.88
305.431	75.88
305.661	55.88
305.891	79.88
306.121	82.88
306.352	89.88
306.582	85.88
306.812	76.88
307.042	73.88
307.272	85.88
307.502	80.88
307.731	89.88
307.961	83.88
308.191	93.88
308.421	99.88
308.651	84.88
308.881	86.88
309.111	77.88
309.341	66.88
309.571	80.88
309.8	69.88
310.03	86.88
310.26	69.88
310.49	86.88
310.72	92.88
310.949	78.88
311.179	95.88
311.409	103.88
311.639	80.88
311.868	84.88
312.098	96.88
312.328	83.88
312.557	88.88
312.787	105.88
313.017	87.88
313.246	83.88
313.476	100.88
313.706	81.88
313.935	64.88
314.165	89.88
314.394	85.88
314.624	87.88
314.853	95.88
315.083	97.88
315.312	76.88
315.542	94.88
315.771	72.88
316.001	83.88
316.23	82.88
316.46	73.88
316.689	88.88
316.919	77.88
317.148	84.88
317.377	79.88
317.607	91.88
317.836	78.88
318.065	80.88
318.295	84.88
318.524	82.88
318.753	93.88
318.983	69.88
319.212	80.88
319.441	84.88
319.67	100.88
319.9	79.88
320.129	76.88
320.358	84.88
320.587	75.88
320.816	71.88
321.046	83.88
321.275	89.88
321.504	104.88
321.733	92.88
321.962	77.88
322.191	87.88
322.42	85.88
322.649	83.88
322.878	95.88
323.108	97.88
323.337	94.88
323.566	78.88
323.795	83.88
324.024	91.88
324.253	89.88
324.482	109.88
324.71	96.88
324.939	87.88
325.168	81.88
325.397	82.88
325.626	80.88
325.855	65.88
326.084	82.88
326.313	90.88
326.542	73.88
326.77	84.88
326.999	86.88
327.228	83.88
327.457	86.88
327.686	97.88
327.914	71.88
328.143	84.88
328.372	78.88
328.6	87.88
328.829	76.88
329.058	75.88
329.287	86.88
329.515	83.88
329.744	84.88
329.972	87.88
330.201	85.88
330.43	76.88
330.658	75.88
330.887	83.88
331.115	88.88
331.344	98.88
331.572	93.88
331.801	85.88
332.03	85.88
332.258	91.88
332.486	80.88
332.715	87.88
332.943	77.88
333.172	82.88
333.4	87.88
333.629	96.88
333.857	92.88
334.085	73.88
334.314	79.88
334.542	79.88
334.771	79.88
334.999	92.88
335.227	89.88
335.455	91.88
335.684	79.88
335.912	86.88
336.14	89.88
336.369	82.88
336.597	94.88
336.825	81.88
337.053	90.88
337.281	94.88
337.51	87.88
337.738	89.88
337.966	97.88
338.194	83.88
338.422	91.88
338.65	85.88
338.878	89.88
339.106	88.88
339.334	87.88
339.562	83.88
339.79	85.88
340.018	80.88
340.246	71.88
340.474	95.88
340.702	84.88
340.93	76.88
341.158	80.88
341.386	81.88
341.614	86.88
341.842	96.88
342.07	78.88
342.298	99.88
342.526	103.88
342.754	86.88
342.981	79.88
343.209	91.88
343.437	96.88
343.665	91.88
343.893	84.88
344.12	96.88
344.348	89.88
344.576	85.88
344.804	84.88
345.031	86.88
345.259	91.88
345.487	88.88
345.714	84.88
345.942	82.88
346.17	69.88
346.397	89.88
346.625	95.88
346.853	77.88
347.08	79.88
347.308	86.88
347.535	95.88
347.763	96.88
347.99	94.88
348.218	91.88
348.445	87.88
348.673	83.88
348.9	85.88
349.128	92.88
349.355	80.88
349.583	75.88
349.81	86.88
350.037	103.88
350.265	77.88
350.492	79.88
350.72	89.88
350.947	89.88
351.174	96.88
351.402	82.88
351.629	88.88
351.856	87.88
352.083	83.88
352.311	105.88
352.538	86.88
352.765	94.88
352.992	75.88
353.22	91.88
353.447	80.88
353.674	88.88
353.901	78.88
354.128	85.88
354.355	85.88
354.583	90.88
354.81	80.88
355.037	96.88
355.264	98.88
355.491	85.88
355.718	83.88
355.945	91.88
356.172	84.88
356.399	83.88
356.626	81.88
356.853	83.88
357.08	82.88
357.307	85.88
357.534	107.88
357.761	125.88
357.988	114.88
358.215	104.88
358.441	95.88
358.668	95.88
358.895	107.88
359.122	112.88
359.349	115.88
359.576	115.88
359.802	87.88
360.029	88.88
360.256	100.88
360.483	104.88
360.709	102.88
360.936	80.88
361.163	86.88
361.39	77.88
361.616	87.88
361.843	84.88
362.07	95.88
362.296	80.88
362.523	76.88
362.749	83.88
362.976	91.88
363.203	86.88
363.429	80.88
363.656	99.88
363.882	99.88
364.109	93.88
364.335	85.88
364.562	80.88
364.788	75.88
365.015	83.88
365.241	84.88
365.468	82.88
365.694	93.88
365.92	81.88
366.147	92.88
366.373	94.88
366.599	70.88
366.826	88.88
367.052	81.88
367.278	93.88
367.505	87.88
367.731	99.88
367.957	92.88
368.184	91.88
368.41	83.88
368.636	90.88
368.862	85.88
369.089	88.88
369.315	99.88
369.541	85.88
369.767	82.88
369.993	104.88
370.219	76.88
370.445	71.88
370.672	78.88
370.898	83.88
371.124	77.88
371.35	89.88
371.576	94.88
371.802	93.88
372.028	79.88
372.254	81.88
372.48	86.88
372.706	91.88
372.932	92.88
373.158	87.88
373.384	106.88
373.61	90.88
373.835	77.88
374.061	92.88
374.287	89.88
374.513	89.88
374.739	80.88
374.965	100.88
375.191	96.88
375.416	84.88
375.642	79.88
375.868	81.88
376.094	88.88
376.319	86.88
376.545	77.88
376.771	78.88
376.997	96.88
377.222	88.88
377.448	91.88
377.674	90.88
377.899	76.88
378.125	92.88
378.35	89.88
378.576	91.88
378.802	80.88
379.027	74.88
379.253	92.88
379.478	80.88
379.704	80.88
379.929	93.88
380.155	89.88
380.38	88.88
380.606	90.88
380.831	82.88
381.057	108.88
381.282	93.88
381.507	78.88
381.733	81.88
381.958	92.88
382.184	81.88
382.409	89.88
382.634	85.88
382.86	96.88
383.085	83.88
383.31	81.88
383.535	90.88
383.761	98.88
383.986	74.88
384.211	86.88
384.436	88.88
384.662	91.88
384.887	90.88
385.112	96.88
385.337	92.88
385.562	96.88
385.787	78.88
386.013	73.88
386.238	75.88
386.463	93.88
386.688	92.88
386.913	86.88
387.138	84.88
387.363	77.88
387.588	86.88
387.813	83.88
388.038	80.88
388.263	94.88
388.488	82.88
388.713	90.88
388.938	90.88
389.163	83.88
389.387	81.88
389.612	86.88
389.837	78.88
390.062	74.88
390.287	83.88
390.512	92.88
390.736	86.88
390.961	83.88
391.186	82.88
391.411	74.88
391.636	93.88
391.86	113.88
392.085	83.88
392.31	83.88
392.534	76.88
392.759	87.88
392.984	77.88
393.208	80.88
393.433	81.88
393.658	86.88
393.882	81.88
394.107	103.88
394.331	102.88
394.556	79.88
394.78	75.88
395.005	75.88
395.229	93.88
395.454	85.88
395.678	77.88
395.903	84.88
396.127	86.88
396.352	86.88
396.576	86.88
396.801	102.88
397.025	93.88
397.249	77.88
397.474	89.88
397.698	93.88
397.922	100.88
398.147	99.88
398.371	89.88
398.595	80.88
398.82	85.88
399.044	80.88
399.268	85.88
399.492	80.88
399.717	88.88
399.941	80.88
400.165	87.88
400.389	85.88
400.613	96.88
400.837	74.88
401.062	95.88
401.286	87.88
401.51	84.88
401.734	80.88
401.958	83.88
402.182	79.88
402.406	87.88
402.63	90.88
402.854	93.88
403.078	85.88
403.302	83.88
403.526	82.88
403.75	80.88
403.974	80.88
404.198	93.88
404.422	87.88
404.645	88.88
404.869	70.88
405.093	75.88
405.317	89.88
405.541	85.88
405.765	87.88
405.988	89.88
406.212	94.88
406.436	73.88
406.66	85.88
406.883	74.88
407.107	78.88
407.331	82.88
407.555	82.88
407.778	76.88
408.002	66.88
408.226	83.88
408.449	96.88
408.673	74.88
408.896	80.88
409.12	88.88
409.344	91.88
409.567	69.88
409.791	85.88
410.014	84.88
410.238	76.88
410.461	87.88
410.685	85.88
410.908	80.88
411.132	89.88
411.355	76.88
411.578	89.88
411.802	87.88
412.025	86.88
412.249	88.88
412.472	87.88
412.695	84.88
412.919	73.88
413.142	93.88
413.365	76.88
413.589	86.88
413.812	71.88
414.035	84.88
414.258	84.88
414.482	79.88
414.705	80.88
414.928	87.88
415.151	83.88
415.374	87.88
415.597	75.88
415.821	81.88
416.044	81.88
416.267	87.88
416.49	71.88
416.713	74.88
416.936	83.88
417.159	83.88
417.382	86.88
417.605	83.88
417.828	84.88
418.051	90.88
418.274	84.88
418.497	87.88
418.72	80.88
418.943	76.88
419.166	85.88
419.389	80.88
419.611	82.88
419.834	85.88
420.057	87.88
420.28	85.88
420.503	70.88
420.726	83.88
420.948	79.88
421.171	86.88
421.394	77.88
421.617	86.88
421.839	96.88
422.062	84.88
422.285	85.88
422.507	87.88
422.73	97.88
422.953	70.88
423.175	81.88
423.398	83.88
423.621	76.88
423.843	82.88
424.066	89.88
424.288	77.88
424.511	68.88
424.733	84.88
424.956	73.88
425.178	89.88
425.401	133.88
425.623	152.88
425.846	108.88
426.068	87.88
426.291	85.88
426.513	72.88
426.735	90.88
426.958	82.88
427.18	88.88
427.402	106.88
427.625	140.88
427.847	103.88
428.069	93.88
428.292	80.88
428.514	75.88
428.736	80.88
428.958	118.88
429.181	122.88
429.403	104.88
429.625	92.88
429.847	74.88
430.069	92.88
430.292	89.88
430.514	79.88
430.736	77.88
430.958	96.88
431.18	81.88
431.402	78.88
431.624	85.88
431.846	83.88
432.068	85.88
432.29	80.88
432.512	79.88
432.734	85.88
432.956	77.88
433.178	83.88
433.4	95.88
433.622	102.88
433.844	109.88
434.066	129.88
434.287	109.88
434.509	97.88
434.731	91.88
434.953	85.88
435.175	101.88
435.397	97.88
435.618	88.88
435.84	88.88
436.062	80.88
436.284	76.88
436.505	78.88
436.727	74.88
436.949	80.88
437.17	92.88
437.392	86.88
437.614	89.88
437.835	71.88
438.057	67.88
438.278	71.88
438.5	70.88
438.721	81.88
438.943	70.88
439.165	85.88
439.386	86.88
439.608	85.88
439.829	73.88
440.05	80.88
440.272	82.88
440.493	93.88
440.715	69.88
440.936	91.88
441.158	92.88
441.379	77.88
441.6	78.88
441.822	82.88
442.043	85.88
442.264	91.88
442.486	72.88
442.707	87.88
442.928	80.88
443.149	80.88
443.371	91.88
443.592	71.88
443.813	80.88
444.034	76.88
444.255	83.88
444.476	79.88
444.698	77.88
444.919	86.88
445.14	166.88
445.361	124.88
445.582	90.88
445.803	85.88
446.024	81.88
446.245	85.88
446.466	69.88
446.687	95.88
446.908	71.88
447.129	80.88
447.35	77.88
447.571	79.88
447.792	73.88
448.013	80.88
448.234	78.88
448.455	73.88
448.675	75.88
448.896	87.88
449.117	82.88
449.338	77.88
449.559	75.88
449.779	91.88
450	97.88
450.221	80.88
450.442	76.88
450.662	80.88
450.883	89.88
451.104	79.88
451.324	73.88
451.545	78.88
451.766	86.88
451.986	79.88
452.207	88.88
452.428	92.88
452.648	75.88
452.869	95.88
453.089	92.88
453.31	83.88
453.53	82.88
453.751	89.88
453.971	79.88
454.192	91.88
454.412	80.88
454.633	93.88
454.853	86.88
455.073	77.88
455.294	73.88
455.514	79.88
455.734	66.88
455.955	74.88
456.175	66.88
456.395	81.88
456.616	92.88
456.836	89.88
457.056	91.88
457.276	90.88
457.497	89.88
457.717	69.88
457.937	94.88
458.157	83.88
458.377	60.88
458.598	86.88
458.818	73.88
459.038	84.88
459.258	77.88
459.478	88.88
459.698	89.88
459.918	77.88
460.138	79.88
460.358	89.88
460.578	88.88
460.798	95.88
461.018	87.88
461.238	72.88
461.458	89.88
461.678	100.88
461.898	91.88
462.118	80.88
462.338	85.88
462.558	95.88
462.777	90.88
462.997	102.88
463.217	89.88
463.437	102.88
463.657	75.88
463.876	77.88
464.096	89.88
464.316	75.88
464.536	73.88
464.755	113.88
464.975	108.88
465.195	104.88
465.414	113.88
465.634	82.88
465.854	61.88
466.073	69.88
466.293	84.88
466.512	90.88
466.732	95.88
466.951	91.88
467.171	83.88
467.391	88.88
467.61	93.88
467.829	77.88
468.049	84.88
468.268	80.88
468.488	92.88
468.707	80.88
468.927	79.88
469.146	84.88
469.365	89.88
469.585	95.88
469.804	70.88
470.023	79.88
470.243	79.88
470.462	94.88
470.681	86.88
470.901	90.88
471.12	89.88
471.339	63.88
471.558	76.88
471.777	84.88
471.997	92.88
472.216	79.88
472.435	100.88
472.654	91.88
472.873	80.88
473.092	84.88
473.311	79.88
473.53	85.88
473.749	95.88
473.968	100.88
474.187	91.88
474.406	89.88
474.625	76.88
474.844	94.88
475.063	83.88
475.282	89.88
475.501	81.88
475.72	83.88
475.939	79.88
476.158	94.88
476.377	79.88
476.596	83.88
476.814	71.88
477.033	77.88
477.252	83.88
477.471	77.88
477.69	64.88
477.908	75.88
478.127	81.88
478.346	85.88
478.564	73.88
478.783	79.88
479.002	93.88
479.22	80.88
479.439	98.88
479.658	70.88
479.876	92.88
480.095	88.88
480.313	86.88
480.532	89.88
480.751	82.88
480.969	72.88
481.188	74.88
481.406	92.88
481.624	82.88
481.843	83.88
482.061	88.88
482.28	73.88
482.498	85.88
482.717	77.88
482.935	73.88
483.153	87.88
483.372	73.88
483.59	77.88
483.808	85.88
484.027	78.88
484.245	71.88
484.463	76.88
484.681	96.88
484.9	82.88
485.118	80.88
485.336	76.88
485.554	89.88
485.772	77.88
485.99	77.88
486.209	96.88
486.427	90.88
486.645	98.88
486.863	77.88
487.081	72.88
487.299	84.88
487.517	87.88
487.735	90.88
487.953	99.88
488.171	83.88
488.389	79.88
488.607	88.88
488.825	109.88
489.043	89.88
489.261	80.88
489.479	85.88
489.696	75.88
489.914	94.88
490.132	99.88
490.35	89.88
490.568	91.88
490.786	93.88
491.003	74.88
491.221	76.88
491.439	84.88
491.657	87.88
491.874	96.88
492.092	86.88
492.31	88.88
492.527	96.88
492.745	89.88
492.963	78.88
493.18	86.88
493.398	87.88
493.615	79.88
493.833	95.88
494.05	73.88
494.268	86.88
494.485	90.88
494.703	69.88
494.92	71.88
495.138	91.88
495.355	86.88
495.573	85.88
495.79	90.88
496.008	70.88
496.225	83.88
496.442	80.88
496.66	97.88
496.877	85.88
497.094	92.88
497.312	81.88
497.529	80.88
497.746	81.88
497.963	91.88
498.181	86.88
498.398	91.88
498.615	80.88
498.832	75.88
499.049	75.88
499.267	83.88
499.484	92.88
499.701	77.88
499.918	75.88
500.135	72.88
500.352	85.88
500.569	87.88
500.786	87.88
501.003	82.88
501.22	76.88
501.437	90.88
501.654	84.88
501.871	91.88
502.088	85.88
502.305	96.88
502.522	89.88
502.739	79.88
502.956	100.88
503.172	88.88
503.389	87.88
503.606	90.88
503.823	82.88
504.04	79.88
504.256	82.88
504.473	92.88
504.69	72.88
504.907	84.88
505.123	86.88
505.34	84.88
505.557	77.88
505.773	78.88
505.99	76.88
506.207	64.88
506.423	80.88
506.64	82.88
506.856	79.88
507.073	76.88
507.289	89.88
507.506	82.88
507.722	75.88
507.939	70.88
508.155	86.88
508.372	81.88
508.588	75.88
508.805	77.88
509.021	96.88
509.238	87.88
509.454	85.88
509.67	78.88
509.887	87.88
510.103	87.88
510.319	77.88
510.536	80.88
510.752	72.88
510.968	75.88
511.184	93.88
511.401	82.88
511.617	90.88
511.833	76.88
512.049	73.88
512.265	77.88
512.481	65.88
512.698	80.88
512.914	77.88
513.13	87.88
513.346	72.88
513.562	81.88
513.778	100.88
513.994	88.88
514.21	70.88
514.426	85.88
514.642	87.88
514.858	88.88
515.074	103.88
515.29	90.88
515.506	82.88
515.721	75.88
515.937	76.88
516.153	82.88
516.369	74.88
516.585	66.88
516.801	88.88
517.016	84.88
517.232	87.88
517.448	70.88
517.664	72.88
517.879	85.88
518.095	78.88
518.311	76.88
518.527	93.88
518.742	77.88
518.958	83.88
519.173	85.88
519.389	99.88
