Data from StA_HRD10591_083.txt Node
Date: Fri May 16 15:19:24 EDT 2025
User: Yrep
Spectrometer: HR+D1059
Trigger mode: 1
Integration Time (sec): 1.000000E-1
Scans to average: 1
Electric dark correction enabled: true
Nonlinearity correction enabled: false
Boxcar width: 0
XAxis mode: Wavelengths
Number of Pixels in Spectrum: 2048
>>>>>Begin Spectral Data<<<<<
223.165	-16.69
223.4	-16.69
223.635	-16.69
223.869	-13.69
224.104	-21.69
224.338	-21.69
224.573	-13.69
224.808	-17.69
225.042	-12.69
225.277	-6.69
225.511	4.31
225.746	-1.69
225.98	7.31
226.215	2.31
226.449	24.31
226.683	31.31
226.918	25.31
227.152	31.31
227.387	43.31
227.621	38.31
227.856	36.31
228.09	42.31
228.324	47.31
228.559	61.31
228.793	60.31
229.027	60.31
229.262	67.31
229.496	76.31
229.73	71.31
229.964	82.31
230.199	77.31
230.433	69.31
230.667	84.31
230.901	78.31
231.136	80.31
231.37	75.31
231.604	79.31
231.838	86.31
232.072	75.31
232.306	71.31
232.541	90.31
232.775	82.31
233.009	78.31
233.243	68.31
233.477	70.31
233.711	87.31
233.945	76.31
234.179	83.31
234.413	74.31
234.647	97.31
234.881	89.31
235.115	93.31
235.349	81.31
235.583	68.31
235.817	86.31
236.051	82.31
236.285	78.31
236.519	80.31
236.753	78.31
236.987	76.31
237.221	70.31
237.455	75.31
237.689	58.31
237.922	83.31
238.156	88.31
238.39	74.31
238.624	75.31
238.858	81.31
239.091	93.31
239.325	85.31
239.559	74.31
239.793	80.31
240.027	84.31
240.26	66.31
240.494	68.31
240.728	69.31
240.961	75.31
241.195	87.31
241.429	79.31
241.662	79.31
241.896	81.31
242.13	89.31
242.363	81.31
242.597	78.31
242.83	87.31
243.064	86.31
243.298	73.31
243.531	81.31
243.765	70.31
243.998	80.31
244.232	83.31
244.465	85.31
244.699	81.31
244.932	84.31
245.166	69.31
245.399	95.31
245.633	84.31
245.866	86.31
246.099	92.31
246.333	85.31
246.566	67.31
246.8	101.31
247.033	87.31
247.266	79.31
247.5	80.31
247.733	81.31
247.966	83.31
248.2	81.31
248.433	69.31
248.666	86.31
248.899	89.31
249.133	82.31
249.366	91.31
249.599	74.31
249.832	88.31
250.066	104.31
250.299	80.31
250.532	85.31
250.765	78.31
250.998	64.31
251.231	93.31
251.465	83.31
251.698	90.31
251.931	77.31
252.164	83.31
252.397	73.31
252.63	80.31
252.863	69.31
253.096	83.31
253.329	73.31
253.562	82.31
253.795	93.31
254.028	83.31
254.261	78.31
254.494	82.31
254.727	82.31
254.96	89.31
255.193	85.31
255.426	70.31
255.659	82.31
255.892	74.31
256.124	88.31
256.357	89.31
256.59	80.31
256.823	70.31
257.056	82.31
257.289	62.31
257.521	98.31
257.754	85.31
257.987	76.31
258.22	87.31
258.452	80.31
258.685	69.31
258.918	84.31
259.151	97.31
259.383	88.31
259.616	85.31
259.849	93.31
260.081	75.31
260.314	83.31
260.547	82.31
260.779	85.31
261.012	80.31
261.244	84.31
261.477	77.31
261.71	101.31
261.942	75.31
262.175	93.31
262.407	82.31
262.64	90.31
262.872	83.31
263.105	92.31
263.337	80.31
263.57	97.31
263.802	92.31
264.035	94.31
264.267	73.31
264.499	82.31
264.732	85.31
264.964	89.31
265.197	77.31
265.429	76.31
265.661	80.31
265.894	89.31
266.126	83.31
266.358	74.31
266.591	91.31
266.823	84.31
267.055	88.31
267.287	85.31
267.52	83.31
267.752	81.31
267.984	95.31
268.216	80.31
268.448	81.31
268.681	98.31
268.913	84.31
269.145	98.31
269.377	84.31
269.609	89.31
269.841	85.31
270.073	91.31
270.306	87.31
270.538	88.31
270.77	91.31
271.002	90.31
271.234	87.31
271.466	97.31
271.698	84.31
271.93	97.31
272.162	78.31
272.394	76.31
272.626	88.31
272.858	85.31
273.09	98.31
273.322	92.31
273.553	77.31
273.785	81.31
274.017	90.31
274.249	93.31
274.481	91.31
274.713	80.31
274.945	98.31
275.176	102.31
275.408	97.31
275.64	82.31
275.872	92.31
276.104	108.31
276.335	91.31
276.567	88.31
276.799	99.31
277.031	96.31
277.262	101.31
277.494	93.31
277.726	82.31
277.957	79.31
278.189	72.31
278.421	89.31
278.652	92.31
278.884	84.31
279.115	96.31
279.347	93.31
279.579	85.31
279.81	91.31
280.042	86.31
280.273	90.31
280.505	85.31
280.736	88.31
280.968	86.31
281.199	91.31
281.431	92.31
281.662	101.31
281.894	90.31
282.125	89.31
282.356	93.31
282.588	66.31
282.819	99.31
283.051	96.31
283.282	91.31
283.513	97.31
283.745	95.31
283.976	73.31
284.207	90.31
284.439	94.31
284.67	83.31
284.901	93.31
285.132	98.31
285.364	75.31
285.595	85.31
285.826	84.31
286.057	98.31
286.288	103.31
286.52	91.31
286.751	88.31
286.982	96.31
287.213	87.31
287.444	89.31
287.675	90.31
287.906	95.31
288.138	81.31
288.369	90.31
288.6	101.31
288.831	97.31
289.062	98.31
289.293	96.31
289.524	91.31
289.755	97.31
289.986	91.31
290.217	85.31
290.448	79.31
290.679	88.31
290.91	78.31
291.141	87.31
291.371	96.31
291.602	89.31
291.833	94.31
292.064	86.31
292.295	94.31
292.526	105.31
292.757	97.31
292.987	95.31
293.218	86.31
293.449	90.31
293.68	76.31
293.91	88.31
294.141	97.31
294.372	100.31
294.603	84.31
294.833	91.31
295.064	81.31
295.295	86.31
295.525	88.31
295.756	80.31
295.987	88.31
296.217	85.31
296.448	88.31
296.679	101.31
296.909	94.31
297.14	83.31
297.37	93.31
297.601	95.31
297.831	95.31
298.062	85.31
298.292	106.31
298.523	88.31
298.753	103.31
298.984	88.31
299.214	78.31
299.445	86.31
299.675	92.31
299.905	97.31
300.136	99.31
300.366	97.31
300.597	102.31
300.827	85.31
301.057	94.31
301.288	94.31
301.518	98.31
301.748	105.31
301.979	103.31
302.209	94.31
302.439	92.31
302.669	108.31
302.9	104.31
303.13	105.31
303.36	86.31
303.59	94.31
303.82	96.31
304.051	92.31
304.281	88.31
304.511	95.31
304.741	88.31
304.971	71.31
305.201	95.31
305.431	84.31
305.661	92.31
305.891	81.31
306.121	82.31
306.352	88.31
306.582	90.31
306.812	78.31
307.042	96.31
307.272	88.31
307.502	82.31
307.731	80.31
307.961	87.31
308.191	93.31
308.421	95.31
308.651	98.31
308.881	70.31
309.111	78.31
309.341	83.31
309.571	86.31
309.8	97.31
310.03	96.31
310.26	90.31
310.49	69.31
310.72	98.31
310.949	96.31
311.179	85.31
311.409	103.31
311.639	90.31
311.868	108.31
312.098	95.31
312.328	102.31
312.557	99.31
312.787	99.31
313.017	84.31
313.246	98.31
313.476	85.31
313.706	95.31
313.935	95.31
314.165	87.31
314.394	92.31
314.624	90.31
314.853	90.31
315.083	108.31
315.312	100.31
315.542	88.31
315.771	91.31
316.001	88.31
316.23	85.31
316.46	92.31
316.689	89.31
316.919	82.31
317.148	93.31
317.377	82.31
317.607	90.31
317.836	91.31
318.065	77.31
318.295	86.31
318.524	84.31
318.753	78.31
318.983	93.31
319.212	84.31
319.441	76.31
319.67	89.31
319.9	91.31
320.129	94.31
320.358	95.31
320.587	83.31
320.816	88.31
321.046	98.31
321.275	89.31
321.504	91.31
321.733	84.31
321.962	89.31
322.191	82.31
322.42	90.31
322.649	81.31
322.878	91.31
323.108	96.31
323.337	99.31
323.566	88.31
323.795	103.31
324.024	89.31
324.253	85.31
324.482	85.31
324.71	95.31
324.939	74.31
325.168	109.31
325.397	97.31
325.626	90.31
325.855	99.31
326.084	94.31
326.313	96.31
326.542	89.31
326.77	87.31
326.999	78.31
327.228	94.31
327.457	78.31
327.686	88.31
327.914	91.31
328.143	84.31
328.372	85.31
328.6	91.31
328.829	92.31
329.058	89.31
329.287	89.31
329.515	84.31
329.744	94.31
329.972	99.31
330.201	91.31
330.43	92.31
330.658	91.31
330.887	85.31
331.115	65.31
331.344	80.31
331.572	78.31
331.801	82.31
332.03	92.31
332.258	83.31
332.486	68.31
332.715	80.31
332.943	93.31
333.172	82.31
333.4	90.31
333.629	97.31
333.857	83.31
334.085	91.31
334.314	89.31
334.542	94.31
334.771	94.31
334.999	99.31
335.227	81.31
335.455	92.31
335.684	87.31
335.912	101.31
336.14	93.31
336.369	88.31
336.597	83.31
336.825	105.31
337.053	99.31
337.281	86.31
337.51	80.31
337.738	97.31
337.966	84.31
338.194	88.31
338.422	90.31
338.65	102.31
338.878	92.31
339.106	95.31
339.334	83.31
339.562	80.31
339.79	98.31
340.018	99.31
340.246	110.31
340.474	95.31
340.702	95.31
340.93	107.31
341.158	108.31
341.386	96.31
341.614	81.31
341.842	84.31
342.07	75.31
342.298	94.31
342.526	106.31
342.754	72.31
342.981	90.31
343.209	85.31
343.437	106.31
343.665	86.31
343.893	82.31
344.12	84.31
344.348	79.31
344.576	87.31
344.804	84.31
345.031	80.31
345.259	84.31
345.487	105.31
345.714	79.31
345.942	91.31
346.17	82.31
346.397	82.31
346.625	97.31
346.853	92.31
347.08	75.31
347.308	91.31
347.535	104.31
347.763	86.31
347.99	89.31
348.218	94.31
348.445	88.31
348.673	96.31
348.9	93.31
349.128	90.31
349.355	95.31
349.583	87.31
349.81	84.31
350.037	91.31
350.265	95.31
350.492	90.31
350.72	86.31
350.947	86.31
351.174	83.31
351.402	84.31
351.629	70.31
351.856	93.31
352.083	92.31
352.311	81.31
352.538	82.31
352.765	95.31
352.992	98.31
353.22	80.31
353.447	89.31
353.674	90.31
353.901	92.31
354.128	94.31
354.355	107.31
354.583	88.31
354.81	89.31
355.037	88.31
355.264	98.31
355.491	100.31
355.718	86.31
355.945	95.31
356.172	89.31
356.399	78.31
356.626	95.31
356.853	94.31
357.08	81.31
357.307	97.31
357.534	112.31
357.761	124.31
357.988	137.31
358.215	116.31
358.441	95.31
358.668	98.31
358.895	103.31
359.122	105.31
359.349	106.31
359.576	99.31
359.802	99.31
360.029	85.31
360.256	122.31
360.483	118.31
360.709	125.31
360.936	102.31
361.163	73.31
361.39	72.31
361.616	89.31
361.843	97.31
362.07	93.31
362.296	82.31
362.523	96.31
362.749	82.31
362.976	85.31
363.203	90.31
363.429	86.31
363.656	108.31
363.882	93.31
364.109	96.31
364.335	104.31
364.562	95.31
364.788	97.31
365.015	86.31
365.241	81.31
365.468	92.31
365.694	76.31
365.92	89.31
366.147	82.31
366.373	89.31
366.599	102.31
366.826	86.31
367.052	75.31
367.278	82.31
367.505	88.31
367.731	99.31
367.957	89.31
368.184	82.31
368.41	91.31
368.636	99.31
368.862	84.31
369.089	96.31
369.315	80.31
369.541	93.31
369.767	91.31
369.993	82.31
370.219	92.31
370.445	88.31
370.672	77.31
370.898	68.31
371.124	92.31
371.35	89.31
371.576	81.31
371.802	93.31
372.028	91.31
372.254	93.31
372.48	83.31
372.706	81.31
372.932	111.31
373.158	96.31
373.384	100.31
373.61	97.31
373.835	110.31
374.061	93.31
374.287	94.31
374.513	90.31
374.739	101.31
374.965	102.31
375.191	98.31
375.416	89.31
375.642	88.31
375.868	89.31
376.094	91.31
376.319	91.31
376.545	77.31
376.771	85.31
376.997	90.31
377.222	98.31
377.448	87.31
377.674	92.31
377.899	97.31
378.125	110.31
378.35	78.31
378.576	80.31
378.802	88.31
379.027	74.31
379.253	96.31
379.478	97.31
379.704	85.31
379.929	83.31
380.155	86.31
380.38	90.31
380.606	101.31
380.831	85.31
381.057	87.31
381.282	100.31
381.507	87.31
381.733	93.31
381.958	87.31
382.184	80.31
382.409	73.31
382.634	93.31
382.86	96.31
383.085	77.31
383.31	94.31
383.535	92.31
383.761	90.31
383.986	97.31
384.211	99.31
384.436	91.31
384.662	75.31
384.887	70.31
385.112	85.31
385.337	95.31
385.562	98.31
385.787	84.31
386.013	92.31
386.238	95.31
386.463	90.31
386.688	82.31
386.913	86.31
387.138	81.31
387.363	81.31
387.588	99.31
387.813	99.31
388.038	99.31
388.263	101.31
388.488	117.31
388.713	95.31
388.938	95.31
389.163	91.31
389.387	85.31
389.612	98.31
389.837	84.31
390.062	95.31
390.287	87.31
390.512	90.31
390.736	97.31
390.961	107.31
391.186	93.31
391.411	91.31
391.636	87.31
391.86	107.31
392.085	91.31
392.31	104.31
392.534	92.31
392.759	86.31
392.984	91.31
393.208	72.31
393.433	81.31
393.658	92.31
393.882	87.31
394.107	89.31
394.331	82.31
394.556	83.31
394.78	84.31
395.005	97.31
395.229	99.31
395.454	88.31
395.678	84.31
395.903	101.31
396.127	101.31
396.352	113.31
396.576	93.31
396.801	97.31
397.025	108.31
397.249	95.31
397.474	92.31
397.698	95.31
397.922	92.31
398.147	94.31
398.371	104.31
398.595	86.31
398.82	69.31
399.044	94.31
399.268	102.31
399.492	91.31
399.717	97.31
399.941	79.31
400.165	85.31
400.389	85.31
400.613	83.31
400.837	81.31
401.062	84.31
401.286	93.31
401.51	102.31
401.734	90.31
401.958	93.31
402.182	75.31
402.406	90.31
402.63	100.31
402.854	81.31
403.078	90.31
403.302	86.31
403.526	82.31
403.75	91.31
403.974	88.31
404.198	95.31
404.422	89.31
404.645	91.31
404.869	68.31
405.093	88.31
405.317	88.31
405.541	81.31
405.765	83.31
405.988	92.31
406.212	91.31
406.436	100.31
406.66	97.31
406.883	72.31
407.107	82.31
407.331	97.31
407.555	88.31
407.778	95.31
408.002	75.31
408.226	97.31
408.449	92.31
408.673	77.31
408.896	90.31
409.12	77.31
409.344	85.31
409.567	93.31
409.791	93.31
410.014	95.31
410.238	84.31
410.461	90.31
410.685	102.31
410.908	87.31
411.132	90.31
411.355	90.31
411.578	91.31
411.802	83.31
412.025	88.31
412.249	92.31
412.472	97.31
412.695	88.31
412.919	97.31
413.142	98.31
413.365	80.31
413.589	88.31
413.812	89.31
414.035	87.31
414.258	98.31
414.482	83.31
414.705	91.31
414.928	87.31
415.151	90.31
415.374	89.31
415.597	89.31
415.821	74.31
416.044	90.31
416.267	91.31
416.49	85.31
416.713	96.31
416.936	83.31
417.159	90.31
417.382	72.31
417.605	87.31
417.828	89.31
418.051	104.31
418.274	93.31
418.497	94.31
418.72	76.31
418.943	90.31
419.166	84.31
419.389	89.31
419.611	88.31
419.834	85.31
420.057	98.31
420.28	77.31
420.503	77.31
420.726	84.31
420.948	68.31
421.171	86.31
421.394	86.31
421.617	98.31
421.839	88.31
422.062	99.31
422.285	85.31
422.507	99.31
422.73	88.31
422.953	72.31
423.175	81.31
423.398	89.31
423.621	98.31
423.843	84.31
424.066	72.31
424.288	89.31
424.511	89.31
424.733	93.31
424.956	76.31
425.178	101.31
425.401	133.31
425.623	139.31
425.846	88.31
426.068	95.31
426.291	96.31
426.513	77.31
426.735	84.31
426.958	84.31
427.18	95.31
427.402	114.31
427.625	134.31
427.847	102.31
428.069	105.31
428.292	94.31
428.514	82.31
428.736	108.31
428.958	106.31
429.181	120.31
429.403	98.31
429.625	84.31
429.847	85.31
430.069	83.31
430.292	94.31
430.514	80.31
430.736	88.31
430.958	76.31
431.18	94.31
431.402	80.31
431.624	93.31
431.846	90.31
432.068	88.31
432.29	84.31
432.512	94.31
432.734	81.31
432.956	106.31
433.178	89.31
433.4	89.31
433.622	108.31
433.844	106.31
434.066	114.31
434.287	108.31
434.509	108.31
434.731	99.31
434.953	82.31
435.175	108.31
435.397	99.31
435.618	94.31
435.84	76.31
436.062	92.31
436.284	88.31
436.505	84.31
436.727	92.31
436.949	88.31
437.17	89.31
437.392	98.31
437.614	105.31
437.835	80.31
438.057	91.31
438.278	91.31
438.5	81.31
438.721	92.31
438.943	90.31
439.165	97.31
439.386	81.31
439.608	91.31
439.829	95.31
440.05	101.31
440.272	76.31
440.493	88.31
440.715	80.31
440.936	83.31
441.158	101.31
441.379	91.31
441.6	93.31
441.822	83.31
442.043	80.31
442.264	88.31
442.486	91.31
442.707	94.31
442.928	83.31
443.149	87.31
443.371	104.31
443.592	90.31
443.813	85.31
444.034	68.31
444.255	87.31
444.476	90.31
444.698	104.31
444.919	93.31
445.14	168.31
445.361	127.31
445.582	104.31
445.803	93.31
446.024	87.31
446.245	90.31
446.466	90.31
446.687	70.31
446.908	74.31
447.129	87.31
447.35	89.31
447.571	90.31
447.792	75.31
448.013	92.31
448.234	76.31
448.455	83.31
448.675	96.31
448.896	92.31
449.117	81.31
449.338	78.31
449.559	75.31
449.779	89.31
450	99.31
450.221	87.31
450.442	80.31
450.662	103.31
450.883	87.31
451.104	76.31
451.324	79.31
451.545	95.31
451.766	90.31
451.986	79.31
452.207	96.31
452.428	86.31
452.648	91.31
452.869	103.31
453.089	83.31
453.31	99.31
453.53	87.31
453.751	80.31
453.971	99.31
454.192	93.31
454.412	88.31
454.633	85.31
454.853	91.31
455.073	76.31
455.294	93.31
455.514	99.31
455.734	90.31
455.955	90.31
456.175	96.31
456.395	91.31
456.616	92.31
456.836	79.31
457.056	80.31
457.276	83.31
457.497	93.31
457.717	98.31
457.937	90.31
458.157	91.31
458.377	82.31
458.598	97.31
458.818	85.31
459.038	85.31
459.258	87.31
459.478	84.31
459.698	90.31
459.918	94.31
460.138	88.31
460.358	92.31
460.578	79.31
460.798	87.31
461.018	89.31
461.238	89.31
461.458	92.31
461.678	92.31
461.898	95.31
462.118	80.31
462.338	97.31
462.558	102.31
462.777	89.31
462.997	101.31
463.217	91.31
463.437	97.31
463.657	68.31
463.876	92.31
464.096	104.31
464.316	71.31
464.536	86.31
464.755	118.31
464.975	98.31
465.195	116.31
465.414	111.31
465.634	107.31
465.854	77.31
466.073	84.31
466.293	83.31
466.512	89.31
466.732	96.31
466.951	80.31
467.171	105.31
467.391	86.31
467.61	86.31
467.829	86.31
468.049	89.31
468.268	84.31
468.488	77.31
468.707	83.31
468.927	82.31
469.146	104.31
469.365	97.31
469.585	88.31
469.804	93.31
470.023	82.31
470.243	91.31
470.462	92.31
470.681	82.31
470.901	94.31
471.12	79.31
471.339	87.31
471.558	100.31
471.777	79.31
471.997	94.31
472.216	106.31
472.435	85.31
472.654	91.31
472.873	107.31
473.092	93.31
473.311	94.31
473.53	96.31
473.749	86.31
473.968	86.31
474.187	80.31
474.406	81.31
474.625	91.31
474.844	76.31
475.063	90.31
475.282	88.31
475.501	97.31
475.72	102.31
475.939	85.31
476.158	82.31
476.377	72.31
476.596	110.31
476.814	88.31
477.033	81.31
477.252	96.31
477.471	87.31
477.69	89.31
477.908	74.31
478.127	92.31
478.346	95.31
478.564	85.31
478.783	72.31
479.002	106.31
479.22	93.31
479.439	98.31
479.658	96.31
479.876	90.31
480.095	94.31
480.313	89.31
480.532	92.31
480.751	88.31
480.969	79.31
481.188	98.31
481.406	99.31
481.624	84.31
481.843	84.31
482.061	88.31
482.28	76.31
482.498	107.31
482.717	79.31
482.935	97.31
483.153	108.31
483.372	96.31
483.59	90.31
483.808	89.31
484.027	98.31
484.245	78.31
484.463	96.31
484.681	91.31
484.9	83.31
485.118	86.31
485.336	83.31
485.554	81.31
485.772	88.31
485.99	93.31
486.209	79.31
486.427	88.31
486.645	86.31
486.863	90.31
487.081	104.31
487.299	105.31
487.517	96.31
487.735	91.31
487.953	99.31
488.171	89.31
488.389	104.31
488.607	93.31
488.825	92.31
489.043	97.31
489.261	92.31
489.479	89.31
489.696	90.31
489.914	75.31
490.132	99.31
490.35	82.31
490.568	93.31
490.786	93.31
491.003	85.31
491.221	87.31
491.439	80.31
491.657	100.31
491.874	90.31
492.092	104.31
492.31	112.31
492.527	101.31
492.745	89.31
492.963	90.31
493.18	76.31
493.398	88.31
493.615	87.31
493.833	108.31
494.05	96.31
494.268	92.31
494.485	79.31
494.703	86.31
494.92	92.31
495.138	81.31
495.355	90.31
495.573	105.31
495.79	94.31
496.008	91.31
496.225	107.31
496.442	97.31
496.66	85.31
496.877	95.31
497.094	81.31
497.312	79.31
497.529	94.31
497.746	74.31
497.963	87.31
498.181	84.31
498.398	75.31
498.615	101.31
498.832	90.31
499.049	74.31
499.267	84.31
499.484	88.31
499.701	79.31
499.918	87.31
500.135	85.31
500.352	88.31
500.569	93.31
500.786	97.31
501.003	91.31
501.22	71.31
501.437	91.31
501.654	94.31
501.871	92.31
502.088	104.31
502.305	93.31
502.522	91.31
502.739	84.31
502.956	81.31
503.172	86.31
503.389	106.31
503.606	86.31
503.823	112.31
504.04	103.31
504.256	88.31
504.473	87.31
504.69	79.31
504.907	76.31
505.123	89.31
505.34	90.31
505.557	96.31
505.773	95.31
505.99	92.31
506.207	87.31
506.423	85.31
506.64	100.31
506.856	85.31
507.073	78.31
507.289	73.31
507.506	100.31
507.722	89.31
507.939	93.31
508.155	100.31
508.372	101.31
508.588	93.31
508.805	93.31
509.021	88.31
509.238	99.31
509.454	88.31
509.67	96.31
509.887	99.31
510.103	82.31
510.319	89.31
510.536	80.31
510.752	80.31
510.968	90.31
511.184	92.31
511.401	87.31
511.617	86.31
511.833	90.31
512.049	96.31
512.265	91.31
512.481	102.31
512.698	101.31
512.914	102.31
513.13	85.31
513.346	99.31
513.562	89.31
513.778	90.31
513.994	95.31
514.21	87.31
514.426	90.31
514.642	96.31
514.858	80.31
515.074	96.31
515.29	94.31
515.506	80.31
515.721	92.31
515.937	97.31
516.153	100.31
516.369	89.31
516.585	80.31
516.801	90.31
517.016	78.31
517.232	88.31
517.448	93.31
517.664	99.31
517.879	86.31
518.095	94.31
518.311	85.31
