Data from StA_HRD10591_039.txt Node
Date: Fri May 16 15:19:03 EDT 2025
User: Yrep
Spectrometer: HR+D1059
Trigger mode: 1
Integration Time (sec): 1.000000E-1
Scans to average: 1
Electric dark correction enabled: true
Nonlinearity correction enabled: false
Boxcar width: 0
XAxis mode: Wavelengths
Number of Pixels in Spectrum: 2048
>>>>>Begin Spectral Data<<<<<
223.165	-19.94
223.4	-19.94
223.635	-19.94
223.869	-14.94
224.104	-16.94
224.338	-23.94
224.573	-10.94
224.808	-15.94
225.042	10.06
225.277	-6.94
225.511	-4.94
225.746	4.06
225.98	9.06
226.215	5.06
226.449	14.06
226.683	27.06
226.918	11.06
227.152	34.06
227.387	40.06
227.621	37.06
227.856	46.06
228.09	38.06
228.324	41.06
228.559	48.06
228.793	54.06
229.027	71.06
229.262	73.06
229.496	83.06
229.73	75.06
229.964	82.06
230.199	83.06
230.433	77.06
230.667	89.06
230.901	77.06
231.136	85.06
231.37	86.06
231.604	83.06
231.838	85.06
232.072	94.06
232.306	74.06
232.541	86.06
232.775	106.06
233.009	84.06
233.243	98.06
233.477	93.06
233.711	91.06
233.945	84.06
234.179	86.06
234.413	92.06
234.647	92.06
234.881	89.06
235.115	85.06
235.349	83.06
235.583	97.06
235.817	79.06
236.051	89.06
236.285	81.06
236.519	74.06
236.753	85.06
236.987	78.06
237.221	78.06
237.455	92.06
237.689	75.06
237.922	85.06
238.156	86.06
238.39	85.06
238.624	81.06
238.858	85.06
239.091	96.06
239.325	87.06
239.559	83.06
239.793	84.06
240.027	85.06
240.26	89.06
240.494	83.06
240.728	84.06
240.961	88.06
241.195	87.06
241.429	91.06
241.662	96.06
241.896	86.06
242.13	104.06
242.363	93.06
242.597	82.06
242.83	105.06
243.064	90.06
243.298	89.06
243.531	90.06
243.765	98.06
243.998	92.06
244.232	96.06
244.465	99.06
244.699	104.06
244.932	97.06
245.166	79.06
245.399	88.06
245.633	107.06
245.866	110.06
246.099	99.06
246.333	112.06
246.566	108.06
246.8	124.06
247.033	104.06
247.266	105.06
247.5	107.06
247.733	106.06
247.966	99.06
248.2	119.06
248.433	96.06
248.666	114.06
248.899	118.06
249.133	113.06
249.366	122.06
249.599	123.06
249.832	121.06
250.066	124.06
250.299	125.06
250.532	115.06
250.765	110.06
250.998	120.06
251.231	116.06
251.465	114.06
251.698	150.06
251.931	150.06
252.164	129.06
252.397	149.06
252.63	154.06
252.863	134.06
253.096	141.06
253.329	152.06
253.562	157.06
253.795	129.06
254.028	140.06
254.261	152.06
254.494	126.06
254.727	142.06
254.96	145.06
255.193	138.06
255.426	144.06
255.659	141.06
255.892	138.06
256.124	157.06
256.357	166.06
256.59	156.06
256.823	158.06
257.056	155.06
257.289	168.06
257.521	187.06
257.754	152.06
257.987	157.06
258.22	161.06
258.452	150.06
258.685	152.06
258.918	163.06
259.151	164.06
259.383	165.06
259.616	153.06
259.849	162.06
260.081	170.06
260.314	161.06
260.547	157.06
260.779	172.06
261.012	173.06
261.244	180.06
261.477	167.06
261.71	173.06
261.942	161.06
262.175	181.06
262.407	190.06
262.64	187.06
262.872	188.06
263.105	182.06
263.337	172.06
263.57	169.06
263.802	178.06
264.035	173.06
264.267	162.06
264.499	182.06
264.732	168.06
264.964	152.06
265.197	180.06
265.429	202.06
265.661	215.06
265.894	214.06
266.126	248.06
266.358	272.06
266.591	297.06
266.823	304.06
267.055	310.06
267.287	318.06
267.52	299.06
267.752	329.06
267.984	352.06
268.216	307.06
268.448	217.06
268.681	234.06
268.913	282.06
269.145	293.06
269.377	292.06
269.609	272.06
269.841	276.06
270.073	300.06
270.306	275.06
270.538	248.06
270.77	234.06
271.002	230.06
271.234	254.06
271.466	229.06
271.698	233.06
271.93	242.06
272.162	266.06
272.394	249.06
272.626	268.06
272.858	230.06
273.09	213.06
273.322	190.06
273.553	192.06
273.785	199.06
274.017	211.06
274.249	258.06
274.481	285.06
274.713	305.06
274.945	340.06
275.176	365.06
275.408	342.06
275.64	351.06
275.872	386.06
276.104	422.06
276.335	442.06
276.567	434.06
276.799	398.06
277.031	354.06
277.262	269.06
277.494	255.06
277.726	270.06
277.957	294.06
278.189	308.06
278.421	298.06
278.652	292.06
278.884	294.06
279.115	290.06
279.347	270.06
279.579	246.06
279.81	244.06
280.042	273.06
280.273	263.06
280.505	240.06
280.736	228.06
280.968	244.06
281.199	294.06
281.431	318.06
281.662	300.06
281.894	340.06
282.125	354.06
282.356	380.06
282.588	359.06
282.819	336.06
283.051	376.06
283.282	443.06
283.513	531.06
283.745	563.06
283.976	520.06
284.207	520.06
284.439	513.06
284.67	449.06
284.901	456.06
285.132	529.06
285.364	485.06
285.595	473.06
285.826	501.06
286.057	501.06
286.288	531.06
286.52	545.06
286.751	539.06
286.982	499.06
287.213	411.06
287.444	414.06
287.675	449.06
287.906	449.06
288.138	340.06
288.369	324.06
288.6	303.06
288.831	342.06
289.062	395.06
289.293	421.06
289.524	398.06
289.755	408.06
289.986	397.06
290.217	317.06
290.448	262.06
290.679	251.06
290.91	258.06
291.141	254.06
291.371	268.06
291.602	257.06
291.833	272.06
292.064	292.06
292.295	343.06
292.526	372.06
292.757	383.06
292.987	405.06
293.218	348.06
293.449	349.06
293.68	351.06
293.91	298.06
294.141	264.06
294.372	259.06
294.603	249.06
294.833	260.06
295.064	269.06
295.295	275.06
295.525	259.06
295.756	221.06
295.987	235.06
296.217	217.06
296.448	248.06
296.679	240.06
296.909	283.06
297.14	318.06
297.37	358.06
297.601	319.06
297.831	322.06
298.062	324.06
298.292	324.06
298.523	364.06
298.753	366.06
298.984	340.06
299.214	291.06
299.445	258.06
299.675	233.06
299.905	227.06
300.136	219.06
300.366	212.06
300.597	225.06
300.827	201.06
301.057	219.06
301.288	261.06
301.518	281.06
301.748	292.06
301.979	272.06
302.209	274.06
302.439	279.06
302.669	298.06
302.9	292.06
303.13	280.06
303.36	253.06
303.59	255.06
303.82	272.06
304.051	300.06
304.281	337.06
304.511	298.06
304.741	283.06
304.971	298.06
305.201	310.06
305.431	272.06
305.661	237.06
305.891	219.06
306.121	217.06
306.352	190.06
306.582	190.06
306.812	188.06
307.042	188.06
307.272	195.06
307.502	220.06
307.731	189.06
307.961	204.06
308.191	189.06
308.421	185.06
308.651	205.06
308.881	198.06
309.111	208.06
309.341	220.06
309.571	225.06
309.8	240.06
310.03	204.06
310.26	204.06
310.49	220.06
310.72	222.06
310.949	238.06
311.179	248.06
311.409	294.06
311.639	355.06
311.868	466.06
312.098	553.06
312.328	573.06
312.557	546.06
312.787	515.06
313.017	490.06
313.246	531.06
313.476	490.06
313.706	412.06
313.935	326.06
314.165	261.06
314.394	253.06
314.624	275.06
314.853	269.06
315.083	271.06
315.312	251.06
315.542	230.06
315.771	222.06
316.001	209.06
316.23	215.06
316.46	204.06
316.689	199.06
316.919	195.06
317.148	223.06
317.377	219.06
317.607	238.06
317.836	256.06
318.065	283.06
318.295	294.06
318.524	263.06
318.753	226.06
318.983	208.06
319.212	208.06
319.441	230.06
319.67	267.06
319.9	302.06
320.129	256.06
320.358	226.06
320.587	230.06
320.816	255.06
321.046	275.06
321.275	272.06
321.504	229.06
321.733	257.06
321.962	267.06
322.191	216.06
322.42	209.06
322.649	188.06
322.878	210.06
323.108	210.06
323.337	222.06
323.566	236.06
323.795	230.06
324.024	225.06
324.253	215.06
324.482	198.06
324.71	192.06
324.939	204.06
325.168	200.06
325.397	197.06
325.626	201.06
325.855	203.06
326.084	201.06
326.313	199.06
326.542	238.06
326.77	213.06
326.999	208.06
327.228	204.06
327.457	188.06
327.686	180.06
327.914	187.06
328.143	195.06
328.372	202.06
328.6	177.06
328.829	196.06
329.058	202.06
329.287	228.06
329.515	232.06
329.744	219.06
329.972	187.06
330.201	195.06
330.43	203.06
330.658	229.06
330.887	253.06
331.115	246.06
331.344	269.06
331.572	232.06
331.801	204.06
332.03	222.06
332.258	254.06
332.486	269.06
332.715	250.06
332.943	242.06
333.172	240.06
333.4	258.06
333.629	315.06
333.857	314.06
334.085	308.06
334.314	305.06
334.542	264.06
334.771	252.06
334.999	264.06
335.227	270.06
335.455	261.06
335.684	306.06
335.912	360.06
336.14	368.06
336.369	332.06
336.597	370.06
336.825	375.06
337.053	338.06
337.281	282.06
337.51	253.06
337.738	258.06
337.966	288.06
338.194	293.06
338.422	244.06
338.65	228.06
338.878	242.06
339.106	244.06
339.334	247.06
339.562	262.06
339.79	228.06
340.018	244.06
340.246	270.06
340.474	310.06
340.702	302.06
340.93	324.06
341.158	279.06
341.386	216.06
341.614	212.06
341.842	241.06
342.07	316.06
342.298	331.06
342.526	307.06
342.754	234.06
342.981	234.06
343.209	229.06
343.437	261.06
343.665	235.06
343.893	203.06
344.12	207.06
344.348	209.06
344.576	211.06
344.804	204.06
345.031	217.06
345.259	212.06
345.487	208.06
345.714	221.06
345.942	215.06
346.17	198.06
346.397	180.06
346.625	186.06
346.853	181.06
347.08	165.06
347.308	201.06
347.535	195.06
347.763	168.06
347.99	190.06
348.218	193.06
348.445	178.06
348.673	171.06
348.9	180.06
349.128	178.06
349.355	193.06
349.583	187.06
349.81	183.06
350.037	172.06
350.265	164.06
350.492	175.06
350.72	172.06
350.947	174.06
351.174	179.06
351.402	175.06
351.629	177.06
351.856	173.06
352.083	181.06
352.311	183.06
352.538	173.06
352.765	166.06
352.992	171.06
353.22	177.06
353.447	165.06
353.674	168.06
353.901	186.06
354.128	180.06
354.355	166.06
354.583	173.06
354.81	199.06
355.037	198.06
355.264	181.06
355.491	176.06
355.718	182.06
355.945	194.06
356.172	193.06
356.399	199.06
356.626	212.06
356.853	199.06
357.08	201.06
357.307	213.06
357.534	242.06
357.761	294.06
357.988	336.06
358.215	281.06
358.441	234.06
358.668	257.06
358.895	236.06
359.122	262.06
359.349	296.06
359.576	289.06
359.802	229.06
360.029	210.06
360.256	250.06
360.483	281.06
360.709	296.06
360.936	231.06
361.163	208.06
361.39	189.06
361.616	189.06
361.843	201.06
362.07	183.06
362.296	170.06
362.523	193.06
362.749	186.06
362.976	184.06
363.203	204.06
363.429	208.06
363.656	206.06
363.882	217.06
364.109	232.06
364.335	201.06
364.562	193.06
364.788	186.06
365.015	208.06
365.241	207.06
365.468	196.06
365.694	199.06
365.92	187.06
366.147	183.06
366.373	201.06
366.599	207.06
366.826	189.06
367.052	165.06
367.278	185.06
367.505	177.06
367.731	203.06
367.957	204.06
368.184	189.06
368.41	186.06
368.636	179.06
368.862	210.06
369.089	178.06
369.315	169.06
369.541	188.06
369.767	190.06
369.993	182.06
370.219	192.06
370.445	180.06
370.672	183.06
370.898	186.06
371.124	173.06
371.35	189.06
371.576	212.06
371.802	201.06
372.028	173.06
372.254	179.06
372.48	187.06
372.706	182.06
372.932	184.06
373.158	192.06
373.384	185.06
373.61	185.06
373.835	180.06
374.061	198.06
374.287	214.06
374.513	228.06
374.739	218.06
374.965	208.06
375.191	181.06
375.416	182.06
375.642	192.06
375.868	193.06
376.094	190.06
376.319	184.06
376.545	197.06
376.771	194.06
376.997	202.06
377.222	192.06
377.448	172.06
377.674	181.06
377.899	185.06
378.125	180.06
378.35	183.06
378.576	173.06
378.802	190.06
379.027	196.06
379.253	198.06
379.478	188.06
379.704	189.06
379.929	200.06
380.155	182.06
380.38	179.06
380.606	226.06
380.831	204.06
381.057	189.06
381.282	184.06
381.507	202.06
381.733	202.06
381.958	197.06
382.184	194.06
382.409	187.06
382.634	211.06
382.86	190.06
383.085	215.06
383.31	194.06
383.535	204.06
383.761	209.06
383.986	201.06
384.211	212.06
384.436	204.06
384.662	199.06
384.887	229.06
385.112	230.06
385.337	224.06
385.562	219.06
385.787	216.06
386.013	213.06
386.238	188.06
386.463	221.06
386.688	231.06
386.913	200.06
387.138	208.06
387.363	221.06
387.588	220.06
387.813	209.06
388.038	203.06
388.263	226.06
388.488	214.06
388.713	215.06
388.938	218.06
389.163	205.06
389.387	196.06
389.612	188.06
389.837	202.06
390.062	180.06
390.287	202.06
390.512	226.06
390.736	211.06
390.961	220.06
391.186	229.06
391.411	213.06
391.636	228.06
391.86	232.06
392.085	216.06
392.31	211.06
392.534	204.06
392.759	210.06
392.984	209.06
393.208	196.06
393.433	194.06
393.658	184.06
393.882	198.06
394.107	199.06
394.331	208.06
394.556	192.06
394.78	204.06
395.005	208.06
395.229	198.06
395.454	227.06
395.678	197.06
395.903	198.06
396.127	226.06
396.352	242.06
396.576	242.06
396.801	240.06
397.025	259.06
397.249	238.06
397.474	240.06
397.698	249.06
397.922	233.06
398.147	231.06
398.371	252.06
398.595	250.06
398.82	240.06
399.044	259.06
399.268	254.06
399.492	258.06
399.717	242.06
399.941	253.06
400.165	264.06
400.389	248.06
400.613	213.06
400.837	225.06
401.062	225.06
401.286	227.06
401.51	217.06
401.734	210.06
401.958	219.06
402.182	216.06
402.406	234.06
402.63	215.06
402.854	229.06
403.078	217.06
403.302	213.06
403.526	234.06
403.75	237.06
403.974	254.06
404.198	229.06
404.422	231.06
404.645	226.06
404.869	227.06
405.093	236.06
405.317	223.06
405.541	213.06
405.765	210.06
405.988	221.06
406.212	224.06
406.436	236.06
406.66	226.06
406.883	212.06
407.107	244.06
407.331	227.06
407.555	240.06
407.778	239.06
408.002	229.06
408.226	215.06
408.449	224.06
408.673	222.06
408.896	215.06
409.12	232.06
409.344	230.06
409.567	218.06
409.791	229.06
410.014	230.06
410.238	211.06
410.461	223.06
410.685	213.06
410.908	228.06
411.132	210.06
411.355	225.06
411.578	214.06
411.802	228.06
412.025	229.06
412.249	224.06
412.472	228.06
412.695	234.06
412.919	237.06
413.142	238.06
413.365	221.06
413.589	222.06
413.812	214.06
414.035	220.06
414.258	236.06
414.482	226.06
414.705	224.06
414.928	202.06
415.151	216.06
415.374	220.06
415.597	225.06
415.821	224.06
416.044	213.06
416.267	216.06
416.49	232.06
416.713	227.06
416.936	211.06
417.159	212.06
417.382	217.06
417.605	215.06
417.828	212.06
418.051	194.06
418.274	226.06
418.497	210.06
418.72	218.06
418.943	192.06
419.166	231.06
419.389	206.06
419.611	224.06
419.834	218.06
420.057	227.06
420.28	213.06
420.503	216.06
420.726	227.06
420.948	206.06
421.171	214.06
421.394	204.06
421.617	197.06
421.839	204.06
422.062	220.06
422.285	220.06
422.507	218.06
422.73	228.06
422.953	210.06
423.175	194.06
423.398	217.06
423.621	211.06
423.843	205.06
424.066	232.06
424.288	227.06
424.511	214.06
424.733	216.06
424.956	218.06
425.178	242.06
425.401	315.06
425.623	366.06
425.846	253.06
426.068	248.06
426.291	233.06
426.513	229.06
426.735	233.06
426.958	248.06
427.18	250.06
427.402	285.06
427.625	331.06
427.847	273.06
428.069	234.06
428.292	226.06
428.514	220.06
428.736	242.06
428.958	284.06
429.181	314.06
429.403	239.06
429.625	243.06
429.847	222.06
430.069	209.06
430.292	221.06
430.514	209.06
430.736	200.06
430.958	195.06
431.18	199.06
431.402	216.06
431.624	190.06
431.846	187.06
432.068	204.06
432.29	214.06
432.512	218.06
432.734	202.06
432.956	210.06
433.178	208.06
433.4	228.06
433.622	227.06
433.844	253.06
434.066	281.06
434.287	255.06
434.509	262.06
434.731	262.06
434.953	245.06
435.175	243.06
435.397	262.06
435.618	219.06
435.84	214.06
436.062	228.06
436.284	213.06
436.505	217.06
436.727	204.06
436.949	208.06
437.17	213.06
437.392	214.06
437.614	213.06
437.835	193.06
438.057	201.06
438.278	206.06
438.5	209.06
438.721	199.06
438.943	201.06
439.165	200.06
439.386	208.06
439.608	213.06
439.829	209.06
440.05	201.06
440.272	198.06
440.493	215.06
440.715	198.06
440.936	196.06
441.158	226.06
441.379	208.06
441.6	209.06
441.822	213.06
442.043	197.06
442.264	213.06
442.486	200.06
442.707	222.06
442.928	219.06
443.149	229.06
443.371	224.06
443.592	205.06
443.813	224.06
444.034	206.06
444.255	206.06
444.476	193.06
444.698	214.06
444.919	229.06
445.14	296.06
445.361	249.06
445.582	226.06
445.803	213.06
446.024	218.06
446.245	219.06
446.466	215.06
446.687	199.06
446.908	202.06
447.129	197.06
447.35	202.06
447.571	201.06
447.792	188.06
448.013	200.06
448.234	197.06
448.455	198.06
448.675	204.06
448.896	190.06
449.117	208.06
449.338	195.06
449.559	209.06
449.779	226.06
450	223.06
450.221	200.06
450.442	204.06
450.662	210.06
450.883	198.06
451.104	204.06
451.324	196.06
451.545	196.06
451.766	207.06
451.986	200.06
452.207	200.06
452.428	211.06
452.648	210.06
452.869	218.06
453.089	204.06
453.31	212.06
453.53	206.06
453.751	210.06
453.971	226.06
454.192	227.06
454.412	217.06
454.633	213.06
454.853	198.06
455.073	185.06
455.294	178.06
455.514	195.06
455.734	200.06
455.955	219.06
456.175	221.06
456.395	213.06
456.616	203.06
456.836	187.06
457.056	190.06
457.276	192.06
457.497	201.06
457.717	188.06
457.937	194.06
458.157	207.06
458.377	184.06
458.598	193.06
458.818	202.06
459.038	229.06
459.258	215.06
459.478	214.06
459.698	216.06
459.918	204.06
460.138	214.06
460.358	225.06
460.578	237.06
460.798	213.06
461.018	214.06
461.238	214.06
461.458	244.06
461.678	257.06
461.898	266.06
462.118	238.06
462.338	254.06
462.558	246.06
462.777	272.06
462.997	253.06
463.217	248.06
463.437	252.06
463.657	237.06
463.876	231.06
464.096	252.06
464.316	254.06
464.536	259.06
464.755	283.06
464.975	258.06
465.195	259.06
465.414	253.06
465.634	207.06
465.854	209.06
466.073	225.06
466.293	216.06
466.512	208.06
466.732	206.06
466.951	216.06
467.171	204.06
467.391	204.06
467.61	205.06
467.829	191.06
468.049	196.06
468.268	203.06
468.488	196.06
468.707	199.06
468.927	192.06
469.146	216.06
469.365	201.06
469.585	208.06
469.804	218.06
470.023	205.06
470.243	190.06
470.462	200.06
470.681	210.06
470.901	216.06
471.12	202.06
471.339	210.06
471.558	201.06
471.777	224.06
471.997	216.06
472.216	206.06
472.435	192.06
472.654	210.06
472.873	211.06
473.092	214.06
473.311	208.06
473.53	208.06
473.749	205.06
473.968	208.06
474.187	202.06
474.406	195.06
474.625	208.06
474.844	203.06
475.063	202.06
475.282	223.06
475.501	224.06
475.72	230.06
475.939	240.06
476.158	199.06
476.377	222.06
476.596	205.06
476.814	217.06
477.033	213.06
477.252	201.06
477.471	201.06
477.69	209.06
477.908	207.06
478.127	220.06
478.346	211.06
478.564	227.06
478.783	214.06
479.002	256.06
479.22	246.06
479.439	222.06
479.658	209.06
479.876	232.06
480.095	236.06
480.313	244.06
480.532	234.06
480.751	217.06
480.969	221.06
481.188	228.06
481.406	220.06
481.624	222.06
481.843	212.06
482.061	226.06
482.28	225.06
482.498	237.06
482.717	240.06
482.935	241.06
483.153	251.06
483.372	230.06
483.59	213.06
483.808	216.06
484.027	215.06
484.245	227.06
484.463	200.06
484.681	252.06
484.9	228.06
485.118	230.06
485.336	240.06
485.554	224.06
485.772	249.06
485.99	229.06
486.209	242.06
486.427	257.06
486.645	230.06
486.863	236.06
487.081	240.06
487.299	265.06
487.517	233.06
487.735	244.06
487.953	226.06
488.171	242.06
488.389	232.06
488.607	244.06
488.825	273.06
489.043	246.06
489.261	234.06
489.479	224.06
489.696	229.06
489.914	216.06
490.132	228.06
490.35	246.06
490.568	235.06
490.786	234.06
491.003	234.06
491.221	238.06
491.439	235.06
491.657	224.06
491.874	216.06
492.092	250.06
492.31	298.06
492.527	268.06
492.745	249.06
492.963	232.06
493.18	247.06
493.398	259.06
493.615	247.06
493.833	246.06
494.05	249.06
494.268	248.06
494.485	240.06
494.703	251.06
494.92	264.06
495.138	241.06
495.355	247.06
495.573	249.06
495.79	243.06
496.008	261.06
496.225	252.06
496.442	242.06
496.66	264.06
496.877	278.06
497.094	251.06
497.312	255.06
497.529	254.06
497.746	266.06
497.963	272.06
498.181	266.06
498.398	267.06
498.615	295.06
498.832	289.06
499.049	305.06
499.267	319.06
499.484	334.06
499.701	330.06
499.918	356.06
500.135	360.06
500.352	386.06
500.569	377.06
500.786	374.06
501.003	357.06
501.22	352.06
501.437	340.06
501.654	318.06
501.871	311.06
502.088	296.06
502.305	275.06
502.522	286.06
502.739	282.06
502.956	279.06
503.172	273.06
503.389	266.06
503.606	268.06
503.823	265.06
