Data from StA_HRD10591_099.txt Node
Date: Fri May 16 15:19:32 EDT 2025
User: Yrep
Spectrometer: HR+D1059
Trigger mode: 1
Integration Time (sec): 1.000000E-1
Scans to average: 1
Electric dark correction enabled: true
Nonlinearity correction enabled: false
Boxcar width: 0
XAxis mode: Wavelengths
Number of Pixels in Spectrum: 2048
>>>>>Begin Spectral Data<<<<<
223.165	-13.75
223.4	-13.75
223.635	-13.75
223.869	-17.75
224.104	-21.75
224.338	-15.75
224.573	-6.75
224.808	-12.75
225.042	-15.75
225.277	-5.75
225.511	6.25
225.746	-9.75
225.98	-12.75
226.215	18.25
226.449	24.25
226.683	24.25
226.918	30.25
227.152	29.25
227.387	27.25
227.621	44.25
227.856	41.25
228.09	58.25
228.324	46.25
228.559	57.25
228.793	53.25
229.027	50.25
229.262	67.25
229.496	72.25
229.73	69.25
229.964	60.25
230.199	58.25
230.433	50.25
230.667	76.25
230.901	81.25
231.136	59.25
231.37	93.25
231.604	83.25
231.838	86.25
232.072	68.25
232.306	78.25
232.541	72.25
232.775	76.25
233.009	81.25
233.243	86.25
233.477	84.25
233.711	83.25
233.945	66.25
234.179	79.25
234.413	91.25
234.647	79.25
234.881	71.25
235.115	73.25
235.349	86.25
235.583	65.25
235.817	68.25
236.051	82.25
236.285	71.25
236.519	64.25
236.753	87.25
236.987	82.25
237.221	77.25
237.455	75.25
237.689	65.25
237.922	59.25
238.156	80.25
238.39	57.25
238.624	82.25
238.858	73.25
239.091	77.25
239.325	83.25
239.559	75.25
239.793	67.25
240.027	76.25
240.26	59.25
240.494	60.25
240.728	69.25
240.961	66.25
241.195	88.25
241.429	90.25
241.662	82.25
241.896	61.25
242.13	75.25
242.363	68.25
242.597	57.25
242.83	79.25
243.064	69.25
243.298	68.25
243.531	72.25
243.765	82.25
243.998	64.25
244.232	70.25
244.465	62.25
244.699	82.25
244.932	93.25
245.166	72.25
245.399	70.25
245.633	84.25
245.866	78.25
246.099	76.25
246.333	75.25
246.566	67.25
246.8	71.25
247.033	80.25
247.266	83.25
247.5	64.25
247.733	70.25
247.966	78.25
248.2	75.25
248.433	64.25
248.666	86.25
248.899	61.25
249.133	80.25
249.366	82.25
249.599	80.25
249.832	82.25
250.066	72.25
250.299	83.25
250.532	71.25
250.765	73.25
250.998	68.25
251.231	86.25
251.465	62.25
251.698	68.25
251.931	76.25
252.164	76.25
252.397	81.25
252.63	74.25
252.863	78.25
253.096	60.25
253.329	79.25
253.562	92.25
253.795	69.25
254.028	86.25
254.261	80.25
254.494	80.25
254.727	79.25
254.96	75.25
255.193	70.25
255.426	76.25
255.659	82.25
255.892	88.25
256.124	71.25
256.357	100.25
256.59	70.25
256.823	62.25
257.056	78.25
257.289	78.25
257.521	73.25
257.754	74.25
257.987	85.25
258.22	82.25
258.452	78.25
258.685	70.25
258.918	80.25
259.151	86.25
259.383	91.25
259.616	91.25
259.849	83.25
260.081	83.25
260.314	68.25
260.547	77.25
260.779	70.25
261.012	79.25
261.244	87.25
261.477	87.25
261.71	75.25
261.942	80.25
262.175	75.25
262.407	81.25
262.64	87.25
262.872	69.25
263.105	68.25
263.337	85.25
263.57	82.25
263.802	86.25
264.035	72.25
264.267	78.25
264.499	86.25
264.732	74.25
264.964	84.25
265.197	79.25
265.429	72.25
265.661	77.25
265.894	93.25
266.126	93.25
266.358	84.25
266.591	76.25
266.823	81.25
267.055	66.25
267.287	75.25
267.52	78.25
267.752	73.25
267.984	69.25
268.216	72.25
268.448	71.25
268.681	93.25
268.913	87.25
269.145	77.25
269.377	82.25
269.609	99.25
269.841	81.25
270.073	74.25
270.306	91.25
270.538	98.25
270.77	90.25
271.002	82.25
271.234	82.25
271.466	84.25
271.698	77.25
271.93	81.25
272.162	62.25
272.394	68.25
272.626	82.25
272.858	68.25
273.09	79.25
273.322	69.25
273.553	87.25
273.785	82.25
274.017	85.25
274.249	64.25
274.481	82.25
274.713	78.25
274.945	87.25
275.176	85.25
275.408	79.25
275.64	88.25
275.872	85.25
276.104	81.25
276.335	81.25
276.567	86.25
276.799	90.25
277.031	87.25
277.262	96.25
277.494	78.25
277.726	87.25
277.957	76.25
278.189	89.25
278.421	87.25
278.652	90.25
278.884	73.25
279.115	72.25
279.347	87.25
279.579	89.25
279.81	86.25
280.042	78.25
280.273	80.25
280.505	93.25
280.736	84.25
280.968	74.25
281.199	71.25
281.431	76.25
281.662	84.25
281.894	83.25
282.125	79.25
282.356	83.25
282.588	87.25
282.819	74.25
283.051	76.25
283.282	74.25
283.513	92.25
283.745	78.25
283.976	85.25
284.207	88.25
284.439	83.25
284.67	101.25
284.901	97.25
285.132	87.25
285.364	84.25
285.595	92.25
285.826	93.25
286.057	98.25
286.288	85.25
286.52	100.25
286.751	98.25
286.982	96.25
287.213	100.25
287.444	99.25
287.675	78.25
287.906	86.25
288.138	78.25
288.369	82.25
288.6	92.25
288.831	86.25
289.062	90.25
289.293	86.25
289.524	81.25
289.755	80.25
289.986	72.25
290.217	90.25
290.448	92.25
290.679	87.25
290.91	100.25
291.141	94.25
291.371	82.25
291.602	85.25
291.833	92.25
292.064	76.25
292.295	86.25
292.526	79.25
292.757	89.25
292.987	84.25
293.218	83.25
293.449	94.25
293.68	73.25
293.91	74.25
294.141	87.25
294.372	73.25
294.603	79.25
294.833	79.25
295.064	83.25
295.295	85.25
295.525	88.25
295.756	82.25
295.987	76.25
296.217	91.25
296.448	86.25
296.679	72.25
296.909	100.25
297.14	86.25
297.37	87.25
297.601	79.25
297.831	83.25
298.062	91.25
298.292	78.25
298.523	65.25
298.753	91.25
298.984	98.25
299.214	94.25
299.445	86.25
299.675	91.25
299.905	96.25
300.136	80.25
300.366	72.25
300.597	76.25
300.827	80.25
301.057	89.25
301.288	82.25
301.518	79.25
301.748	97.25
301.979	123.25
302.209	88.25
302.439	92.25
302.669	88.25
302.9	88.25
303.13	84.25
303.36	96.25
303.59	85.25
303.82	90.25
304.051	88.25
304.281	89.25
304.511	82.25
304.741	72.25
304.971	98.25
305.201	98.25
305.431	83.25
305.661	87.25
305.891	94.25
306.121	88.25
306.352	77.25
306.582	88.25
306.812	75.25
307.042	90.25
307.272	84.25
307.502	82.25
307.731	92.25
307.961	82.25
308.191	76.25
308.421	78.25
308.651	87.25
308.881	78.25
309.111	72.25
309.341	80.25
309.571	68.25
309.8	91.25
310.03	78.25
310.26	76.25
310.49	73.25
310.72	86.25
310.949	74.25
311.179	94.25
311.409	93.25
311.639	81.25
311.868	91.25
312.098	106.25
312.328	82.25
312.557	83.25
312.787	75.25
313.017	83.25
313.246	90.25
313.476	91.25
313.706	85.25
313.935	92.25
314.165	78.25
314.394	92.25
314.624	79.25
314.853	79.25
315.083	81.25
315.312	70.25
315.542	83.25
315.771	86.25
316.001	87.25
316.23	61.25
316.46	82.25
316.689	70.25
316.919	83.25
317.148	79.25
317.377	86.25
317.607	96.25
317.836	87.25
318.065	72.25
318.295	85.25
318.524	86.25
318.753	84.25
318.983	88.25
319.212	77.25
319.441	82.25
319.67	83.25
319.9	88.25
320.129	82.25
320.358	65.25
320.587	85.25
320.816	93.25
321.046	78.25
321.275	78.25
321.504	88.25
321.733	85.25
321.962	74.25
322.191	88.25
322.42	88.25
322.649	88.25
322.878	72.25
323.108	87.25
323.337	84.25
323.566	84.25
323.795	77.25
324.024	81.25
324.253	84.25
324.482	82.25
324.71	88.25
324.939	72.25
325.168	84.25
325.397	80.25
325.626	73.25
325.855	77.25
326.084	90.25
326.313	79.25
326.542	89.25
326.77	92.25
326.999	77.25
327.228	82.25
327.457	85.25
327.686	81.25
327.914	83.25
328.143	92.25
328.372	71.25
328.6	94.25
328.829	84.25
329.058	89.25
329.287	99.25
329.515	77.25
329.744	82.25
329.972	79.25
330.201	73.25
330.43	72.25
330.658	74.25
330.887	87.25
331.115	84.25
331.344	77.25
331.572	76.25
331.801	83.25
332.03	73.25
332.258	83.25
332.486	91.25
332.715	76.25
332.943	91.25
333.172	82.25
333.4	93.25
333.629	97.25
333.857	74.25
334.085	88.25
334.314	105.25
334.542	84.25
334.771	86.25
334.999	85.25
335.227	92.25
335.455	76.25
335.684	76.25
335.912	76.25
336.14	91.25
336.369	78.25
336.597	93.25
336.825	85.25
337.053	81.25
337.281	72.25
337.51	71.25
337.738	82.25
337.966	79.25
338.194	84.25
338.422	84.25
338.65	86.25
338.878	86.25
339.106	90.25
339.334	92.25
339.562	78.25
339.79	84.25
340.018	74.25
340.246	80.25
340.474	109.25
340.702	88.25
340.93	98.25
341.158	64.25
341.386	86.25
341.614	71.25
341.842	88.25
342.07	95.25
342.298	94.25
342.526	80.25
342.754	74.25
342.981	76.25
343.209	95.25
343.437	94.25
343.665	89.25
343.893	90.25
344.12	70.25
344.348	70.25
344.576	89.25
344.804	72.25
345.031	90.25
345.259	61.25
345.487	79.25
345.714	79.25
345.942	75.25
346.17	78.25
346.397	93.25
346.625	82.25
346.853	82.25
347.08	78.25
347.308	98.25
347.535	71.25
347.763	90.25
347.99	84.25
348.218	90.25
348.445	70.25
348.673	74.25
348.9	76.25
349.128	77.25
349.355	81.25
349.583	70.25
349.81	89.25
350.037	77.25
350.265	75.25
350.492	65.25
350.72	79.25
350.947	92.25
351.174	89.25
351.402	78.25
351.629	85.25
351.856	82.25
352.083	80.25
352.311	82.25
352.538	83.25
352.765	80.25
352.992	95.25
353.22	82.25
353.447	74.25
353.674	85.25
353.901	76.25
354.128	88.25
354.355	86.25
354.583	77.25
354.81	89.25
355.037	75.25
355.264	88.25
355.491	84.25
355.718	81.25
355.945	78.25
356.172	84.25
356.399	88.25
356.626	84.25
356.853	82.25
357.08	88.25
357.307	91.25
357.534	98.25
357.761	106.25
357.988	119.25
358.215	109.25
358.441	103.25
358.668	99.25
358.895	104.25
359.122	103.25
359.349	111.25
359.576	104.25
359.802	93.25
360.029	91.25
360.256	110.25
360.483	110.25
360.709	100.25
360.936	104.25
361.163	95.25
361.39	95.25
361.616	76.25
361.843	88.25
362.07	91.25
362.296	95.25
362.523	92.25
362.749	86.25
362.976	88.25
363.203	93.25
363.429	89.25
363.656	85.25
363.882	89.25
364.109	89.25
364.335	86.25
364.562	71.25
364.788	93.25
365.015	90.25
365.241	80.25
365.468	95.25
365.694	86.25
365.92	80.25
366.147	79.25
366.373	88.25
366.599	91.25
366.826	87.25
367.052	92.25
367.278	77.25
367.505	82.25
367.731	93.25
367.957	74.25
368.184	91.25
368.41	90.25
368.636	89.25
368.862	94.25
369.089	95.25
369.315	83.25
369.541	73.25
369.767	88.25
369.993	84.25
370.219	79.25
370.445	80.25
370.672	76.25
370.898	89.25
371.124	81.25
371.35	78.25
371.576	72.25
371.802	84.25
372.028	76.25
372.254	88.25
372.48	99.25
372.706	92.25
372.932	76.25
373.158	78.25
373.384	80.25
373.61	87.25
373.835	73.25
374.061	78.25
374.287	91.25
374.513	95.25
374.739	77.25
374.965	84.25
375.191	77.25
375.416	77.25
375.642	81.25
375.868	86.25
376.094	91.25
376.319	75.25
376.545	75.25
376.771	84.25
376.997	81.25
377.222	87.25
377.448	71.25
377.674	90.25
377.899	90.25
378.125	88.25
378.35	75.25
378.576	82.25
378.802	84.25
379.027	83.25
379.253	79.25
379.478	74.25
379.704	94.25
379.929	95.25
380.155	81.25
380.38	90.25
380.606	94.25
380.831	86.25
381.057	77.25
381.282	70.25
381.507	86.25
381.733	100.25
381.958	83.25
382.184	86.25
382.409	80.25
382.634	86.25
382.86	85.25
383.085	89.25
383.31	89.25
383.535	77.25
383.761	86.25
383.986	82.25
384.211	62.25
384.436	74.25
384.662	86.25
384.887	99.25
385.112	92.25
385.337	88.25
385.562	86.25
385.787	86.25
386.013	90.25
386.238	87.25
386.463	78.25
386.688	95.25
386.913	86.25
387.138	87.25
387.363	87.25
387.588	98.25
387.813	84.25
388.038	77.25
388.263	92.25
388.488	90.25
388.713	99.25
388.938	104.25
389.163	72.25
389.387	75.25
389.612	83.25
389.837	103.25
390.062	87.25
390.287	94.25
390.512	95.25
390.736	83.25
390.961	93.25
391.186	88.25
391.411	92.25
391.636	72.25
391.86	90.25
392.085	103.25
392.31	87.25
392.534	88.25
392.759	81.25
392.984	91.25
393.208	93.25
393.433	94.25
393.658	94.25
393.882	79.25
394.107	93.25
394.331	98.25
394.556	74.25
394.78	86.25
395.005	71.25
395.229	94.25
395.454	82.25
395.678	68.25
395.903	72.25
396.127	79.25
396.352	92.25
396.576	94.25
396.801	85.25
397.025	81.25
397.249	87.25
397.474	74.25
397.698	87.25
397.922	74.25
398.147	85.25
398.371	93.25
398.595	92.25
398.82	86.25
399.044	72.25
399.268	96.25
399.492	91.25
399.717	74.25
399.941	74.25
400.165	82.25
400.389	92.25
400.613	70.25
400.837	70.25
401.062	73.25
401.286	86.25
401.51	83.25
401.734	78.25
401.958	88.25
402.182	88.25
402.406	82.25
402.63	94.25
402.854	76.25
403.078	95.25
403.302	69.25
403.526	74.25
403.75	82.25
403.974	75.25
404.198	84.25
404.422	73.25
404.645	75.25
404.869	74.25
405.093	96.25
405.317	86.25
405.541	89.25
405.765	92.25
405.988	79.25
406.212	90.25
406.436	90.25
406.66	84.25
406.883	80.25
407.107	64.25
407.331	85.25
407.555	77.25
407.778	92.25
408.002	96.25
408.226	78.25
408.449	74.25
408.673	88.25
408.896	86.25
409.12	83.25
409.344	74.25
409.567	77.25
409.791	63.25
410.014	75.25
410.238	73.25
410.461	87.25
410.685	84.25
410.908	79.25
411.132	83.25
411.355	75.25
411.578	92.25
411.802	100.25
412.025	92.25
412.249	82.25
412.472	76.25
412.695	85.25
412.919	92.25
413.142	86.25
413.365	83.25
413.589	60.25
413.812	83.25
414.035	72.25
414.258	80.25
414.482	69.25
414.705	78.25
414.928	67.25
415.151	76.25
415.374	76.25
415.597	78.25
415.821	80.25
416.044	78.25
416.267	88.25
416.49	74.25
416.713	78.25
416.936	87.25
417.159	78.25
417.382	82.25
417.605	71.25
417.828	83.25
418.051	71.25
418.274	82.25
418.497	94.25
418.72	85.25
418.943	97.25
419.166	79.25
419.389	76.25
419.611	68.25
419.834	79.25
420.057	94.25
420.28	89.25
420.503	82.25
420.726	86.25
420.948	90.25
421.171	80.25
421.394	87.25
421.617	85.25
421.839	79.25
422.062	91.25
422.285	84.25
422.507	86.25
422.73	84.25
422.953	76.25
423.175	76.25
423.398	83.25
423.621	73.25
423.843	90.25
424.066	77.25
424.288	72.25
424.511	84.25
424.733	87.25
424.956	85.25
425.178	84.25
425.401	118.25
425.623	143.25
425.846	99.25
426.068	72.25
426.291	80.25
426.513	82.25
426.735	88.25
426.958	75.25
427.18	96.25
427.402	119.25
427.625	154.25
427.847	91.25
428.069	89.25
428.292	78.25
428.514	63.25
428.736	107.25
428.958	110.25
429.181	127.25
429.403	92.25
429.625	76.25
429.847	87.25
430.069	92.25
430.292	91.25
430.514	70.25
430.736	77.25
430.958	88.25
431.18	84.25
431.402	64.25
431.624	86.25
431.846	86.25
432.068	72.25
432.29	89.25
432.512	83.25
432.734	77.25
432.956	96.25
433.178	79.25
433.4	88.25
433.622	105.25
433.844	106.25
434.066	111.25
434.287	108.25
434.509	109.25
434.731	92.25
434.953	95.25
435.175	119.25
435.397	131.25
435.618	92.25
435.84	89.25
436.062	88.25
436.284	98.25
436.505	104.25
436.727	76.25
436.949	78.25
437.17	88.25
437.392	101.25
437.614	87.25
437.835	79.25
438.057	75.25
438.278	75.25
438.5	78.25
438.721	106.25
438.943	90.25
439.165	82.25
439.386	84.25
439.608	88.25
439.829	88.25
440.05	88.25
440.272	72.25
440.493	64.25
440.715	74.25
440.936	76.25
441.158	90.25
441.379	76.25
441.6	91.25
441.822	79.25
442.043	85.25
442.264	78.25
442.486	86.25
442.707	94.25
442.928	85.25
443.149	82.25
443.371	85.25
443.592	77.25
443.813	102.25
444.034	79.25
444.255	96.25
444.476	80.25
444.698	64.25
444.919	80.25
445.14	180.25
445.361	112.25
445.582	72.25
445.803	82.25
446.024	82.25
446.245	83.25
446.466	83.25
446.687	90.25
446.908	89.25
447.129	68.25
447.35	75.25
447.571	83.25
447.792	92.25
448.013	73.25
448.234	95.25
448.455	79.25
448.675	84.25
448.896	82.25
449.117	76.25
449.338	73.25
449.559	86.25
449.779	97.25
450	88.25
450.221	92.25
450.442	70.25
450.662	90.25
450.883	82.25
451.104	62.25
451.324	80.25
451.545	83.25
451.766	86.25
451.986	87.25
452.207	74.25
452.428	71.25
452.648	99.25
452.869	94.25
453.089	87.25
453.31	90.25
453.53	79.25
453.751	82.25
453.971	86.25
454.192	90.25
454.412	76.25
454.633	86.25
454.853	95.25
455.073	87.25
455.294	80.25
455.514	94.25
455.734	73.25
455.955	78.25
456.175	88.25
456.395	92.25
456.616	100.25
456.836	90.25
457.056	79.25
457.276	85.25
457.497	84.25
457.717	95.25
457.937	77.25
458.157	85.25
458.377	92.25
458.598	78.25
458.818	78.25
459.038	69.25
459.258	99.25
459.478	84.25
459.698	88.25
459.918	95.25
460.138	89.25
460.358	85.25
460.578	76.25
460.798	101.25
461.018	70.25
461.238	78.25
461.458	101.25
461.678	100.25
461.898	86.25
462.118	92.25
462.338	90.25
462.558	105.25
462.777	102.25
462.997	80.25
463.217	82.25
463.437	88.25
463.657	82.25
463.876	92.25
464.096	95.25
464.316	76.25
464.536	103.25
464.755	125.25
464.975	93.25
465.195	113.25
465.414	102.25
465.634	85.25
465.854	84.25
466.073	81.25
466.293	71.25
466.512	75.25
466.732	87.25
466.951	89.25
467.171	77.25
467.391	74.25
467.61	80.25
467.829	86.25
468.049	88.25
468.268	86.25
468.488	87.25
468.707	80.25
468.927	93.25
469.146	90.25
469.365	81.25
469.585	84.25
469.804	92.25
470.023	86.25
470.243	90.25
470.462	90.25
470.681	87.25
470.901	93.25
471.12	82.25
471.339	83.25
471.558	87.25
471.777	85.25
471.997	100.25
472.216	79.25
472.435	82.25
472.654	68.25
472.873	76.25
473.092	89.25
473.311	102.25
473.53	98.25
473.749	68.25
473.968	84.25
474.187	87.25
474.406	79.25
474.625	88.25
474.844	86.25
475.063	82.25
475.282	99.25
475.501	85.25
475.72	99.25
475.939	86.25
476.158	88.25
476.377	70.25
476.596	71.25
476.814	76.25
477.033	70.25
477.252	80.25
477.471	85.25
477.69	88.25
477.908	83.25
478.127	91.25
478.346	89.25
478.564	80.25
478.783	82.25
479.002	90.25
479.22	98.25
479.439	78.25
479.658	76.25
479.876	96.25
480.095	87.25
480.313	77.25
480.532	84.25
480.751	80.25
480.969	76.25
481.188	70.25
481.406	84.25
481.624	78.25
481.843	78.25
482.061	71.25
482.28	82.25
482.498	93.25
482.717	90.25
482.935	84.25
483.153	104.25
483.372	83.25
483.59	71.25
483.808	88.25
484.027	87.25
484.245	72.25
484.463	80.25
484.681	74.25
484.9	72.25
485.118	80.25
485.336	77.25
485.554	77.25
485.772	80.25
485.99	87.25
486.209	87.25
486.427	99.25
486.645	84.25
486.863	84.25
487.081	63.25
487.299	90.25
487.517	84.25
487.735	85.25
487.953	84.25
488.171	92.25
488.389	86.25
488.607	88.25
488.825	76.25
489.043	104.25
489.261	91.25
489.479	79.25
489.696	88.25
489.914	74.25
490.132	87.25
490.35	100.25
490.568	80.25
490.786	76.25
491.003	66.25
491.221	85.25
491.439	84.25
491.657	83.25
491.874	91.25
492.092	86.25
492.31	115.25
492.527	100.25
492.745	84.25
492.963	91.25
493.18	67.25
493.398	83.25
493.615	88.25
493.833	93.25
494.05	95.25
494.268	93.25
494.485	80.25
494.703	79.25
494.92	77.25
495.138	79.25
495.355	92.25
495.573	82.25
495.79	99.25
496.008	84.25
496.225	82.25
496.442	78.25
496.66	86.25
496.877	83.25
497.094	94.25
497.312	87.25
497.529	77.25
497.746	89.25
497.963	78.25
498.181	97.25
498.398	68.25
498.615	82.25
498.832	82.25
499.049	85.25
499.267	81.25
499.484	68.25
499.701	82.25
499.918	79.25
500.135	92.25
500.352	74.25
500.569	98.25
500.786	82.25
501.003	92.25
501.22	82.25
501.437	89.25
501.654	93.25
501.871	77.25
502.088	75.25
502.305	89.25
502.522	90.25
502.739	80.25
502.956	88.25
503.172	84.25
503.389	74.25
503.606	65.25
503.823	88.25
504.04	87.25
504.256	78.25
504.473	86.25
504.69	61.25
504.907	95.25
505.123	85.25
505.34	85.25
505.557	82.25
505.773	80.25
505.99	93.25
506.207	82.25
506.423	78.25
506.64	75.25
506.856	84.25
507.073	86.25
507.289	79.25
507.506	84.25
507.722	83.25
507.939	76.25
508.155	95.25
508.372	88.25
508.588	88.25
508.805	88.25
509.021	87.25
509.238	77.25
509.454	94.25
509.67	74.25
509.887	84.25
510.103	88.25
510.319	82.25
510.536	82.25
510.752	87.25
510.968	78.25
511.184	76.25
511.401	87.25
511.617	83.25
511.833	80.25
512.049	84.25
512.265	79.25
512.481	91.25
512.698	89.25
512.914	90.25
513.13	88.25
513.346	88.25
513.562	85.25
513.778	87.25
513.994	93.25
514.21	75.25
514.426	74.25
514.642	85.25
514.858	76.25
515.074	79.25
515.29	80.25
515.506	71.25
515.721	74.25
515.937	86.25
516.153	90.25
516.369	84.25
516.585	82.25
516.801	92.25
517.016	78.25
517.232	72.25
517.448	89.25
517.664	96.25
517.879	77.25
518.095	96.25
518.311	93.25
518.527	92.25
518.742	86.25
518.958	76.25
519.173	78.25
519.389	89.25
