Data from StA_HRD10591_031.txt Node
Date: Fri May 16 15:18:59 EDT 2025
User: Yrep
Spectrometer: HR+D1059
Trigger mode: 1
Integration Time (sec): 1.000000E-1
Scans to average: 1
Electric dark correction enabled: true
Nonlinearity correction enabled: false
Boxcar width: 0
XAxis mode: Wavelengths
Number of Pixels in Spectrum: 2048
>>>>>Begin Spectral Data<<<<<
223.165	-21.88
223.4	-21.88
223.635	-21.88
223.869	-21.88
224.104	-12.88
224.338	-18.88
224.573	-12.88
224.808	-5.88
225.042	-3.88
225.277	-0.88
225.511	1.12
225.746	4.12
225.98	8.12
226.215	2.12
226.449	-1.88
226.683	26.12
226.918	32.12
227.152	27.12
227.387	32.12
227.621	43.12
227.856	43.12
228.09	41.12
228.324	58.12
228.559	53.12
228.793	61.12
229.027	64.12
229.262	72.12
229.496	75.12
229.73	74.12
229.964	77.12
230.199	57.12
230.433	63.12
230.667	77.12
230.901	86.12
231.136	88.12
231.37	100.12
231.604	87.12
231.838	80.12
232.072	82.12
232.306	89.12
232.541	102.12
232.775	80.12
233.009	96.12
233.243	84.12
233.477	93.12
233.711	92.12
233.945	88.12
234.179	88.12
234.413	89.12
234.647	79.12
234.881	83.12
235.115	97.12
235.349	105.12
235.583	73.12
235.817	81.12
236.051	86.12
236.285	83.12
236.519	75.12
236.753	91.12
236.987	94.12
237.221	88.12
237.455	89.12
237.689	90.12
237.922	75.12
238.156	86.12
238.39	89.12
238.624	77.12
238.858	83.12
239.091	80.12
239.325	90.12
239.559	84.12
239.793	88.12
240.027	88.12
240.26	84.12
240.494	88.12
240.728	94.12
240.961	92.12
241.195	92.12
241.429	97.12
241.662	103.12
241.896	93.12
242.13	83.12
242.363	78.12
242.597	85.12
242.83	102.12
243.064	94.12
243.298	84.12
243.531	95.12
243.765	95.12
243.998	97.12
244.232	82.12
244.465	100.12
244.699	91.12
244.932	104.12
245.166	109.12
245.399	109.12
245.633	112.12
245.866	114.12
246.099	101.12
246.333	93.12
246.566	96.12
246.8	120.12
247.033	111.12
247.266	102.12
247.5	104.12
247.733	113.12
247.966	119.12
248.2	112.12
248.433	108.12
248.666	120.12
248.899	108.12
249.133	141.12
249.366	144.12
249.599	118.12
249.832	125.12
250.066	121.12
250.299	122.12
250.532	121.12
250.765	110.12
250.998	114.12
251.231	108.12
251.465	132.12
251.698	135.12
251.931	144.12
252.164	136.12
252.397	141.12
252.63	130.12
252.863	136.12
253.096	148.12
253.329	142.12
253.562	144.12
253.795	147.12
254.028	162.12
254.261	136.12
254.494	130.12
254.727	132.12
254.96	136.12
255.193	133.12
255.426	132.12
255.659	134.12
255.892	150.12
256.124	144.12
256.357	160.12
256.59	143.12
256.823	150.12
257.056	155.12
257.289	161.12
257.521	159.12
257.754	158.12
257.987	144.12
258.22	160.12
258.452	154.12
258.685	187.12
258.918	152.12
259.151	166.12
259.383	163.12
259.616	152.12
259.849	157.12
260.081	156.12
260.314	159.12
260.547	159.12
260.779	180.12
261.012	177.12
261.244	164.12
261.477	185.12
261.71	169.12
261.942	154.12
262.175	181.12
262.407	186.12
262.64	188.12
262.872	189.12
263.105	185.12
263.337	174.12
263.57	179.12
263.802	168.12
264.035	165.12
264.267	161.12
264.499	158.12
264.732	176.12
264.964	177.12
265.197	163.12
265.429	192.12
265.661	210.12
265.894	204.12
266.126	244.12
266.358	269.12
266.591	285.12
266.823	313.12
267.055	278.12
267.287	310.12
267.52	300.12
267.752	331.12
267.984	345.12
268.216	275.12
268.448	231.12
268.681	226.12
268.913	267.12
269.145	291.12
269.377	246.12
269.609	256.12
269.841	279.12
270.073	300.12
270.306	265.12
270.538	246.12
270.77	233.12
271.002	231.12
271.234	251.12
271.466	236.12
271.698	221.12
271.93	243.12
272.162	257.12
272.394	237.12
272.626	238.12
272.858	226.12
273.09	196.12
273.322	176.12
273.553	190.12
273.785	183.12
274.017	238.12
274.249	250.12
274.481	294.12
274.713	317.12
274.945	328.12
275.176	351.12
275.408	353.12
275.64	333.12
275.872	367.12
276.104	405.12
276.335	401.12
276.567	413.12
276.799	388.12
277.031	330.12
277.262	268.12
277.494	246.12
277.726	268.12
277.957	306.12
278.189	315.12
278.421	306.12
278.652	296.12
278.884	284.12
279.115	296.12
279.347	258.12
279.579	250.12
279.81	246.12
280.042	261.12
280.273	268.12
280.505	246.12
280.736	226.12
280.968	252.12
281.199	294.12
281.431	313.12
281.662	299.12
281.894	316.12
282.125	329.12
282.356	394.12
282.588	343.12
282.819	333.12
283.051	355.12
283.282	444.12
283.513	481.12
283.745	537.12
283.976	490.12
284.207	481.12
284.439	477.12
284.67	456.12
284.901	441.12
285.132	499.12
285.364	474.12
285.595	477.12
285.826	483.12
286.057	481.12
286.288	498.12
286.52	520.12
286.751	549.12
286.982	503.12
287.213	399.12
287.444	428.12
287.675	444.12
287.906	434.12
288.138	336.12
288.369	308.12
288.6	301.12
288.831	308.12
289.062	377.12
289.293	399.12
289.524	404.12
289.755	398.12
289.986	393.12
290.217	334.12
290.448	258.12
290.679	239.12
290.91	265.12
291.141	258.12
291.371	274.12
291.602	270.12
291.833	268.12
292.064	308.12
292.295	344.12
292.526	356.12
292.757	364.12
292.987	372.12
293.218	363.12
293.449	326.12
293.68	326.12
293.91	281.12
294.141	273.12
294.372	263.12
294.603	269.12
294.833	270.12
295.064	236.12
295.295	243.12
295.525	261.12
295.756	248.12
295.987	237.12
296.217	241.12
296.448	236.12
296.679	248.12
296.909	270.12
297.14	310.12
297.37	339.12
297.601	298.12
297.831	308.12
298.062	340.12
298.292	314.12
298.523	329.12
298.753	341.12
298.984	312.12
299.214	288.12
299.445	245.12
299.675	236.12
299.905	236.12
300.136	207.12
300.366	213.12
300.597	217.12
300.827	225.12
301.057	241.12
301.288	225.12
301.518	253.12
301.748	292.12
301.979	290.12
302.209	284.12
302.439	268.12
302.669	266.12
302.9	284.12
303.13	246.12
303.36	259.12
303.59	244.12
303.82	283.12
304.051	323.12
304.281	339.12
304.511	294.12
304.741	268.12
304.971	311.12
305.201	296.12
305.431	255.12
305.661	244.12
305.891	219.12
306.121	206.12
306.352	206.12
306.582	210.12
306.812	202.12
307.042	196.12
307.272	199.12
307.502	199.12
307.731	212.12
307.961	198.12
308.191	183.12
308.421	196.12
308.651	189.12
308.881	193.12
309.111	214.12
309.341	216.12
309.571	229.12
309.8	226.12
310.03	210.12
310.26	201.12
310.49	208.12
310.72	215.12
310.949	241.12
311.179	249.12
311.409	296.12
311.639	371.12
311.868	437.12
312.098	554.12
312.328	528.12
312.557	506.12
312.787	484.12
313.017	488.12
313.246	504.12
313.476	508.12
313.706	382.12
313.935	321.12
314.165	269.12
314.394	257.12
314.624	263.12
314.853	268.12
315.083	266.12
315.312	251.12
315.542	228.12
315.771	209.12
316.001	198.12
316.23	200.12
316.46	210.12
316.689	198.12
316.919	198.12
317.148	201.12
317.377	189.12
317.607	209.12
317.836	249.12
318.065	278.12
318.295	293.12
318.524	250.12
318.753	217.12
318.983	204.12
319.212	205.12
319.441	238.12
319.67	228.12
319.9	285.12
320.129	247.12
320.358	239.12
320.587	227.12
320.816	256.12
321.046	257.12
321.275	252.12
321.504	253.12
321.733	257.12
321.962	253.12
322.191	221.12
322.42	193.12
322.649	191.12
322.878	187.12
323.108	205.12
323.337	232.12
323.566	218.12
323.795	216.12
324.024	231.12
324.253	188.12
324.482	195.12
324.71	184.12
324.939	203.12
325.168	195.12
325.397	215.12
325.626	177.12
325.855	204.12
326.084	204.12
326.313	203.12
326.542	195.12
326.77	224.12
326.999	212.12
327.228	208.12
327.457	183.12
327.686	196.12
327.914	188.12
328.143	178.12
328.372	198.12
328.6	196.12
328.829	185.12
329.058	192.12
329.287	219.12
329.515	224.12
329.744	224.12
329.972	198.12
330.201	218.12
330.43	225.12
330.658	245.12
330.887	251.12
331.115	260.12
331.344	257.12
331.572	240.12
331.801	219.12
332.03	237.12
332.258	235.12
332.486	242.12
332.715	240.12
332.943	220.12
333.172	252.12
333.4	249.12
333.629	277.12
333.857	300.12
334.085	298.12
334.314	296.12
334.542	274.12
334.771	249.12
334.999	243.12
335.227	253.12
335.455	245.12
335.684	298.12
335.912	347.12
336.14	350.12
336.369	341.12
336.597	347.12
336.825	366.12
337.053	346.12
337.281	260.12
337.51	239.12
337.738	248.12
337.966	270.12
338.194	273.12
338.422	254.12
338.65	238.12
338.878	237.12
339.106	239.12
339.334	259.12
339.562	243.12
339.79	263.12
340.018	238.12
340.246	264.12
340.474	305.12
340.702	288.12
340.93	298.12
341.158	266.12
341.386	238.12
341.614	224.12
341.842	231.12
342.07	292.12
342.298	320.12
342.526	267.12
342.754	228.12
342.981	225.12
343.209	248.12
343.437	254.12
343.665	228.12
343.893	216.12
344.12	205.12
344.348	204.12
344.576	189.12
344.804	211.12
345.031	198.12
345.259	188.12
345.487	210.12
345.714	191.12
345.942	212.12
346.17	189.12
346.397	180.12
346.625	182.12
346.853	186.12
347.08	173.12
347.308	164.12
347.535	168.12
347.763	174.12
347.99	170.12
348.218	187.12
348.445	182.12
348.673	157.12
348.9	178.12
349.128	181.12
349.355	173.12
349.583	179.12
349.81	178.12
350.037	165.12
350.265	180.12
350.492	181.12
350.72	177.12
350.947	183.12
351.174	192.12
351.402	175.12
351.629	162.12
351.856	185.12
352.083	168.12
352.311	180.12
352.538	168.12
352.765	175.12
352.992	174.12
353.22	157.12
353.447	182.12
353.674	173.12
353.901	185.12
354.128	178.12
354.355	167.12
354.583	185.12
354.81	185.12
355.037	181.12
355.264	195.12
355.491	195.12
355.718	197.12
355.945	192.12
356.172	202.12
356.399	186.12
356.626	193.12
356.853	200.12
357.08	206.12
357.307	219.12
357.534	262.12
357.761	288.12
357.988	325.12
358.215	278.12
358.441	233.12
358.668	236.12
358.895	235.12
359.122	243.12
359.349	282.12
359.576	272.12
359.802	196.12
360.029	215.12
360.256	256.12
360.483	272.12
360.709	290.12
360.936	240.12
361.163	214.12
361.39	196.12
361.616	186.12
361.843	185.12
362.07	188.12
362.296	183.12
362.523	157.12
362.749	200.12
362.976	179.12
363.203	198.12
363.429	191.12
363.656	198.12
363.882	212.12
364.109	215.12
364.335	198.12
364.562	212.12
364.788	199.12
365.015	202.12
365.241	200.12
365.468	191.12
365.694	202.12
365.92	209.12
366.147	188.12
366.373	200.12
366.599	191.12
366.826	192.12
367.052	179.12
367.278	174.12
367.505	175.12
367.731	204.12
367.957	204.12
368.184	202.12
368.41	199.12
368.636	196.12
368.862	185.12
369.089	178.12
369.315	152.12
369.541	185.12
369.767	168.12
369.993	173.12
370.219	178.12
370.445	183.12
370.672	161.12
370.898	195.12
371.124	180.12
371.35	205.12
371.576	201.12
371.802	190.12
372.028	193.12
372.254	179.12
372.48	178.12
372.706	171.12
372.932	210.12
373.158	192.12
373.384	200.12
373.61	200.12
373.835	182.12
374.061	188.12
374.287	214.12
374.513	215.12
374.739	195.12
374.965	208.12
375.191	197.12
375.416	194.12
375.642	195.12
375.868	198.12
376.094	179.12
376.319	185.12
376.545	194.12
376.771	190.12
376.997	177.12
377.222	181.12
377.448	168.12
377.674	184.12
377.899	188.12
378.125	189.12
378.35	177.12
378.576	183.12
378.802	181.12
379.027	190.12
379.253	193.12
379.478	194.12
379.704	189.12
379.929	195.12
380.155	185.12
380.38	206.12
380.606	213.12
380.831	198.12
381.057	182.12
381.282	176.12
381.507	197.12
381.733	184.12
381.958	186.12
382.184	187.12
382.409	206.12
382.634	191.12
382.86	182.12
383.085	205.12
383.31	174.12
383.535	202.12
383.761	186.12
383.986	201.12
384.211	203.12
384.436	199.12
384.662	190.12
384.887	231.12
385.112	221.12
385.337	211.12
385.562	218.12
385.787	217.12
386.013	207.12
386.238	221.12
386.463	211.12
386.688	225.12
386.913	213.12
387.138	208.12
387.363	202.12
387.588	196.12
387.813	211.12
388.038	205.12
388.263	202.12
388.488	192.12
388.713	234.12
388.938	206.12
389.163	203.12
389.387	205.12
389.612	202.12
389.837	205.12
390.062	185.12
390.287	196.12
390.512	202.12
390.736	217.12
390.961	202.12
391.186	201.12
391.411	211.12
391.636	240.12
391.86	225.12
392.085	243.12
392.31	204.12
392.534	180.12
392.759	209.12
392.984	224.12
393.208	188.12
393.433	211.12
393.658	198.12
393.882	183.12
394.107	194.12
394.331	203.12
394.556	185.12
394.78	198.12
395.005	196.12
395.229	198.12
395.454	197.12
395.678	195.12
395.903	207.12
396.127	207.12
396.352	230.12
396.576	247.12
396.801	231.12
397.025	228.12
397.249	247.12
397.474	243.12
397.698	244.12
397.922	253.12
398.147	222.12
398.371	233.12
398.595	245.12
398.82	247.12
399.044	251.12
399.268	262.12
399.492	253.12
399.717	251.12
399.941	260.12
400.165	243.12
400.389	232.12
400.613	236.12
400.837	216.12
401.062	211.12
401.286	235.12
401.51	210.12
401.734	216.12
401.958	200.12
402.182	226.12
402.406	228.12
402.63	207.12
402.854	237.12
403.078	205.12
403.302	228.12
403.526	232.12
403.75	216.12
403.974	211.12
404.198	219.12
404.422	216.12
404.645	209.12
404.869	218.12
405.093	222.12
405.317	215.12
405.541	232.12
405.765	228.12
405.988	214.12
406.212	218.12
406.436	218.12
406.66	207.12
406.883	228.12
407.107	230.12
407.331	236.12
407.555	236.12
407.778	246.12
408.002	217.12
408.226	238.12
408.449	215.12
408.673	226.12
408.896	208.12
409.12	219.12
409.344	210.12
409.567	222.12
409.791	230.12
410.014	216.12
410.238	219.12
410.461	226.12
410.685	214.12
410.908	230.12
411.132	230.12
411.355	210.12
411.578	224.12
411.802	226.12
412.025	202.12
412.249	235.12
412.472	234.12
412.695	219.12
412.919	225.12
413.142	224.12
413.365	219.12
413.589	217.12
413.812	201.12
414.035	222.12
414.258	213.12
414.482	213.12
414.705	226.12
414.928	215.12
415.151	198.12
415.374	198.12
415.597	206.12
415.821	210.12
416.044	214.12
416.267	211.12
416.49	220.12
416.713	230.12
416.936	224.12
417.159	220.12
417.382	213.12
417.605	208.12
417.828	208.12
418.051	218.12
418.274	209.12
418.497	217.12
418.72	202.12
418.943	195.12
419.166	222.12
419.389	237.12
419.611	236.12
419.834	224.12
420.057	225.12
420.28	204.12
420.503	209.12
420.726	203.12
420.948	220.12
421.171	209.12
421.394	193.12
421.617	200.12
421.839	200.12
422.062	209.12
422.285	208.12
422.507	219.12
422.73	209.12
422.953	209.12
423.175	210.12
423.398	194.12
423.621	217.12
423.843	206.12
424.066	208.12
424.288	224.12
424.511	210.12
424.733	218.12
424.956	220.12
425.178	249.12
425.401	299.12
425.623	344.12
425.846	258.12
426.068	216.12
426.291	229.12
426.513	232.12
426.735	237.12
426.958	244.12
427.18	238.12
427.402	298.12
427.625	320.12
427.847	258.12
428.069	232.12
428.292	215.12
428.514	220.12
428.736	218.12
428.958	269.12
429.181	289.12
429.403	218.12
429.625	202.12
429.847	221.12
430.069	202.12
430.292	205.12
430.514	214.12
430.736	224.12
430.958	219.12
431.18	213.12
431.402	189.12
431.624	202.12
431.846	197.12
432.068	195.12
432.29	208.12
432.512	197.12
432.734	198.12
432.956	197.12
433.178	206.12
433.4	194.12
433.622	219.12
433.844	245.12
434.066	256.12
434.287	246.12
434.509	244.12
434.731	245.12
434.953	213.12
435.175	245.12
435.397	265.12
435.618	228.12
435.84	221.12
436.062	204.12
436.284	204.12
436.505	190.12
436.727	206.12
436.949	186.12
437.17	226.12
437.392	215.12
437.614	200.12
437.835	206.12
438.057	203.12
438.278	195.12
438.5	193.12
438.721	213.12
438.943	192.12
439.165	201.12
439.386	194.12
439.608	188.12
439.829	196.12
440.05	197.12
440.272	212.12
440.493	201.12
440.715	192.12
440.936	192.12
441.158	209.12
441.379	200.12
441.6	218.12
441.822	211.12
442.043	197.12
442.264	201.12
442.486	209.12
442.707	213.12
442.928	218.12
443.149	210.12
443.371	196.12
443.592	203.12
443.813	203.12
444.034	213.12
444.255	206.12
444.476	205.12
444.698	213.12
444.919	204.12
445.14	292.12
445.361	246.12
445.582	207.12
445.803	208.12
446.024	216.12
446.245	208.12
446.466	196.12
446.687	198.12
446.908	204.12
447.129	206.12
447.35	210.12
447.571	203.12
447.792	202.12
448.013	190.12
448.234	206.12
448.455	185.12
448.675	205.12
448.896	202.12
449.117	220.12
449.338	207.12
449.559	215.12
449.779	203.12
450	227.12
450.221	205.12
450.442	205.12
450.662	184.12
450.883	194.12
451.104	200.12
451.324	201.12
451.545	204.12
451.766	202.12
451.986	198.12
452.207	178.12
452.428	190.12
452.648	209.12
452.869	197.12
453.089	210.12
453.31	216.12
453.53	207.12
453.751	202.12
453.971	188.12
454.192	206.12
454.412	208.12
454.633	193.12
454.853	202.12
455.073	183.12
455.294	186.12
455.514	186.12
455.734	193.12
455.955	208.12
456.175	214.12
456.395	214.12
456.616	190.12
456.836	190.12
457.056	193.12
457.276	184.12
457.497	191.12
457.717	188.12
457.937	183.12
458.157	180.12
458.377	191.12
458.598	204.12
458.818	194.12
459.038	200.12
459.258	206.12
459.478	219.12
459.698	201.12
459.918	211.12
460.138	226.12
460.358	228.12
460.578	216.12
460.798	206.12
461.018	210.12
461.238	221.12
461.458	231.12
461.678	260.12
461.898	246.12
462.118	239.12
462.338	228.12
462.558	247.12
462.777	260.12
462.997	258.12
463.217	250.12
463.437	234.12
463.657	234.12
463.876	232.12
464.096	241.12
464.316	232.12
464.536	234.12
464.755	276.12
464.975	249.12
465.195	242.12
465.414	244.12
465.634	207.12
465.854	226.12
466.073	193.12
466.293	203.12
466.512	210.12
466.732	216.12
466.951	197.12
467.171	205.12
467.391	210.12
467.61	205.12
467.829	191.12
468.049	198.12
468.268	186.12
468.488	179.12
468.707	194.12
468.927	191.12
469.146	203.12
469.365	203.12
469.585	195.12
469.804	197.12
470.023	199.12
470.243	222.12
470.462	202.12
470.681	185.12
470.901	201.12
471.12	196.12
471.339	172.12
471.558	198.12
471.777	204.12
471.997	216.12
472.216	202.12
472.435	216.12
472.654	199.12
472.873	192.12
473.092	198.12
473.311	195.12
473.53	196.12
473.749	203.12
473.968	219.12
474.187	202.12
474.406	193.12
474.625	188.12
474.844	198.12
475.063	181.12
475.282	205.12
475.501	203.12
475.72	227.12
475.939	211.12
476.158	206.12
476.377	228.12
476.596	192.12
476.814	210.12
477.033	196.12
477.252	192.12
477.471	210.12
477.69	216.12
477.908	202.12
478.127	211.12
478.346	216.12
478.564	224.12
478.783	215.12
479.002	226.12
479.22	226.12
479.439	240.12
479.658	224.12
479.876	240.12
480.095	229.12
480.313	248.12
480.532	223.12
480.751	237.12
480.969	234.12
481.188	218.12
481.406	206.12
481.624	219.12
481.843	218.12
482.061	215.12
482.28	236.12
482.498	219.12
482.717	220.12
482.935	220.12
483.153	226.12
483.372	231.12
483.59	234.12
483.808	230.12
484.027	230.12
484.245	216.12
484.463	228.12
484.681	226.12
484.9	237.12
485.118	217.12
485.336	212.12
485.554	220.12
485.772	234.12
485.99	217.12
486.209	229.12
486.427	230.12
486.645	234.12
486.863	226.12
487.081	236.12
487.299	244.12
487.517	238.12
487.735	234.12
487.953	229.12
488.171	236.12
488.389	240.12
488.607	242.12
488.825	263.12
489.043	247.12
489.261	229.12
489.479	210.12
489.696	225.12
489.914	206.12
490.132	223.12
490.35	220.12
490.568	234.12
490.786	240.12
491.003	213.12
491.221	234.12
491.439	236.12
491.657	231.12
491.874	236.12
492.092	243.12
492.31	282.12
492.527	269.12
492.745	247.12
492.963	247.12
493.18	235.12
493.398	248.12
493.615	223.12
493.833	236.12
494.05	241.12
494.268	229.12
494.485	237.12
494.703	221.12
494.92	230.12
495.138	226.12
495.355	230.12
495.573	249.12
495.79	251.12
496.008	234.12
496.225	239.12
496.442	239.12
496.66	259.12
496.877	248.12
497.094	273.12
497.312	268.12
497.529	260.12
497.746	235.12
497.963	251.12
498.181	270.12
498.398	257.12
498.615	295.12
498.832	292.12
499.049	302.12
499.267	295.12
499.484	300.12
499.701	342.12
499.918	348.12
500.135	363.12
500.352	371.12
500.569	358.12
500.786	354.12
501.003	355.12
501.22	310.12
501.437	323.12
501.654	300.12
501.871	309.12
502.088	289.12
502.305	276.12
502.522	280.12
502.739	288.12
502.956	263.12
503.172	275.12
503.389	238.12
503.606	265.12
