Data from StA_HRD10591_016.txt Node
Date: Fri May 16 15:18:52 EDT 2025
User: Yrep
Spectrometer: HR+D1059
Trigger mode: 1
Integration Time (sec): 1.000000E-1
Scans to average: 1
Electric dark correction enabled: true
Nonlinearity correction enabled: false
Boxcar width: 0
XAxis mode: Wavelengths
Number of Pixels in Spectrum: 2048
>>>>>Begin Spectral Data<<<<<
223.165	-21.62
223.4	-21.62
223.635	-21.62
223.869	-19.62
224.104	-22.62
224.338	-15.62
224.573	-15.62
224.808	-11.62
225.042	-9.62
225.277	-2.62
225.511	7.38
225.746	7.38
225.98	13.38
226.215	13.38
226.449	2.38
226.683	35.38
226.918	15.38
227.152	24.38
227.387	47.38
227.621	46.38
227.856	38.38
228.09	45.38
228.324	50.38
228.559	61.38
228.793	56.38
229.027	72.38
229.262	82.38
229.496	79.38
229.73	86.38
229.964	86.38
230.199	95.38
230.433	97.38
230.667	91.38
230.901	87.38
231.136	86.38
231.37	100.38
231.604	97.38
231.838	95.38
232.072	108.38
232.306	101.38
232.541	105.38
232.775	101.38
233.009	96.38
233.243	83.38
233.477	84.38
233.711	93.38
233.945	93.38
234.179	94.38
234.413	86.38
234.647	90.38
234.881	68.38
235.115	73.38
235.349	82.38
235.583	79.38
235.817	89.38
236.051	90.38
236.285	91.38
236.519	84.38
236.753	95.38
236.987	85.38
237.221	84.38
237.455	106.38
237.689	88.38
237.922	91.38
238.156	95.38
238.39	112.38
238.624	98.38
238.858	91.38
239.091	74.38
239.325	90.38
239.559	100.38
239.793	93.38
240.027	100.38
240.26	102.38
240.494	90.38
240.728	92.38
240.961	92.38
241.195	92.38
241.429	98.38
241.662	105.38
241.896	101.38
242.13	89.38
242.363	102.38
242.597	87.38
242.83	100.38
243.064	102.38
243.298	98.38
243.531	103.38
243.765	89.38
243.998	108.38
244.232	83.38
244.465	96.38
244.699	89.38
244.932	106.38
245.166	112.38
245.399	113.38
245.633	92.38
245.866	98.38
246.099	100.38
246.333	114.38
246.566	86.38
246.8	110.38
247.033	100.38
247.266	99.38
247.5	126.38
247.733	116.38
247.966	117.38
248.2	121.38
248.433	119.38
248.666	128.38
248.899	114.38
249.133	130.38
249.366	129.38
249.599	131.38
249.832	124.38
250.066	145.38
250.299	119.38
250.532	115.38
250.765	122.38
250.998	131.38
251.231	126.38
251.465	144.38
251.698	136.38
251.931	128.38
252.164	148.38
252.397	144.38
252.63	129.38
252.863	139.38
253.096	159.38
253.329	148.38
253.562	138.38
253.795	141.38
254.028	156.38
254.261	135.38
254.494	137.38
254.727	144.38
254.96	155.38
255.193	141.38
255.426	142.38
255.659	136.38
255.892	142.38
256.124	140.38
256.357	145.38
256.59	137.38
256.823	149.38
257.056	167.38
257.289	154.38
257.521	169.38
257.754	164.38
257.987	154.38
258.22	164.38
258.452	161.38
258.685	159.38
258.918	151.38
259.151	140.38
259.383	158.38
259.616	161.38
259.849	162.38
260.081	164.38
260.314	148.38
260.547	157.38
260.779	147.38
261.012	174.38
261.244	158.38
261.477	174.38
261.71	180.38
261.942	168.38
262.175	158.38
262.407	190.38
262.64	173.38
262.872	185.38
263.105	170.38
263.337	168.38
263.57	166.38
263.802	184.38
264.035	174.38
264.267	161.38
264.499	159.38
264.732	170.38
264.964	172.38
265.197	172.38
265.429	201.38
265.661	209.38
265.894	212.38
266.126	219.38
266.358	258.38
266.591	300.38
266.823	300.38
267.055	273.38
267.287	308.38
267.52	308.38
267.752	328.38
267.984	344.38
268.216	273.38
268.448	225.38
268.681	229.38
268.913	268.38
269.145	273.38
269.377	267.38
269.609	266.38
269.841	273.38
270.073	304.38
270.306	277.38
270.538	252.38
270.77	220.38
271.002	257.38
271.234	233.38
271.466	217.38
271.698	212.38
271.93	235.38
272.162	248.38
272.394	244.38
272.626	248.38
272.858	235.38
273.09	212.38
273.322	178.38
273.553	194.38
273.785	195.38
274.017	219.38
274.249	261.38
274.481	274.38
274.713	303.38
274.945	320.38
275.176	353.38
275.408	361.38
275.64	339.38
275.872	356.38
276.104	394.38
276.335	401.38
276.567	410.38
276.799	382.38
277.031	324.38
277.262	264.38
277.494	254.38
277.726	268.38
277.957	300.38
278.189	296.38
278.421	271.38
278.652	272.38
278.884	278.38
279.115	257.38
279.347	258.38
279.579	269.38
279.81	240.38
280.042	265.38
280.273	270.38
280.505	237.38
280.736	235.38
280.968	257.38
281.199	280.38
281.431	284.38
281.662	305.38
281.894	322.38
282.125	337.38
282.356	371.38
282.588	313.38
282.819	308.38
283.051	363.38
283.282	441.38
283.513	504.38
283.745	516.38
283.976	481.38
284.207	478.38
284.439	505.38
284.67	452.38
284.901	448.38
285.132	493.38
285.364	480.38
285.595	460.38
285.826	476.38
286.057	486.38
286.288	496.38
286.52	506.38
286.751	507.38
286.982	480.38
287.213	411.38
287.444	406.38
287.675	430.38
287.906	398.38
288.138	317.38
288.369	306.38
288.6	290.38
288.831	319.38
289.062	381.38
289.293	396.38
289.524	375.38
289.755	390.38
289.986	393.38
290.217	328.38
290.448	265.38
290.679	248.38
290.91	244.38
291.141	255.38
291.371	255.38
291.602	266.38
291.833	268.38
292.064	298.38
292.295	334.38
292.526	357.38
292.757	350.38
292.987	378.38
293.218	324.38
293.449	337.38
293.68	323.38
293.91	319.38
294.141	270.38
294.372	264.38
294.603	265.38
294.833	254.38
295.064	235.38
295.295	257.38
295.525	242.38
295.756	244.38
295.987	226.38
296.217	229.38
296.448	249.38
296.679	246.38
296.909	252.38
297.14	293.38
297.37	332.38
297.601	294.38
297.831	299.38
298.062	321.38
298.292	322.38
298.523	327.38
298.753	342.38
298.984	315.38
299.214	282.38
299.445	234.38
299.675	226.38
299.905	230.38
300.136	217.38
300.366	215.38
300.597	204.38
300.827	224.38
301.057	213.38
301.288	237.38
301.518	272.38
301.748	278.38
301.979	290.38
302.209	274.38
302.439	271.38
302.669	270.38
302.9	279.38
303.13	245.38
303.36	228.38
303.59	246.38
303.82	264.38
304.051	296.38
304.281	314.38
304.511	302.38
304.741	284.38
304.971	276.38
305.201	290.38
305.431	250.38
305.661	251.38
305.891	214.38
306.121	220.38
306.352	200.38
306.582	210.38
306.812	189.38
307.042	197.38
307.272	198.38
307.502	201.38
307.731	209.38
307.961	205.38
308.191	206.38
308.421	181.38
308.651	191.38
308.881	216.38
309.111	194.38
309.341	228.38
309.571	224.38
309.8	234.38
310.03	232.38
310.26	205.38
310.49	226.38
310.72	220.38
310.949	232.38
311.179	252.38
311.409	291.38
311.639	343.38
311.868	446.38
312.098	533.38
312.328	514.38
312.557	509.38
312.787	472.38
313.017	444.38
313.246	474.38
313.476	484.38
313.706	347.38
313.935	306.38
314.165	278.38
314.394	273.38
314.624	271.38
314.853	274.38
315.083	276.38
315.312	247.38
315.542	219.38
315.771	199.38
316.001	200.38
316.23	194.38
316.46	184.38
316.689	207.38
316.919	204.38
317.148	204.38
317.377	204.38
317.607	208.38
317.836	251.38
318.065	288.38
318.295	302.38
318.524	258.38
318.753	214.38
318.983	205.38
319.212	206.38
319.441	231.38
319.67	268.38
319.9	262.38
320.129	233.38
320.358	213.38
320.587	232.38
320.816	260.38
321.046	258.38
321.275	252.38
321.504	242.38
321.733	257.38
321.962	246.38
322.191	221.38
322.42	202.38
322.649	192.38
322.878	200.38
323.108	203.38
323.337	218.38
323.566	220.38
323.795	230.38
324.024	241.38
324.253	193.38
324.482	185.38
324.71	194.38
324.939	189.38
325.168	180.38
325.397	192.38
325.626	203.38
325.855	179.38
326.084	190.38
326.313	186.38
326.542	210.38
326.77	194.38
326.999	212.38
327.228	212.38
327.457	195.38
327.686	188.38
327.914	192.38
328.143	193.38
328.372	177.38
328.6	192.38
328.829	201.38
329.058	210.38
329.287	232.38
329.515	238.38
329.744	199.38
329.972	198.38
330.201	188.38
330.43	200.38
330.658	224.38
330.887	253.38
331.115	247.38
331.344	235.38
331.572	244.38
331.801	225.38
332.03	233.38
332.258	239.38
332.486	237.38
332.715	245.38
332.943	210.38
333.172	245.38
333.4	257.38
333.629	287.38
333.857	296.38
334.085	298.38
334.314	294.38
334.542	273.38
334.771	256.38
334.999	239.38
335.227	261.38
335.455	276.38
335.684	311.38
335.912	333.38
336.14	358.38
336.369	329.38
336.597	329.38
336.825	378.38
337.053	341.38
337.281	268.38
337.51	225.38
337.738	275.38
337.966	277.38
338.194	294.38
338.422	248.38
338.65	220.38
338.878	240.38
339.106	246.38
339.334	247.38
339.562	255.38
339.79	238.38
340.018	246.38
340.246	264.38
340.474	297.38
340.702	299.38
340.93	306.38
341.158	266.38
341.386	219.38
341.614	234.38
341.842	258.38
342.07	288.38
342.298	313.38
342.526	260.38
342.754	209.38
342.981	229.38
343.209	240.38
343.437	271.38
343.665	249.38
343.893	212.38
344.12	200.38
344.348	190.38
344.576	189.38
344.804	204.38
345.031	193.38
345.259	185.38
345.487	218.38
345.714	196.38
345.942	208.38
346.17	195.38
346.397	188.38
346.625	204.38
346.853	190.38
347.08	192.38
347.308	181.38
347.535	190.38
347.763	198.38
347.99	195.38
348.218	170.38
348.445	182.38
348.673	166.38
348.9	184.38
349.128	167.38
349.355	177.38
349.583	192.38
349.81	174.38
350.037	180.38
350.265	174.38
350.492	168.38
350.72	175.38
350.947	194.38
351.174	194.38
351.402	183.38
351.629	173.38
351.856	159.38
352.083	174.38
352.311	180.38
352.538	166.38
352.765	189.38
352.992	171.38
353.22	169.38
353.447	173.38
353.674	161.38
353.901	170.38
354.128	180.38
354.355	182.38
354.583	177.38
354.81	191.38
355.037	191.38
355.264	192.38
355.491	196.38
355.718	175.38
355.945	194.38
356.172	197.38
356.399	196.38
356.626	192.38
356.853	196.38
357.08	209.38
357.307	217.38
357.534	245.38
357.761	298.38
357.988	321.38
358.215	269.38
358.441	237.38
358.668	243.38
358.895	236.38
359.122	254.38
359.349	294.38
359.576	281.38
359.802	214.38
360.029	192.38
360.256	254.38
360.483	271.38
360.709	271.38
360.936	226.38
361.163	198.38
361.39	196.38
361.616	169.38
361.843	178.38
362.07	187.38
362.296	192.38
362.523	186.38
362.749	189.38
362.976	182.38
363.203	207.38
363.429	204.38
363.656	198.38
363.882	221.38
364.109	217.38
364.335	217.38
364.562	185.38
364.788	198.38
365.015	207.38
365.241	197.38
365.468	201.38
365.694	198.38
365.92	193.38
366.147	182.38
366.373	186.38
366.599	193.38
366.826	172.38
367.052	192.38
367.278	196.38
367.505	199.38
367.731	203.38
367.957	216.38
368.184	195.38
368.41	196.38
368.636	198.38
368.862	188.38
369.089	193.38
369.315	188.38
369.541	191.38
369.767	191.38
369.993	191.38
370.219	181.38
370.445	169.38
370.672	187.38
370.898	189.38
371.124	206.38
371.35	198.38
371.576	204.38
371.802	206.38
372.028	187.38
372.254	172.38
372.48	185.38
372.706	184.38
372.932	205.38
373.158	186.38
373.384	200.38
373.61	181.38
373.835	185.38
374.061	187.38
374.287	208.38
374.513	226.38
374.739	221.38
374.965	205.38
375.191	204.38
375.416	197.38
375.642	178.38
375.868	188.38
376.094	192.38
376.319	181.38
376.545	194.38
376.771	200.38
376.997	182.38
377.222	176.38
377.448	187.38
377.674	188.38
377.899	183.38
378.125	194.38
378.35	184.38
378.576	163.38
378.802	178.38
379.027	196.38
379.253	211.38
379.478	192.38
379.704	201.38
379.929	205.38
380.155	198.38
380.38	188.38
380.606	178.38
380.831	184.38
381.057	208.38
381.282	195.38
381.507	202.38
381.733	202.38
381.958	200.38
382.184	205.38
382.409	200.38
382.634	192.38
382.86	202.38
383.085	192.38
383.31	205.38
383.535	203.38
383.761	199.38
383.986	214.38
384.211	217.38
384.436	240.38
384.662	212.38
384.887	209.38
385.112	222.38
385.337	230.38
385.562	228.38
385.787	212.38
386.013	208.38
386.238	203.38
386.463	213.38
386.688	214.38
386.913	201.38
387.138	211.38
387.363	224.38
387.588	211.38
387.813	217.38
388.038	195.38
388.263	215.38
388.488	221.38
388.713	214.38
388.938	210.38
389.163	203.38
389.387	203.38
389.612	220.38
389.837	198.38
390.062	181.38
390.287	200.38
390.512	189.38
390.736	207.38
390.961	234.38
391.186	232.38
391.411	212.38
391.636	232.38
391.86	239.38
392.085	238.38
392.31	207.38
392.534	202.38
392.759	206.38
392.984	216.38
393.208	215.38
393.433	204.38
393.658	206.38
393.882	192.38
394.107	187.38
394.331	216.38
394.556	199.38
394.78	191.38
395.005	197.38
395.229	204.38
395.454	193.38
395.678	190.38
395.903	187.38
396.127	219.38
396.352	236.38
396.576	232.38
396.801	235.38
397.025	255.38
397.249	231.38
397.474	224.38
397.698	238.38
397.922	250.38
398.147	228.38
398.371	236.38
398.595	247.38
398.82	233.38
399.044	247.38
399.268	255.38
399.492	262.38
399.717	265.38
399.941	242.38
400.165	239.38
400.389	247.38
400.613	233.38
400.837	220.38
401.062	231.38
401.286	232.38
401.51	222.38
401.734	213.38
401.958	222.38
402.182	200.38
402.406	221.38
402.63	212.38
402.854	217.38
403.078	228.38
403.302	230.38
403.526	226.38
403.75	232.38
403.974	254.38
404.198	221.38
404.422	218.38
404.645	232.38
404.869	218.38
405.093	226.38
405.317	224.38
405.541	235.38
405.765	219.38
405.988	235.38
406.212	216.38
406.436	226.38
406.66	234.38
406.883	225.38
407.107	225.38
407.331	252.38
407.555	222.38
407.778	242.38
408.002	245.38
408.226	218.38
408.449	227.38
408.673	230.38
408.896	225.38
409.12	206.38
409.344	230.38
409.567	230.38
409.791	209.38
410.014	214.38
410.238	227.38
410.461	207.38
410.685	231.38
410.908	221.38
411.132	228.38
411.355	224.38
411.578	234.38
411.802	208.38
412.025	209.38
412.249	197.38
412.472	220.38
412.695	216.38
412.919	228.38
413.142	229.38
413.365	225.38
413.589	225.38
413.812	211.38
414.035	226.38
414.258	203.38
414.482	241.38
414.705	232.38
414.928	232.38
415.151	230.38
415.374	217.38
415.597	214.38
415.821	216.38
416.044	198.38
416.267	225.38
416.49	232.38
416.713	212.38
416.936	215.38
417.159	219.38
417.382	202.38
417.605	219.38
417.828	212.38
418.051	206.38
418.274	223.38
418.497	204.38
418.72	207.38
418.943	228.38
419.166	234.38
419.389	234.38
419.611	214.38
419.834	206.38
420.057	213.38
420.28	225.38
420.503	194.38
420.726	222.38
420.948	217.38
421.171	224.38
421.394	212.38
421.617	210.38
421.839	228.38
422.062	202.38
422.285	216.38
422.507	204.38
422.73	228.38
422.953	222.38
423.175	217.38
423.398	230.38
423.621	210.38
423.843	203.38
424.066	216.38
424.288	206.38
424.511	213.38
424.733	214.38
424.956	221.38
425.178	254.38
425.401	320.38
425.623	343.38
425.846	242.38
426.068	230.38
426.291	235.38
426.513	237.38
426.735	230.38
426.958	242.38
427.18	263.38
427.402	297.38
427.625	336.38
427.847	257.38
428.069	228.38
428.292	221.38
428.514	217.38
428.736	244.38
428.958	298.38
429.181	306.38
429.403	241.38
429.625	208.38
429.847	220.38
430.069	208.38
430.292	220.38
430.514	198.38
430.736	223.38
430.958	204.38
431.18	209.38
431.402	207.38
431.624	201.38
431.846	190.38
432.068	180.38
432.29	207.38
432.512	200.38
432.734	198.38
432.956	192.38
433.178	203.38
433.4	196.38
433.622	234.38
433.844	232.38
434.066	273.38
434.287	243.38
434.509	246.38
434.731	233.38
434.953	231.38
435.175	242.38
435.397	270.38
435.618	224.38
435.84	225.38
436.062	232.38
436.284	218.38
436.505	195.38
436.727	207.38
436.949	215.38
437.17	233.38
437.392	221.38
437.614	201.38
437.835	222.38
438.057	218.38
438.278	197.38
438.5	192.38
438.721	228.38
438.943	222.38
439.165	196.38
439.386	206.38
439.608	207.38
439.829	198.38
440.05	192.38
440.272	198.38
440.493	210.38
440.715	205.38
440.936	215.38
441.158	202.38
441.379	215.38
441.6	204.38
441.822	211.38
442.043	208.38
442.264	218.38
442.486	214.38
442.707	220.38
442.928	215.38
443.149	213.38
443.371	224.38
443.592	209.38
443.813	214.38
444.034	198.38
444.255	222.38
444.476	224.38
444.698	212.38
444.919	217.38
445.14	292.38
445.361	264.38
445.582	220.38
445.803	205.38
446.024	220.38
446.245	214.38
446.466	210.38
446.687	202.38
446.908	201.38
447.129	197.38
447.35	197.38
447.571	215.38
447.792	193.38
448.013	191.38
448.234	194.38
448.455	202.38
448.675	207.38
448.896	208.38
449.117	207.38
449.338	207.38
449.559	208.38
449.779	213.38
450	225.38
450.221	223.38
450.442	200.38
450.662	191.38
450.883	194.38
451.104	221.38
451.324	216.38
451.545	225.38
451.766	192.38
451.986	205.38
452.207	194.38
452.428	190.38
452.648	220.38
452.869	216.38
453.089	217.38
453.31	195.38
453.53	214.38
453.751	203.38
453.971	201.38
454.192	204.38
454.412	208.38
454.633	223.38
454.853	220.38
455.073	190.38
455.294	185.38
455.514	205.38
455.734	209.38
455.955	201.38
456.175	219.38
456.395	210.38
456.616	202.38
456.836	205.38
457.056	211.38
457.276	194.38
457.497	188.38
457.717	184.38
457.937	203.38
458.157	204.38
458.377	191.38
458.598	198.38
458.818	192.38
459.038	216.38
459.258	213.38
459.478	225.38
459.698	208.38
459.918	216.38
460.138	238.38
460.358	239.38
460.578	207.38
460.798	227.38
461.018	223.38
461.238	219.38
461.458	237.38
461.678	256.38
461.898	263.38
462.118	234.38
462.338	246.38
462.558	264.38
462.777	257.38
462.997	240.38
463.217	244.38
463.437	255.38
463.657	233.38
463.876	245.38
464.096	253.38
464.316	225.38
464.536	253.38
464.755	260.38
464.975	248.38
465.195	244.38
465.414	257.38
465.634	211.38
465.854	214.38
466.073	212.38
466.293	188.38
466.512	209.38
466.732	217.38
466.951	226.38
467.171	214.38
467.391	185.38
467.61	191.38
467.829	175.38
468.049	198.38
468.268	198.38
468.488	205.38
468.707	202.38
468.927	202.38
469.146	201.38
469.365	200.38
469.585	210.38
469.804	201.38
470.023	207.38
470.243	212.38
470.462	180.38
470.681	207.38
470.901	230.38
471.12	206.38
471.339	196.38
471.558	202.38
471.777	193.38
471.997	213.38
472.216	210.38
472.435	195.38
472.654	186.38
472.873	194.38
473.092	200.38
473.311	213.38
473.53	200.38
473.749	208.38
473.968	211.38
474.187	211.38
474.406	187.38
474.625	202.38
474.844	211.38
475.063	182.38
475.282	218.38
475.501	207.38
475.72	235.38
475.939	239.38
476.158	212.38
476.377	204.38
476.596	215.38
476.814	216.38
477.033	210.38
477.252	205.38
477.471	189.38
477.69	206.38
477.908	213.38
478.127	210.38
478.346	213.38
478.564	209.38
478.783	213.38
479.002	232.38
479.22	244.38
479.439	235.38
479.658	230.38
479.876	228.38
480.095	243.38
480.313	246.38
480.532	240.38
480.751	241.38
480.969	221.38
481.188	209.38
481.406	217.38
481.624	220.38
481.843	218.38
482.061	220.38
482.28	227.38
482.498	234.38
482.717	236.38
482.935	216.38
483.153	216.38
483.372	235.38
483.59	220.38
483.808	211.38
484.027	216.38
484.245	208.38
484.463	209.38
484.681	223.38
484.9	212.38
485.118	238.38
485.336	220.38
485.554	208.38
485.772	234.38
485.99	223.38
486.209	236.38
486.427	242.38
486.645	237.38
486.863	220.38
487.081	231.38
487.299	234.38
487.517	232.38
487.735	242.38
487.953	218.38
488.171	237.38
488.389	217.38
488.607	225.38
488.825	263.38
489.043	240.38
489.261	231.38
489.479	234.38
489.696	225.38
489.914	221.38
490.132	215.38
490.35	232.38
490.568	219.38
490.786	242.38
491.003	232.38
491.221	230.38
491.439	231.38
491.657	221.38
491.874	221.38
492.092	234.38
492.31	264.38
492.527	274.38
492.745	248.38
492.963	233.38
493.18	237.38
493.398	244.38
493.615	246.38
493.833	242.38
494.05	238.38
494.268	245.38
494.485	243.38
494.703	218.38
494.92	241.38
495.138	234.38
495.355	244.38
495.573	243.38
495.79	248.38
496.008	244.38
496.225	259.38
496.442	251.38
496.66	244.38
496.877	249.38
497.094	276.38
497.312	260.38
497.529	254.38
497.746	256.38
497.963	274.38
498.181	292.38
498.398	262.38
498.615	295.38
498.832	294.38
499.049	285.38
499.267	312.38
499.484	317.38
499.701	320.38
499.918	336.38
500.135	357.38
500.352	346.38
500.569	356.38
500.786	364.38
501.003	361.38
501.22	341.38
501.437	333.38
501.654	318.38
501.871	306.38
502.088	275.38
502.305	276.38
502.522	282.38
502.739	286.38
502.956	256.38
503.172	280.38
503.389	258.38
503.606	248.38
