Data from StA_HRD10591_034.txt Node
Date: Fri May 16 15:19:01 EDT 2025
User: Yrep
Spectrometer: HR+D1059
Trigger mode: 1
Integration Time (sec): 1.000000E-1
Scans to average: 1
Electric dark correction enabled: true
Nonlinearity correction enabled: false
Boxcar width: 0
XAxis mode: Wavelengths
Number of Pixels in Spectrum: 2048
>>>>>Begin Spectral Data<<<<<
223.165	-8.12
223.4	-8.12
223.635	-8.12
223.869	-1.12
224.104	-17.12
224.338	-16.12
224.573	-20.12
224.808	-13.12
225.042	0.88
225.277	10.88
225.511	-3.12
225.746	3.88
225.98	-5.12
226.215	-3.12
226.449	3.88
226.683	15.88
226.918	23.88
227.152	27.88
227.387	39.88
227.621	42.88
227.856	66.88
228.09	48.88
228.324	61.88
228.559	58.88
228.793	50.88
229.027	60.88
229.262	60.88
229.496	66.88
229.73	63.88
229.964	70.88
230.199	72.88
230.433	63.88
230.667	72.88
230.901	85.88
231.136	79.88
231.37	66.88
231.604	69.88
231.838	79.88
232.072	93.88
232.306	77.88
232.541	65.88
232.775	87.88
233.009	66.88
233.243	90.88
233.477	84.88
233.711	98.88
233.945	78.88
234.179	78.88
234.413	84.88
234.647	95.88
234.881	64.88
235.115	83.88
235.349	71.88
235.583	69.88
235.817	72.88
236.051	80.88
236.285	94.88
236.519	76.88
236.753	83.88
236.987	68.88
237.221	72.88
237.455	66.88
237.689	72.88
237.922	77.88
238.156	80.88
238.39	109.88
238.624	63.88
238.858	70.88
239.091	82.88
239.325	84.88
239.559	78.88
239.793	75.88
240.027	95.88
240.26	85.88
240.494	78.88
240.728	64.88
240.961	74.88
241.195	74.88
241.429	79.88
241.662	65.88
241.896	78.88
242.13	79.88
242.363	64.88
242.597	79.88
242.83	77.88
243.064	74.88
243.298	70.88
243.531	73.88
243.765	80.88
243.998	74.88
244.232	78.88
244.465	72.88
244.699	83.88
244.932	86.88
245.166	79.88
245.399	74.88
245.633	70.88
245.866	66.88
246.099	69.88
246.333	63.88
246.566	84.88
246.8	88.88
247.033	66.88
247.266	70.88
247.5	61.88
247.733	71.88
247.966	74.88
248.2	81.88
248.433	86.88
248.666	84.88
248.899	88.88
249.133	77.88
249.366	84.88
249.599	86.88
249.832	67.88
250.066	88.88
250.299	86.88
250.532	74.88
250.765	90.88
250.998	73.88
251.231	90.88
251.465	84.88
251.698	72.88
251.931	77.88
252.164	67.88
252.397	86.88
252.63	95.88
252.863	75.88
253.096	87.88
253.329	76.88
253.562	78.88
253.795	80.88
254.028	73.88
254.261	72.88
254.494	77.88
254.727	82.88
254.96	74.88
255.193	79.88
255.426	75.88
255.659	88.88
255.892	85.88
256.124	70.88
256.357	68.88
256.59	80.88
256.823	86.88
257.056	80.88
257.289	81.88
257.521	99.88
257.754	62.88
257.987	84.88
258.22	78.88
258.452	83.88
258.685	75.88
258.918	81.88
259.151	79.88
259.383	80.88
259.616	85.88
259.849	98.88
260.081	79.88
260.314	81.88
260.547	87.88
260.779	92.88
261.012	86.88
261.244	76.88
261.477	79.88
261.71	68.88
261.942	74.88
262.175	83.88
262.407	65.88
262.64	81.88
262.872	82.88
263.105	72.88
263.337	96.88
263.57	90.88
263.802	82.88
264.035	69.88
264.267	91.88
264.499	86.88
264.732	78.88
264.964	81.88
265.197	86.88
265.429	75.88
265.661	89.88
265.894	83.88
266.126	84.88
266.358	79.88
266.591	72.88
266.823	86.88
267.055	92.88
267.287	77.88
267.52	75.88
267.752	75.88
267.984	81.88
268.216	86.88
268.448	101.88
268.681	98.88
268.913	80.88
269.145	80.88
269.377	82.88
269.609	91.88
269.841	86.88
270.073	74.88
270.306	64.88
270.538	85.88
270.77	71.88
271.002	77.88
271.234	71.88
271.466	84.88
271.698	92.88
271.93	82.88
272.162	74.88
272.394	76.88
272.626	81.88
272.858	87.88
273.09	93.88
273.322	90.88
273.553	88.88
273.785	89.88
274.017	100.88
274.249	87.88
274.481	70.88
274.713	94.88
274.945	88.88
275.176	80.88
275.408	83.88
275.64	93.88
275.872	85.88
276.104	109.88
276.335	100.88
276.567	100.88
276.799	81.88
277.031	82.88
277.262	89.88
277.494	88.88
277.726	77.88
277.957	88.88
278.189	87.88
278.421	78.88
278.652	84.88
278.884	70.88
279.115	84.88
279.347	76.88
279.579	94.88
279.81	90.88
280.042	87.88
280.273	82.88
280.505	76.88
280.736	82.88
280.968	84.88
281.199	78.88
281.431	77.88
281.662	86.88
281.894	94.88
282.125	76.88
282.356	84.88
282.588	79.88
282.819	75.88
283.051	88.88
283.282	80.88
283.513	70.88
283.745	87.88
283.976	82.88
284.207	74.88
284.439	86.88
284.67	86.88
284.901	75.88
285.132	83.88
285.364	82.88
285.595	90.88
285.826	88.88
286.057	96.88
286.288	84.88
286.52	99.88
286.751	102.88
286.982	86.88
287.213	90.88
287.444	86.88
287.675	84.88
287.906	80.88
288.138	85.88
288.369	82.88
288.6	91.88
288.831	85.88
289.062	67.88
289.293	80.88
289.524	91.88
289.755	106.88
289.986	71.88
290.217	84.88
290.448	69.88
290.679	76.88
290.91	84.88
291.141	79.88
291.371	84.88
291.602	86.88
291.833	69.88
292.064	85.88
292.295	95.88
292.526	77.88
292.757	69.88
292.987	83.88
293.218	90.88
293.449	88.88
293.68	73.88
293.91	88.88
294.141	93.88
294.372	87.88
294.603	71.88
294.833	95.88
295.064	72.88
295.295	95.88
295.525	101.88
295.756	80.88
295.987	88.88
296.217	77.88
296.448	83.88
296.679	96.88
296.909	95.88
297.14	97.88
297.37	78.88
297.601	70.88
297.831	87.88
298.062	102.88
298.292	87.88
298.523	94.88
298.753	92.88
298.984	99.88
299.214	89.88
299.445	92.88
299.675	86.88
299.905	94.88
300.136	99.88
300.366	76.88
300.597	92.88
300.827	82.88
301.057	91.88
301.288	82.88
301.518	98.88
301.748	104.88
301.979	110.88
302.209	111.88
302.439	96.88
302.669	96.88
302.9	83.88
303.13	91.88
303.36	91.88
303.59	88.88
303.82	86.88
304.051	107.88
304.281	89.88
304.511	65.88
304.741	99.88
304.971	81.88
305.201	99.88
305.431	95.88
305.661	84.88
305.891	76.88
306.121	91.88
306.352	93.88
306.582	92.88
306.812	78.88
307.042	74.88
307.272	74.88
307.502	79.88
307.731	84.88
307.961	81.88
308.191	72.88
308.421	87.88
308.651	83.88
308.881	79.88
309.111	81.88
309.341	99.88
309.571	84.88
309.8	82.88
310.03	87.88
310.26	89.88
310.49	82.88
310.72	85.88
310.949	82.88
311.179	83.88
311.409	82.88
311.639	71.88
311.868	70.88
312.098	90.88
312.328	87.88
312.557	88.88
312.787	92.88
313.017	100.88
313.246	95.88
313.476	95.88
313.706	82.88
313.935	82.88
314.165	80.88
314.394	88.88
314.624	88.88
314.853	88.88
315.083	84.88
315.312	83.88
315.542	76.88
315.771	76.88
316.001	91.88
316.23	78.88
316.46	81.88
316.689	84.88
316.919	77.88
317.148	83.88
317.377	99.88
317.607	86.88
317.836	83.88
318.065	80.88
318.295	84.88
318.524	81.88
318.753	89.88
318.983	81.88
319.212	90.88
319.441	86.88
319.67	95.88
319.9	98.88
320.129	76.88
320.358	81.88
320.587	72.88
320.816	85.88
321.046	82.88
321.275	80.88
321.504	86.88
321.733	86.88
321.962	85.88
322.191	75.88
322.42	82.88
322.649	98.88
322.878	79.88
323.108	87.88
323.337	79.88
323.566	98.88
323.795	77.88
324.024	95.88
324.253	76.88
324.482	83.88
324.71	91.88
324.939	86.88
325.168	86.88
325.397	91.88
325.626	79.88
325.855	82.88
326.084	90.88
326.313	82.88
326.542	86.88
326.77	83.88
326.999	75.88
327.228	91.88
327.457	75.88
327.686	79.88
327.914	75.88
328.143	90.88
328.372	82.88
328.6	82.88
328.829	86.88
329.058	87.88
329.287	86.88
329.515	82.88
329.744	94.88
329.972	88.88
330.201	82.88
330.43	76.88
330.658	79.88
330.887	83.88
331.115	90.88
331.344	93.88
331.572	79.88
331.801	81.88
332.03	70.88
332.258	95.88
332.486	91.88
332.715	83.88
332.943	81.88
333.172	84.88
333.4	86.88
333.629	94.88
333.857	103.88
334.085	100.88
334.314	103.88
334.542	76.88
334.771	76.88
334.999	87.88
335.227	69.88
335.455	79.88
335.684	93.88
335.912	91.88
336.14	82.88
336.369	100.88
336.597	88.88
336.825	92.88
337.053	81.88
337.281	92.88
337.51	83.88
337.738	89.88
337.966	77.88
338.194	84.88
338.422	79.88
338.65	78.88
338.878	102.88
339.106	80.88
339.334	85.88
339.562	89.88
339.79	74.88
340.018	78.88
340.246	87.88
340.474	84.88
340.702	93.88
340.93	85.88
341.158	94.88
341.386	86.88
341.614	73.88
341.842	86.88
342.07	79.88
342.298	86.88
342.526	84.88
342.754	81.88
342.981	98.88
343.209	90.88
343.437	114.88
343.665	77.88
343.893	82.88
344.12	70.88
344.348	99.88
344.576	92.88
344.804	91.88
345.031	92.88
345.259	82.88
345.487	80.88
345.714	83.88
345.942	68.88
346.17	86.88
346.397	70.88
346.625	93.88
346.853	79.88
347.08	91.88
347.308	86.88
347.535	90.88
347.763	78.88
347.99	93.88
348.218	98.88
348.445	88.88
348.673	89.88
348.9	86.88
349.128	84.88
349.355	89.88
349.583	76.88
349.81	80.88
350.037	72.88
350.265	88.88
350.492	83.88
350.72	83.88
350.947	91.88
351.174	94.88
351.402	76.88
351.629	102.88
351.856	74.88
352.083	77.88
352.311	86.88
352.538	70.88
352.765	80.88
352.992	88.88
353.22	93.88
353.447	81.88
353.674	89.88
353.901	89.88
354.128	79.88
354.355	98.88
354.583	90.88
354.81	98.88
355.037	93.88
355.264	100.88
355.491	71.88
355.718	91.88
355.945	92.88
356.172	91.88
356.399	79.88
356.626	100.88
356.853	87.88
357.08	106.88
357.307	96.88
357.534	98.88
357.761	102.88
357.988	116.88
358.215	99.88
358.441	81.88
358.668	98.88
358.895	94.88
359.122	98.88
359.349	112.88
359.576	117.88
359.802	83.88
360.029	95.88
360.256	106.88
360.483	101.88
360.709	115.88
360.936	90.88
361.163	87.88
361.39	83.88
361.616	87.88
361.843	77.88
362.07	88.88
362.296	88.88
362.523	81.88
362.749	82.88
362.976	76.88
363.203	94.88
363.429	84.88
363.656	88.88
363.882	104.88
364.109	89.88
364.335	92.88
364.562	69.88
364.788	80.88
365.015	89.88
365.241	85.88
365.468	84.88
365.694	74.88
365.92	101.88
366.147	85.88
366.373	82.88
366.599	85.88
366.826	82.88
367.052	86.88
367.278	79.88
367.505	94.88
367.731	67.88
367.957	96.88
368.184	88.88
368.41	89.88
368.636	89.88
368.862	79.88
369.089	78.88
369.315	98.88
369.541	87.88
369.767	79.88
369.993	79.88
370.219	87.88
370.445	92.88
370.672	89.88
370.898	75.88
371.124	80.88
371.35	87.88
371.576	94.88
371.802	84.88
372.028	84.88
372.254	83.88
372.48	84.88
372.706	86.88
372.932	87.88
373.158	84.88
373.384	89.88
373.61	70.88
373.835	79.88
374.061	79.88
374.287	100.88
374.513	70.88
374.739	102.88
374.965	86.88
375.191	91.88
375.416	83.88
375.642	92.88
375.868	92.88
376.094	86.88
376.319	84.88
376.545	90.88
376.771	75.88
376.997	62.88
377.222	68.88
377.448	75.88
377.674	87.88
377.899	86.88
378.125	93.88
378.35	87.88
378.576	83.88
378.802	85.88
379.027	80.88
379.253	92.88
379.478	74.88
379.704	96.88
379.929	79.88
380.155	80.88
380.38	95.88
380.606	95.88
380.831	78.88
381.057	80.88
381.282	93.88
381.507	82.88
381.733	85.88
381.958	95.88
382.184	91.88
382.409	98.88
382.634	84.88
382.86	68.88
383.085	87.88
383.31	93.88
383.535	86.88
383.761	75.88
383.986	88.88
384.211	88.88
384.436	93.88
384.662	94.88
384.887	96.88
385.112	90.88
385.337	85.88
385.562	78.88
385.787	79.88
386.013	74.88
386.238	98.88
386.463	86.88
386.688	102.88
386.913	79.88
387.138	72.88
387.363	93.88
387.588	70.88
387.813	90.88
388.038	95.88
388.263	79.88
388.488	99.88
388.713	90.88
388.938	79.88
389.163	74.88
389.387	90.88
389.612	83.88
389.837	75.88
390.062	75.88
390.287	86.88
390.512	89.88
390.736	87.88
390.961	90.88
391.186	87.88
391.411	98.88
391.636	91.88
391.86	92.88
392.085	102.88
392.31	77.88
392.534	72.88
392.759	72.88
392.984	94.88
393.208	86.88
393.433	90.88
393.658	74.88
393.882	81.88
394.107	89.88
394.331	82.88
394.556	87.88
394.78	93.88
395.005	77.88
395.229	80.88
395.454	70.88
395.678	95.88
395.903	93.88
396.127	88.88
396.352	95.88
396.576	98.88
396.801	78.88
397.025	99.88
397.249	86.88
397.474	89.88
397.698	110.88
397.922	91.88
398.147	91.88
398.371	95.88
398.595	88.88
398.82	91.88
399.044	84.88
399.268	92.88
399.492	96.88
399.717	86.88
399.941	94.88
400.165	82.88
400.389	86.88
400.613	73.88
400.837	82.88
401.062	80.88
401.286	76.88
401.51	82.88
401.734	80.88
401.958	99.88
402.182	78.88
402.406	95.88
402.63	83.88
402.854	92.88
403.078	82.88
403.302	83.88
403.526	82.88
403.75	75.88
403.974	75.88
404.198	82.88
404.422	78.88
404.645	82.88
404.869	82.88
405.093	76.88
405.317	69.88
405.541	96.88
405.765	86.88
405.988	72.88
406.212	86.88
406.436	70.88
406.66	86.88
406.883	80.88
407.107	70.88
407.331	74.88
407.555	84.88
407.778	82.88
408.002	94.88
408.226	89.88
408.449	69.88
408.673	96.88
408.896	81.88
409.12	82.88
409.344	83.88
409.567	86.88
409.791	71.88
410.014	70.88
410.238	84.88
410.461	69.88
410.685	83.88
410.908	93.88
411.132	74.88
411.355	77.88
411.578	78.88
411.802	72.88
412.025	91.88
412.249	92.88
412.472	74.88
412.695	82.88
412.919	78.88
413.142	77.88
413.365	67.88
413.589	88.88
413.812	81.88
414.035	85.88
414.258	69.88
414.482	70.88
414.705	88.88
414.928	71.88
415.151	70.88
415.374	81.88
415.597	87.88
415.821	80.88
416.044	70.88
416.267	86.88
416.49	70.88
416.713	82.88
416.936	81.88
417.159	91.88
417.382	72.88
417.605	85.88
417.828	79.88
418.051	55.88
418.274	78.88
418.497	67.88
418.72	88.88
418.943	86.88
419.166	76.88
419.389	82.88
419.611	103.88
419.834	95.88
420.057	75.88
420.28	64.88
420.503	68.88
420.726	72.88
420.948	87.88
421.171	82.88
421.394	99.88
421.617	89.88
421.839	74.88
422.062	77.88
422.285	85.88
422.507	85.88
422.73	90.88
422.953	71.88
423.175	74.88
423.398	82.88
423.621	83.88
423.843	74.88
424.066	85.88
424.288	85.88
424.511	81.88
424.733	77.88
424.956	75.88
425.178	110.88
425.401	125.88
425.623	134.88
425.846	90.88
426.068	70.88
426.291	86.88
426.513	78.88
426.735	58.88
426.958	86.88
427.18	82.88
427.402	116.88
427.625	147.88
427.847	102.88
428.069	84.88
428.292	104.88
428.514	89.88
428.736	84.88
428.958	118.88
429.181	130.88
429.403	100.88
429.625	84.88
429.847	99.88
430.069	74.88
430.292	92.88
430.514	79.88
430.736	74.88
430.958	88.88
431.18	84.88
431.402	88.88
431.624	76.88
431.846	78.88
432.068	86.88
432.29	88.88
432.512	81.88
432.734	79.88
432.956	92.88
433.178	78.88
433.4	85.88
433.622	88.88
433.844	112.88
434.066	100.88
434.287	94.88
434.509	100.88
434.731	99.88
434.953	92.88
435.175	117.88
435.397	118.88
435.618	83.88
435.84	90.88
436.062	95.88
436.284	81.88
436.505	76.88
436.727	70.88
436.949	70.88
437.17	102.88
437.392	100.88
437.614	74.88
437.835	89.88
438.057	78.88
438.278	88.88
438.5	83.88
438.721	93.88
438.943	77.88
439.165	89.88
439.386	90.88
439.608	77.88
439.829	83.88
440.05	92.88
440.272	76.88
440.493	98.88
440.715	79.88
440.936	91.88
441.158	99.88
441.379	84.88
441.6	72.88
441.822	83.88
442.043	81.88
442.264	77.88
442.486	82.88
442.707	70.88
442.928	88.88
443.149	73.88
443.371	89.88
443.592	80.88
443.813	74.88
444.034	74.88
444.255	80.88
444.476	80.88
444.698	82.88
444.919	89.88
445.14	159.88
445.361	106.88
445.582	83.88
445.803	91.88
446.024	82.88
446.245	82.88
446.466	91.88
446.687	70.88
446.908	84.88
447.129	83.88
447.35	90.88
447.571	86.88
447.792	90.88
448.013	88.88
448.234	72.88
448.455	89.88
448.675	89.88
448.896	72.88
449.117	80.88
449.338	83.88
449.559	79.88
449.779	89.88
450	104.88
450.221	86.88
450.442	86.88
450.662	90.88
450.883	76.88
451.104	86.88
451.324	95.88
451.545	76.88
451.766	89.88
451.986	77.88
452.207	72.88
452.428	88.88
452.648	113.88
452.869	94.88
453.089	106.88
453.31	87.88
453.53	87.88
453.751	78.88
453.971	76.88
454.192	89.88
454.412	80.88
454.633	98.88
454.853	95.88
455.073	100.88
455.294	84.88
455.514	80.88
455.734	102.88
455.955	84.88
456.175	88.88
456.395	79.88
456.616	78.88
456.836	96.88
457.056	85.88
457.276	82.88
457.497	86.88
457.717	79.88
457.937	92.88
458.157	87.88
458.377	83.88
458.598	92.88
458.818	103.88
459.038	88.88
459.258	99.88
459.478	92.88
459.698	90.88
459.918	95.88
460.138	78.88
460.358	91.88
460.578	78.88
460.798	64.88
461.018	78.88
461.238	79.88
461.458	87.88
461.678	94.88
461.898	82.88
462.118	92.88
462.338	94.88
462.558	81.88
462.777	97.88
462.997	88.88
463.217	80.88
463.437	84.88
463.657	77.88
463.876	88.88
464.096	87.88
464.316	79.88
464.536	96.88
464.755	107.88
464.975	95.88
465.195	94.88
465.414	111.88
465.634	96.88
465.854	86.88
466.073	74.88
466.293	87.88
466.512	95.88
466.732	87.88
466.951	71.88
467.171	90.88
467.391	90.88
467.61	77.88
467.829	78.88
468.049	80.88
468.268	76.88
468.488	82.88
468.707	84.88
468.927	79.88
469.146	98.88
469.365	78.88
469.585	84.88
469.804	87.88
470.023	90.88
470.243	102.88
470.462	96.88
470.681	76.88
470.901	78.88
471.12	80.88
471.339	65.88
471.558	90.88
471.777	76.88
471.997	88.88
472.216	91.88
472.435	95.88
472.654	87.88
472.873	89.88
473.092	93.88
473.311	96.88
473.53	98.88
473.749	84.88
473.968	87.88
474.187	83.88
474.406	87.88
474.625	80.88
474.844	76.88
475.063	82.88
475.282	88.88
475.501	103.88
475.72	102.88
475.939	100.88
476.158	87.88
476.377	90.88
476.596	98.88
476.814	78.88
477.033	86.88
477.252	79.88
477.471	78.88
477.69	70.88
477.908	77.88
478.127	90.88
478.346	86.88
478.564	79.88
478.783	94.88
479.002	87.88
479.22	98.88
479.439	86.88
479.658	86.88
479.876	87.88
480.095	88.88
480.313	87.88
480.532	83.88
480.751	91.88
480.969	68.88
481.188	84.88
481.406	72.88
481.624	79.88
481.843	84.88
482.061	76.88
482.28	84.88
482.498	84.88
482.717	81.88
482.935	98.88
483.153	113.88
483.372	87.88
483.59	87.88
483.808	84.88
484.027	84.88
484.245	75.88
484.463	76.88
484.681	92.88
484.9	86.88
485.118	72.88
485.336	86.88
485.554	78.88
485.772	93.88
485.99	72.88
486.209	90.88
486.427	90.88
486.645	79.88
486.863	66.88
487.081	77.88
487.299	82.88
487.517	87.88
487.735	101.88
487.953	81.88
488.171	80.88
488.389	78.88
488.607	90.88
488.825	87.88
489.043	97.88
489.261	94.88
489.479	82.88
489.696	83.88
489.914	93.88
490.132	85.88
490.35	88.88
490.568	79.88
490.786	73.88
491.003	84.88
491.221	86.88
491.439	94.88
491.657	82.88
491.874	80.88
492.092	93.88
492.31	92.88
492.527	111.88
492.745	83.88
492.963	77.88
493.18	91.88
493.398	84.88
493.615	92.88
493.833	88.88
494.05	96.88
494.268	85.88
494.485	85.88
494.703	86.88
494.92	88.88
495.138	79.88
495.355	90.88
495.573	83.88
495.79	104.88
496.008	85.88
496.225	88.88
496.442	86.88
496.66	79.88
496.877	81.88
497.094	94.88
497.312	86.88
497.529	87.88
497.746	85.88
497.963	80.88
498.181	87.88
498.398	84.88
498.615	70.88
498.832	82.88
499.049	80.88
499.267	92.88
499.484	75.88
499.701	96.88
499.918	95.88
500.135	72.88
500.352	86.88
500.569	75.88
500.786	72.88
501.003	78.88
501.22	77.88
501.437	84.88
501.654	71.88
501.871	82.88
502.088	88.88
502.305	86.88
502.522	86.88
502.739	75.88
502.956	85.88
503.172	76.88
503.389	87.88
503.606	75.88
503.823	89.88
504.04	78.88
504.256	78.88
504.473	70.88
504.69	78.88
504.907	90.88
505.123	85.88
505.34	72.88
505.557	80.88
505.773	83.88
505.99	86.88
506.207	88.88
506.423	94.88
506.64	93.88
506.856	87.88
507.073	83.88
507.289	69.88
507.506	94.88
507.722	86.88
507.939	86.88
508.155	71.88
508.372	84.88
508.588	79.88
508.805	75.88
509.021	70.88
509.238	84.88
509.454	90.88
509.67	96.88
509.887	73.88
510.103	94.88
510.319	80.88
510.536	92.88
510.752	83.88
510.968	86.88
511.184	83.88
511.401	74.88
511.617	79.88
511.833	89.88
512.049	68.88
512.265	83.88
512.481	89.88
512.698	84.88
512.914	77.88
513.13	78.88
513.346	75.88
513.562	82.88
513.778	80.88
513.994	86.88
514.21	85.88
514.426	81.88
514.642	78.88
514.858	76.88
515.074	87.88
515.29	91.88
515.506	67.88
515.721	78.88
515.937	79.88
516.153	87.88
516.369	79.88
516.585	85.88
516.801	84.88
517.016	106.88
517.232	72.88
517.448	72.88
517.664	84.88
517.879	82.88
518.095	78.88
518.311	88.88
518.527	92.88
518.742	95.88
518.958	83.88
519.173	92.88
519.389	89.88
