Data from StA_HRD10591_082.txt Node
Date: Fri May 16 15:19:24 EDT 2025
User: Yrep
Spectrometer: HR+D1059
Trigger mode: 1
Integration Time (sec): 1.000000E-1
Scans to average: 1
Electric dark correction enabled: true
Nonlinearity correction enabled: false
Boxcar width: 0
XAxis mode: Wavelengths
Number of Pixels in Spectrum: 2048
>>>>>Begin Spectral Data<<<<<
223.165	-19
223.4	-19
223.635	-19
223.869	-18
224.104	-27
224.338	-12
224.573	-18
224.808	-14
225.042	-9
225.277	-10
225.511	-4
225.746	-1
225.98	7
226.215	14
226.449	25
226.683	26
226.918	37
227.152	23
227.387	37
227.621	33
227.856	44
228.09	60
228.324	51
228.559	51
228.793	58
229.027	64
229.262	66
229.496	62
229.73	66
229.964	70
230.199	63
230.433	67
230.667	64
230.901	63
231.136	78
231.37	73
231.604	90
231.838	78
232.072	69
232.306	72
232.541	84
232.775	78
233.009	67
233.243	70
233.477	84
233.711	83
233.945	78
234.179	78
234.413	86
234.647	79
234.881	74
235.115	74
235.349	66
235.583	81
235.817	65
236.051	69
236.285	53
236.519	82
236.753	79
236.987	68
237.221	77
237.455	78
237.689	71
237.922	75
238.156	78
238.39	80
238.624	77
238.858	60
239.091	70
239.325	71
239.559	76
239.793	75
240.027	76
240.26	79
240.494	83
240.728	85
240.961	72
241.195	85
241.429	63
241.662	77
241.896	82
242.13	62
242.363	71
242.597	62
242.83	75
243.064	61
243.298	73
243.531	66
243.765	77
243.998	81
244.232	69
244.465	65
244.699	65
244.932	73
245.166	79
245.399	67
245.633	67
245.866	88
246.099	75
246.333	82
246.566	83
246.8	72
247.033	69
247.266	65
247.5	81
247.733	75
247.966	70
248.2	69
248.433	62
248.666	85
248.899	71
249.133	83
249.366	81
249.599	82
249.832	78
250.066	71
250.299	77
250.532	74
250.765	78
250.998	63
251.231	77
251.465	81
251.698	82
251.931	77
252.164	87
252.397	70
252.63	75
252.863	71
253.096	80
253.329	62
253.562	74
253.795	77
254.028	72
254.261	82
254.494	80
254.727	78
254.96	70
255.193	85
255.426	79
255.659	70
255.892	84
256.124	80
256.357	91
256.59	84
256.823	71
257.056	80
257.289	91
257.521	86
257.754	71
257.987	69
258.22	68
258.452	89
258.685	81
258.918	71
259.151	74
259.383	66
259.616	76
259.849	86
260.081	73
260.314	68
260.547	84
260.779	68
261.012	89
261.244	83
261.477	79
261.71	73
261.942	72
262.175	71
262.407	84
262.64	83
262.872	82
263.105	78
263.337	82
263.57	72
263.802	104
264.035	74
264.267	78
264.499	76
264.732	86
264.964	79
265.197	82
265.429	87
265.661	72
265.894	84
266.126	77
266.358	73
266.591	76
266.823	90
267.055	86
267.287	77
267.52	73
267.752	79
267.984	77
268.216	88
268.448	79
268.681	77
268.913	83
269.145	85
269.377	82
269.609	76
269.841	85
270.073	79
270.306	90
270.538	82
270.77	83
271.002	70
271.234	83
271.466	83
271.698	81
271.93	87
272.162	67
272.394	68
272.626	80
272.858	90
273.09	82
273.322	81
273.553	68
273.785	63
274.017	79
274.249	94
274.481	79
274.713	83
274.945	76
275.176	91
275.408	89
275.64	86
275.872	90
276.104	91
276.335	83
276.567	78
276.799	88
277.031	88
277.262	91
277.494	79
277.726	61
277.957	97
278.189	73
278.421	69
278.652	92
278.884	87
279.115	64
279.347	69
279.579	86
279.81	62
280.042	81
280.273	87
280.505	86
280.736	83
280.968	71
281.199	78
281.431	82
281.662	89
281.894	61
282.125	74
282.356	85
282.588	85
282.819	92
283.051	82
283.282	78
283.513	85
283.745	78
283.976	87
284.207	78
284.439	91
284.67	76
284.901	78
285.132	82
285.364	93
285.595	75
285.826	84
286.057	81
286.288	89
286.52	78
286.751	102
286.982	87
287.213	91
287.444	84
287.675	96
287.906	77
288.138	86
288.369	81
288.6	81
288.831	74
289.062	85
289.293	73
289.524	94
289.755	84
289.986	90
290.217	85
290.448	83
290.679	73
290.91	89
291.141	81
291.371	77
291.602	78
291.833	101
292.064	84
292.295	80
292.526	77
292.757	85
292.987	100
293.218	78
293.449	83
293.68	83
293.91	86
294.141	77
294.372	95
294.603	87
294.833	83
295.064	70
295.295	86
295.525	84
295.756	81
295.987	88
296.217	69
296.448	78
296.679	86
296.909	79
297.14	92
297.37	70
297.601	61
297.831	87
298.062	86
298.292	93
298.523	89
298.753	91
298.984	86
299.214	84
299.445	97
299.675	101
299.905	83
300.136	76
300.366	95
300.597	91
300.827	86
301.057	78
301.288	86
301.518	90
301.748	92
301.979	111
302.209	81
302.439	91
302.669	91
302.9	85
303.13	83
303.36	82
303.59	86
303.82	93
304.051	80
304.281	75
304.511	85
304.741	86
304.971	84
305.201	76
305.431	75
305.661	99
305.891	79
306.121	84
306.352	72
306.582	73
306.812	84
307.042	78
307.272	66
307.502	91
307.731	63
307.961	74
308.191	72
308.421	71
308.651	83
308.881	75
309.111	73
309.341	79
309.571	91
309.8	88
310.03	83
310.26	91
310.49	76
310.72	93
310.949	77
311.179	87
311.409	81
311.639	87
311.868	85
312.098	86
312.328	69
312.557	85
312.787	88
313.017	81
313.246	98
313.476	87
313.706	64
313.935	78
314.165	82
314.394	81
314.624	82
314.853	93
315.083	97
315.312	76
315.542	81
315.771	83
316.001	77
316.23	73
316.46	84
316.689	85
316.919	73
317.148	79
317.377	84
317.607	89
317.836	82
318.065	85
318.295	92
318.524	84
318.753	86
318.983	83
319.212	88
319.441	103
319.67	83
319.9	95
320.129	96
320.358	79
320.587	79
320.816	79
321.046	87
321.275	59
321.504	62
321.733	82
321.962	89
322.191	77
322.42	82
322.649	77
322.878	81
323.108	78
323.337	87
323.566	72
323.795	71
324.024	68
324.253	73
324.482	82
324.71	78
324.939	73
325.168	77
325.397	92
325.626	71
325.855	73
326.084	97
326.313	79
326.542	92
326.77	64
326.999	84
327.228	77
327.457	90
327.686	84
327.914	93
328.143	93
328.372	81
328.6	83
328.829	78
329.058	81
329.287	79
329.515	78
329.744	85
329.972	83
330.201	84
330.43	99
330.658	81
330.887	78
331.115	94
331.344	67
331.572	83
331.801	77
332.03	78
332.258	78
332.486	84
332.715	84
332.943	90
333.172	75
333.4	89
333.629	97
333.857	83
334.085	76
334.314	90
334.542	85
334.771	86
334.999	72
335.227	91
335.455	69
335.684	81
335.912	85
336.14	84
336.369	74
336.597	75
336.825	91
337.053	91
337.281	84
337.51	82
337.738	81
337.966	87
338.194	83
338.422	76
338.65	105
338.878	76
339.106	92
339.334	84
339.562	90
339.79	82
340.018	74
340.246	82
340.474	78
340.702	83
340.93	91
341.158	90
341.386	86
341.614	72
341.842	77
342.07	71
342.298	81
342.526	99
342.754	93
342.981	82
343.209	80
343.437	89
343.665	96
343.893	81
344.12	77
344.348	95
344.576	86
344.804	76
345.031	92
345.259	99
345.487	82
345.714	82
345.942	87
346.17	81
346.397	93
346.625	82
346.853	81
347.08	90
347.308	73
347.535	71
347.763	74
347.99	94
348.218	76
348.445	70
348.673	77
348.9	89
349.128	91
349.355	81
349.583	95
349.81	82
350.037	81
350.265	87
350.492	79
350.72	78
350.947	77
351.174	78
351.402	69
351.629	79
351.856	83
352.083	82
352.311	82
352.538	68
352.765	84
352.992	91
353.22	63
353.447	78
353.674	69
353.901	83
354.128	79
354.355	85
354.583	86
354.81	93
355.037	90
355.264	84
355.491	67
355.718	69
355.945	86
356.172	90
356.399	104
356.626	93
356.853	86
357.08	95
357.307	93
357.534	89
357.761	110
357.988	122
358.215	94
358.441	94
358.668	93
358.895	106
359.122	91
359.349	106
359.576	100
359.802	75
360.029	85
360.256	92
360.483	86
360.709	106
360.936	100
361.163	89
361.39	77
361.616	92
361.843	87
362.07	59
362.296	72
362.523	75
362.749	78
362.976	74
363.203	97
363.429	83
363.656	93
363.882	84
364.109	86
364.335	90
364.562	76
364.788	92
365.015	82
365.241	103
365.468	83
365.694	78
365.92	91
366.147	82
366.373	73
366.599	91
366.826	82
367.052	92
367.278	71
367.505	83
367.731	95
367.957	78
368.184	78
368.41	79
368.636	93
368.862	84
369.089	81
369.315	75
369.541	79
369.767	89
369.993	79
370.219	91
370.445	77
370.672	65
370.898	78
371.124	83
371.35	79
371.576	77
371.802	78
372.028	57
372.254	76
372.48	95
372.706	86
372.932	97
373.158	83
373.384	87
373.61	76
373.835	89
374.061	78
374.287	92
374.513	115
374.739	91
374.965	76
375.191	81
375.416	82
375.642	74
375.868	96
376.094	82
376.319	72
376.545	73
376.771	82
376.997	93
377.222	69
377.448	78
377.674	75
377.899	78
378.125	82
378.35	86
378.576	77
378.802	73
379.027	79
379.253	74
379.478	84
379.704	94
379.929	94
380.155	90
380.38	84
380.606	89
380.831	69
381.057	89
381.282	80
381.507	85
381.733	79
381.958	72
382.184	83
382.409	90
382.634	75
382.86	90
383.085	85
383.31	76
383.535	79
383.761	82
383.986	85
384.211	82
384.436	89
384.662	72
384.887	85
385.112	70
385.337	84
385.562	77
385.787	71
386.013	79
386.238	74
386.463	70
386.688	106
386.913	83
387.138	78
387.363	83
387.588	90
387.813	79
388.038	73
388.263	91
388.488	90
388.713	84
388.938	86
389.163	81
389.387	75
389.612	78
389.837	79
390.062	89
390.287	99
390.512	86
390.736	73
390.961	93
391.186	88
391.411	70
391.636	78
391.86	83
392.085	93
392.31	86
392.534	85
392.759	88
392.984	87
393.208	90
393.433	68
393.658	87
393.882	83
394.107	83
394.331	85
394.556	98
394.78	74
395.005	78
395.229	62
395.454	83
395.678	69
395.903	62
396.127	71
396.352	93
396.576	94
396.801	86
397.025	79
397.249	99
397.474	89
397.698	78
397.922	89
398.147	88
398.371	81
398.595	84
398.82	93
399.044	73
399.268	85
399.492	89
399.717	68
399.941	77
400.165	69
400.389	79
400.613	90
400.837	68
401.062	83
401.286	75
401.51	85
401.734	77
401.958	82
402.182	79
402.406	77
402.63	74
402.854	78
403.078	90
403.302	80
403.526	66
403.75	73
403.974	86
404.198	79
404.422	87
404.645	82
404.869	74
405.093	74
405.317	79
405.541	81
405.765	85
405.988	83
406.212	68
406.436	86
406.66	75
406.883	79
407.107	73
407.331	74
407.555	70
407.778	71
408.002	85
408.226	73
408.449	84
408.673	69
408.896	98
409.12	71
409.344	75
409.567	81
409.791	82
410.014	70
410.238	80
410.461	86
410.685	74
410.908	68
411.132	74
411.355	85
411.578	81
411.802	72
412.025	81
412.249	90
412.472	78
412.695	80
412.919	81
413.142	81
413.365	74
413.589	81
413.812	76
414.035	92
414.258	81
414.482	81
414.705	66
414.928	80
415.151	83
415.374	76
415.597	76
415.821	81
416.044	83
416.267	77
416.49	73
416.713	93
416.936	80
417.159	78
417.382	85
417.605	75
417.828	71
418.051	87
418.274	79
418.497	79
418.72	81
418.943	76
419.166	69
419.389	75
419.611	87
419.834	77
420.057	91
420.28	76
420.503	81
420.726	76
420.948	61
421.171	86
421.394	94
421.617	84
421.839	72
422.062	81
422.285	85
422.507	78
422.73	91
422.953	69
423.175	79
423.398	83
423.621	77
423.843	64
424.066	78
424.288	77
424.511	74
424.733	91
424.956	80
425.178	92
425.401	118
425.623	130
425.846	93
426.068	90
426.291	68
426.513	76
426.735	84
426.958	71
427.18	82
427.402	105
427.625	129
427.847	88
428.069	97
428.292	77
428.514	70
428.736	80
428.958	113
429.181	117
429.403	88
429.625	77
429.847	74
430.069	82
430.292	85
430.514	77
430.736	68
430.958	76
431.18	67
431.402	93
431.624	68
431.846	71
432.068	73
432.29	88
432.512	72
432.734	79
432.956	91
433.178	66
433.4	82
433.622	83
433.844	105
434.066	91
434.287	85
434.509	97
434.731	78
434.953	82
435.175	102
435.397	97
435.618	78
435.84	72
436.062	78
436.284	92
436.505	79
436.727	85
436.949	77
437.17	74
437.392	71
437.614	69
437.835	76
438.057	68
438.278	83
438.5	86
438.721	77
438.943	75
439.165	82
439.386	81
439.608	85
439.829	74
440.05	80
440.272	86
440.493	71
440.715	71
440.936	75
441.158	92
441.379	78
441.6	92
441.822	103
442.043	85
442.264	77
442.486	70
442.707	85
442.928	83
443.149	71
443.371	69
443.592	71
443.813	91
444.034	74
444.255	82
444.476	81
444.698	81
444.919	95
445.14	165
445.361	117
445.582	78
445.803	72
446.024	93
446.245	63
446.466	85
446.687	75
446.908	81
447.129	76
447.35	90
447.571	73
447.792	85
448.013	93
448.234	83
448.455	77
448.675	73
448.896	86
449.117	75
449.338	75
449.559	85
449.779	92
450	76
450.221	72
450.442	76
450.662	83
450.883	90
451.104	83
451.324	74
451.545	77
451.766	75
451.986	77
452.207	85
452.428	79
452.648	74
452.869	90
453.089	93
453.31	90
453.53	90
453.751	79
453.971	76
454.192	86
454.412	87
454.633	106
454.853	88
455.073	76
455.294	77
455.514	98
455.734	68
455.955	84
456.175	92
456.395	86
456.616	79
456.836	80
457.056	83
457.276	90
457.497	92
457.717	83
457.937	79
458.157	97
458.377	79
458.598	91
458.818	86
459.038	85
459.258	73
459.478	67
459.698	78
459.918	82
460.138	106
460.358	81
460.578	65
460.798	82
461.018	80
461.238	85
461.458	99
461.678	98
461.898	78
462.118	87
462.338	83
462.558	55
462.777	79
462.997	73
463.217	92
463.437	67
463.657	73
463.876	69
464.096	81
464.316	77
464.536	71
464.755	118
464.975	105
465.195	89
465.414	102
465.634	96
465.854	71
466.073	77
466.293	81
466.512	91
466.732	93
466.951	86
467.171	87
467.391	88
467.61	99
467.829	69
468.049	89
468.268	77
468.488	74
468.707	92
468.927	88
469.146	79
469.365	70
469.585	85
469.804	81
470.023	91
470.243	70
470.462	90
470.681	88
470.901	83
471.12	83
471.339	78
471.558	84
471.777	80
471.997	83
472.216	89
472.435	74
472.654	81
472.873	85
473.092	85
473.311	83
473.53	86
473.749	71
473.968	86
474.187	71
474.406	77
474.625	80
474.844	90
475.063	90
475.282	72
475.501	81
475.72	87
475.939	78
476.158	79
476.377	77
476.596	72
476.814	77
477.033	76
477.252	69
477.471	97
477.69	83
477.908	66
478.127	89
478.346	76
478.564	78
478.783	86
479.002	83
479.22	75
479.439	86
479.658	69
479.876	71
480.095	89
480.313	78
480.532	71
480.751	65
480.969	84
481.188	83
481.406	78
481.624	82
481.843	79
482.061	62
482.28	83
482.498	88
482.717	70
482.935	83
483.153	85
483.372	84
483.59	86
483.808	89
484.027	77
484.245	77
484.463	75
484.681	87
484.9	82
485.118	79
485.336	86
485.554	86
485.772	77
485.99	76
486.209	86
486.427	82
486.645	83
486.863	86
487.081	78
487.299	91
487.517	81
487.735	79
487.953	83
488.171	73
488.389	75
488.607	92
488.825	96
489.043	98
489.261	83
489.479	86
489.696	89
489.914	86
490.132	87
490.35	77
490.568	89
490.786	88
491.003	88
491.221	77
491.439	71
491.657	77
491.874	84
492.092	89
492.31	86
492.527	110
492.745	81
492.963	84
493.18	79
493.398	85
493.615	73
493.833	98
494.05	89
494.268	77
494.485	97
494.703	100
494.92	87
495.138	87
495.355	79
495.573	93
495.79	83
496.008	71
496.225	83
496.442	69
496.66	85
496.877	78
497.094	88
497.312	73
497.529	64
497.746	96
497.963	78
498.181	78
498.398	82
498.615	90
498.832	72
499.049	85
499.267	84
499.484	76
499.701	84
499.918	95
500.135	85
500.352	83
500.569	85
500.786	77
501.003	91
501.22	70
501.437	83
501.654	71
501.871	79
502.088	86
502.305	81
502.522	75
502.739	78
502.956	63
503.172	80
503.389	89
503.606	76
503.823	83
504.04	92
504.256	74
504.473	75
504.69	84
504.907	74
505.123	93
505.34	80
505.557	74
505.773	80
505.99	75
506.207	81
506.423	73
506.64	78
506.856	77
507.073	73
507.289	78
507.506	76
507.722	78
507.939	81
508.155	101
508.372	70
508.588	80
508.805	85
509.021	90
509.238	86
509.454	79
509.67	82
509.887	86
510.103	88
510.319	85
510.536	80
510.752	84
510.968	64
511.184	74
511.401	92
511.617	70
511.833	76
512.049	84
512.265	81
512.481	72
512.698	78
512.914	84
513.13	77
513.346	92
513.562	78
513.778	77
513.994	83
514.21	92
514.426	84
514.642	71
514.858	83
515.074	88
515.29	88
515.506	80
515.721	89
515.937	84
516.153	103
516.369	75
516.585	86
516.801	77
517.016	81
517.232	76
517.448	86
517.664	102
517.879	90
518.095	87
518.311	77
518.527	89
518.742	98
518.958	80
519.173	85
519.389	86
519.605	80
519.82	81
520.036	78
520.251	101
520.467	173
520.682	341
520.898	319
521.113	238
521.329	118
521.544	83
521.76	88
521.975	98
522.19	91
522.406	84
522.621	87
522.836	94
523.052	81
523.267	79
523.482	89
523.698	76
523.913	98
524.128	85
524.343	101
524.559	94
524.774	86
524.989	106
525.204	94
525.419	81
525.634	73
525.849	99
526.064	75
526.28	72
526.495	101
526.71	127
526.925	84
527.14	89
527.355	74
527.57	116
527.785	109
527.999	93
528.214	80
528.429	84
528.644	74
528.859	85
529.074	81
529.289	91
529.503	83
529.718	126
529.933	179
530.148	140
530.363	102
530.577	77
530.792	83
531.007	75
531.221	64
531.436	77
531.651	86
531.865	81
532.08	90
532.295	89
532.509	102
532.724	86
532.938	120
533.153	131
533.367	99
533.582	87
533.796	75
534.011	83
534.225	79
534.44	102
534.654	136
534.868	161
535.083	128
535.297	105
535.511	81
535.726	88
535.94	87
536.154	92
536.369	77
536.583	76
536.797	77
537.011	95
537.225	84
537.44	75
537.654	87
537.868	88
538.082	89
538.296	73
538.51	86
538.724	85
538.938	78
539.153	94
539.367	89
539.581	89
539.795	97
540.009	92
540.222	83
540.436	83
540.65	77
540.864	91
541.078	138
541.292	126
541.506	86
541.72	75
541.934	76
542.147	78
542.361	81
542.575	67
542.789	87
543.002	84
543.216	85
543.43	81
543.644	88
543.857	85
544.071	85
544.285	88
544.498	80
544.712	86
544.925	82
545.139	83
545.352	90
545.566	97
545.779	81
545.993	91
546.206	81
546.42	79
546.633	85
546.847	82
547.06	80
547.274	86
547.487	87
547.7	77
547.914	89
548.127	97
548.34	91
548.554	93
548.767	83
548.98	87
549.193	88
549.407	79
549.62	78
549.833	79
550.046	80
550.259	85
550.473	75
550.686	93
550.899	79
551.112	93
551.325	81
551.538	98
551.751	91
551.964	83
552.177	76
552.39	94
552.603	99
552.816	82
553.029	78
553.242	86
553.455	94
553.667	76
553.88	92
554.093	86
554.306	71
554.519	87
554.732	86
554.944	99
555.157	92
555.37	78
555.583	94
555.795	86
556.008	72
556.221	76
556.433	92
556.646	79
556.859	76
557.071	91
557.284	87
557.496	89
557.709	105
557.921	87
558.134	101
558.346	90
558.559	90
558.771	86
558.984	83
559.196	88
559.409	84
559.621	83
559.833	90
560.046	89
560.258	75
560.47	76
560.683	93
560.895	82
561.107	87
561.32	93
561.532	90
561.744	83
561.956	92
562.168	93
562.381	75
562.593	74
562.805	76
563.017	87
563.229	84
563.441	90
563.653	87
563.865	79
564.077	78
564.289	86
564.501	87
564.713	94
564.925	82
565.137	93
565.349	87
565.561	87
565.773	83
565.985	93
566.197	76
566.408	65
566.62	88
566.832	93
567.044	70
567.255	86
567.467	86
567.679	93
567.891	75
568.102	99
568.314	78
568.526	84
568.737	91
568.949	89
569.161	86
569.372	80
569.584	83
569.795	83
570.007	79
570.218	92
570.43	81
570.641	84
570.853	90
571.064	87
571.276	82
571.487	84
571.698	85
571.91	71
572.121	84
572.333	76
572.544	76
572.755	83
572.966	75
573.178	94
573.389	99
573.6	81
573.811	74
574.023	78
574.234	79
574.445	83
574.656	82
574.867	82
575.078	75
575.289	83
575.501	77
575.712	83
575.923	86
576.134	89
576.345	81
576.556	80
576.767	80
576.978	90
577.188	75
577.399	78
577.61	79
577.821	82
578.032	78
578.243	87
578.454	81
578.665	99
578.875	93
579.086	87
579.297	91
579.508	82
579.718	85
579.929	78
580.14	69
580.35	86
580.561	88
580.772	82
580.982	77
581.193	89
581.403	100
581.614	89
581.825	84
582.035	92
582.246	92
582.456	82
582.667	80
582.877	74
583.087	87
583.298	80
583.508	89
583.719	76
583.929	80
584.139	80
584.35	93
584.56	90
584.77	78
584.981	68
585.191	89
585.401	95
585.611	78
585.821	80
586.032	89
586.242	78
586.452	73
586.662	79
586.872	81
587.082	81
587.292	91
587.502	90
587.713	90
587.923	88
588.133	97
588.343	89
588.553	73
588.762	84
588.972	69
589.182	77
589.392	87
589.602	77
589.812	71
590.022	93
