Data from StA_HRD10591_054.txt Node
Date: Fri May 16 15:19:10 EDT 2025
User: Yrep
Spectrometer: HR+D1059
Trigger mode: 1
Integration Time (sec): 1.000000E-1
Scans to average: 1
Electric dark correction enabled: true
Nonlinearity correction enabled: false
Boxcar width: 0
XAxis mode: Wavelengths
Number of Pixels in Spectrum: 2048
>>>>>Begin Spectral Data<<<<<
223.165	-12.69
223.4	-12.69
223.635	-12.69
223.869	-12.69
224.104	-20.69
224.338	-18.69
224.573	-24.69
224.808	-11.69
225.042	-7.69
225.277	1.31
225.511	-1.69
225.746	19.31
225.98	3.31
226.215	22.31
226.449	15.31
226.683	4.31
226.918	25.31
227.152	19.31
227.387	15.31
227.621	34.31
227.856	48.31
228.09	45.31
228.324	51.31
228.559	43.31
228.793	46.31
229.027	76.31
229.262	71.31
229.496	71.31
229.73	77.31
229.964	85.31
230.199	90.31
230.433	96.31
230.667	83.31
230.901	75.31
231.136	89.31
231.37	89.31
231.604	87.31
231.838	84.31
232.072	103.31
232.306	103.31
232.541	99.31
232.775	91.31
233.009	84.31
233.243	88.31
233.477	83.31
233.711	90.31
233.945	96.31
234.179	89.31
234.413	87.31
234.647	91.31
234.881	87.31
235.115	91.31
235.349	78.31
235.583	84.31
235.817	98.31
236.051	81.31
236.285	65.31
236.519	88.31
236.753	83.31
236.987	87.31
237.221	98.31
237.455	101.31
237.689	81.31
237.922	78.31
238.156	93.31
238.39	87.31
238.624	103.31
238.858	79.31
239.091	84.31
239.325	94.31
239.559	80.31
239.793	76.31
240.027	97.31
240.26	97.31
240.494	96.31
240.728	77.31
240.961	83.31
241.195	96.31
241.429	98.31
241.662	106.31
241.896	98.31
242.13	97.31
242.363	85.31
242.597	99.31
242.83	79.31
243.064	101.31
243.298	92.31
243.531	91.31
243.765	86.31
243.998	99.31
244.232	95.31
244.465	98.31
244.699	97.31
244.932	95.31
245.166	106.31
245.399	97.31
245.633	105.31
245.866	114.31
246.099	103.31
246.333	99.31
246.566	97.31
246.8	110.31
247.033	115.31
247.266	99.31
247.5	122.31
247.733	119.31
247.966	100.31
248.2	103.31
248.433	119.31
248.666	116.31
248.899	119.31
249.133	125.31
249.366	129.31
249.599	121.31
249.832	113.31
250.066	130.31
250.299	126.31
250.532	120.31
250.765	123.31
250.998	137.31
251.231	134.31
251.465	137.31
251.698	123.31
251.931	136.31
252.164	142.31
252.397	141.31
252.63	143.31
252.863	140.31
253.096	161.31
253.329	144.31
253.562	151.31
253.795	146.31
254.028	139.31
254.261	133.31
254.494	153.31
254.727	134.31
254.96	127.31
255.193	135.31
255.426	146.31
255.659	140.31
255.892	144.31
256.124	148.31
256.357	138.31
256.59	153.31
256.823	159.31
257.056	161.31
257.289	168.31
257.521	168.31
257.754	161.31
257.987	153.31
258.22	165.31
258.452	171.31
258.685	181.31
258.918	164.31
259.151	175.31
259.383	172.31
259.616	166.31
259.849	152.31
260.081	155.31
260.314	168.31
260.547	159.31
260.779	176.31
261.012	192.31
261.244	183.31
261.477	171.31
261.71	169.31
261.942	179.31
262.175	185.31
262.407	171.31
262.64	182.31
262.872	191.31
263.105	198.31
263.337	177.31
263.57	181.31
263.802	184.31
264.035	168.31
264.267	180.31
264.499	172.31
264.732	180.31
264.964	168.31
265.197	175.31
265.429	205.31
265.661	214.31
265.894	225.31
266.126	241.31
266.358	285.31
266.591	315.31
266.823	317.31
267.055	313.31
267.287	336.31
267.52	309.31
267.752	348.31
267.984	363.31
268.216	300.31
268.448	236.31
268.681	242.31
268.913	279.31
269.145	292.31
269.377	265.31
269.609	269.31
269.841	286.31
270.073	299.31
270.306	268.31
270.538	259.31
270.77	235.31
271.002	244.31
271.234	273.31
271.466	250.31
271.698	236.31
271.93	245.31
272.162	264.31
272.394	261.31
272.626	273.31
272.858	247.31
273.09	212.31
273.322	204.31
273.553	196.31
273.785	209.31
274.017	257.31
274.249	267.31
274.481	317.31
274.713	314.31
274.945	356.31
275.176	377.31
275.408	363.31
275.64	366.31
275.872	387.31
276.104	427.31
276.335	449.31
276.567	437.31
276.799	401.31
277.031	354.31
277.262	281.31
277.494	256.31
277.726	273.31
277.957	301.31
278.189	343.31
278.421	308.31
278.652	315.31
278.884	301.31
279.115	295.31
279.347	279.31
279.579	260.31
279.81	250.31
280.042	280.31
280.273	289.31
280.505	257.31
280.736	233.31
280.968	263.31
281.199	275.31
281.431	306.31
281.662	305.31
281.894	360.31
282.125	365.31
282.356	387.31
282.588	349.31
282.819	343.31
283.051	397.31
283.282	476.31
283.513	555.31
283.745	591.31
283.976	548.31
284.207	517.31
284.439	527.31
284.67	495.31
284.901	497.31
285.132	519.31
285.364	530.31
285.595	515.31
285.826	531.31
286.057	509.31
286.288	552.31
286.52	586.31
286.751	591.31
286.982	518.31
287.213	422.31
287.444	427.31
287.675	469.31
287.906	436.31
288.138	356.31
288.369	326.31
288.6	293.31
288.831	334.31
289.062	402.31
289.293	412.31
289.524	424.31
289.755	437.31
289.986	425.31
290.217	347.31
290.448	273.31
290.679	255.31
290.91	277.31
291.141	267.31
291.371	275.31
291.602	284.31
291.833	281.31
292.064	309.31
292.295	377.31
292.526	378.31
292.757	407.31
292.987	418.31
293.218	351.31
293.449	370.31
293.68	362.31
293.91	308.31
294.141	309.31
294.372	287.31
294.603	277.31
294.833	287.31
295.064	273.31
295.295	274.31
295.525	241.31
295.756	246.31
295.987	232.31
296.217	252.31
296.448	259.31
296.679	256.31
296.909	276.31
297.14	330.31
297.37	341.31
297.601	337.31
297.831	334.31
298.062	367.31
298.292	368.31
298.523	348.31
298.753	399.31
298.984	349.31
299.214	293.31
299.445	266.31
299.675	243.31
299.905	227.31
300.136	232.31
300.366	231.31
300.597	240.31
300.827	235.31
301.057	245.31
301.288	248.31
301.518	284.31
301.748	311.31
301.979	307.31
302.209	297.31
302.439	313.31
302.669	293.31
302.9	303.31
303.13	288.31
303.36	240.31
303.59	261.31
303.82	284.31
304.051	340.31
304.281	351.31
304.511	317.31
304.741	295.31
304.971	301.31
305.201	325.31
305.431	281.31
305.661	251.31
305.891	237.31
306.121	214.31
306.352	200.31
306.582	207.31
306.812	175.31
307.042	192.31
307.272	188.31
307.502	215.31
307.731	203.31
307.961	220.31
308.191	193.31
308.421	195.31
308.651	190.31
308.881	191.31
309.111	220.31
309.341	229.31
309.571	237.31
309.8	228.31
310.03	209.31
310.26	216.31
310.49	218.31
310.72	235.31
310.949	242.31
311.179	247.31
311.409	311.31
311.639	384.31
311.868	495.31
312.098	577.31
312.328	557.31
312.557	534.31
312.787	545.31
313.017	509.31
313.246	566.31
313.476	515.31
313.706	398.31
313.935	353.31
314.165	272.31
314.394	270.31
314.624	292.31
314.853	313.31
315.083	285.31
315.312	272.31
315.542	243.31
315.771	224.31
316.001	211.31
316.23	211.31
316.46	195.31
316.689	202.31
316.919	207.31
317.148	220.31
317.377	240.31
317.607	225.31
317.836	256.31
318.065	278.31
318.295	327.31
318.524	263.31
318.753	224.31
318.983	220.31
319.212	228.31
319.441	235.31
319.67	277.31
319.9	288.31
320.129	268.31
320.358	237.31
320.587	244.31
320.816	268.31
321.046	290.31
321.275	268.31
321.504	250.31
321.733	268.31
321.962	277.31
322.191	218.31
322.42	209.31
322.649	193.31
322.878	194.31
323.108	206.31
323.337	233.31
323.566	248.31
323.795	252.31
324.024	233.31
324.253	204.31
324.482	206.31
324.71	200.31
324.939	199.31
325.168	189.31
325.397	199.31
325.626	188.31
325.855	205.31
326.084	200.31
326.313	208.31
326.542	210.31
326.77	206.31
326.999	217.31
327.228	226.31
327.457	195.31
327.686	186.31
327.914	184.31
328.143	196.31
328.372	178.31
328.6	185.31
328.829	199.31
329.058	199.31
329.287	216.31
329.515	227.31
329.744	225.31
329.972	198.31
330.201	206.31
330.43	227.31
330.658	251.31
330.887	278.31
331.115	259.31
331.344	264.31
331.572	251.31
331.801	244.31
332.03	209.31
332.258	233.31
332.486	260.31
332.715	252.31
332.943	232.31
333.172	259.31
333.4	263.31
333.629	298.31
333.857	321.31
334.085	323.31
334.314	291.31
334.542	279.31
334.771	263.31
334.999	259.31
335.227	250.31
335.455	284.31
335.684	326.31
335.912	385.31
336.14	383.31
336.369	352.31
336.597	372.31
336.825	400.31
337.053	373.31
337.281	280.31
337.51	250.31
337.738	267.31
337.966	296.31
338.194	301.31
338.422	267.31
338.65	231.31
338.878	239.31
339.106	237.31
339.334	268.31
339.562	262.31
339.79	231.31
340.018	255.31
340.246	293.31
340.474	332.31
340.702	312.31
340.93	316.31
341.158	265.31
341.386	223.31
341.614	227.31
341.842	251.31
342.07	301.31
342.298	339.31
342.526	287.31
342.754	242.31
342.981	231.31
343.209	270.31
343.437	287.31
343.665	252.31
343.893	206.31
344.12	218.31
344.348	205.31
344.576	196.31
344.804	215.31
345.031	213.31
345.259	207.31
345.487	201.31
345.714	218.31
345.942	201.31
346.17	208.31
346.397	185.31
346.625	188.31
346.853	184.31
347.08	210.31
347.308	199.31
347.535	199.31
347.763	177.31
347.99	187.31
348.218	180.31
348.445	172.31
348.673	181.31
348.9	169.31
349.128	186.31
349.355	187.31
349.583	179.31
349.81	187.31
350.037	189.31
350.265	188.31
350.492	187.31
350.72	191.31
350.947	183.31
351.174	185.31
351.402	197.31
351.629	183.31
351.856	181.31
352.083	181.31
352.311	195.31
352.538	170.31
352.765	186.31
352.992	188.31
353.22	177.31
353.447	183.31
353.674	170.31
353.901	178.31
354.128	188.31
354.355	182.31
354.583	195.31
354.81	186.31
355.037	190.31
355.264	189.31
355.491	207.31
355.718	202.31
355.945	188.31
356.172	202.31
356.399	201.31
356.626	193.31
356.853	216.31
357.08	209.31
357.307	234.31
357.534	265.31
357.761	323.31
357.988	370.31
358.215	316.31
358.441	242.31
358.668	250.31
358.895	229.31
359.122	273.31
359.349	303.31
359.576	297.31
359.802	242.31
360.029	230.31
360.256	252.31
360.483	284.31
360.709	287.31
360.936	233.31
361.163	185.31
361.39	196.31
361.616	189.31
361.843	194.31
362.07	190.31
362.296	176.31
362.523	188.31
362.749	178.31
362.976	197.31
363.203	220.31
363.429	205.31
363.656	220.31
363.882	216.31
364.109	225.31
364.335	219.31
364.562	205.31
364.788	180.31
365.015	198.31
365.241	217.31
365.468	205.31
365.694	193.31
365.92	205.31
366.147	192.31
366.373	204.31
366.599	183.31
366.826	187.31
367.052	200.31
367.278	180.31
367.505	188.31
367.731	212.31
367.957	216.31
368.184	201.31
368.41	192.31
368.636	189.31
368.862	201.31
369.089	177.31
369.315	204.31
369.541	209.31
369.767	173.31
369.993	173.31
370.219	195.31
370.445	179.31
370.672	168.31
370.898	182.31
371.124	190.31
371.35	200.31
371.576	209.31
371.802	200.31
372.028	185.31
372.254	185.31
372.48	192.31
372.706	171.31
372.932	179.31
373.158	180.31
373.384	195.31
373.61	176.31
373.835	196.31
374.061	203.31
374.287	220.31
374.513	242.31
374.739	217.31
374.965	213.31
375.191	208.31
375.416	190.31
375.642	188.31
375.868	214.31
376.094	197.31
376.319	171.31
376.545	187.31
376.771	197.31
376.997	184.31
377.222	176.31
377.448	183.31
377.674	179.31
377.899	169.31
378.125	186.31
378.35	183.31
378.576	182.31
378.802	184.31
379.027	208.31
379.253	210.31
379.478	202.31
379.704	189.31
379.929	189.31
380.155	199.31
380.38	207.31
380.606	193.31
380.831	200.31
381.057	211.31
381.282	189.31
381.507	190.31
381.733	214.31
381.958	208.31
382.184	201.31
382.409	219.31
382.634	223.31
382.86	197.31
383.085	212.31
383.31	213.31
383.535	201.31
383.761	207.31
383.986	205.31
384.211	233.31
384.436	215.31
384.662	227.31
384.887	221.31
385.112	227.31
385.337	233.31
385.562	238.31
385.787	241.31
386.013	217.31
386.238	210.31
386.463	217.31
386.688	245.31
386.913	223.31
387.138	218.31
387.363	217.31
387.588	205.31
387.813	197.31
388.038	214.31
388.263	218.31
388.488	229.31
388.713	228.31
388.938	209.31
389.163	207.31
389.387	192.31
389.612	190.31
389.837	215.31
390.062	204.31
390.287	224.31
390.512	212.31
390.736	239.31
390.961	221.31
391.186	225.31
391.411	232.31
391.636	215.31
391.86	239.31
392.085	240.31
392.31	216.31
392.534	208.31
392.759	205.31
392.984	205.31
393.208	204.31
393.433	198.31
393.658	191.31
393.882	199.31
394.107	203.31
394.331	200.31
394.556	210.31
394.78	201.31
395.005	214.31
395.229	204.31
395.454	208.31
395.678	211.31
395.903	205.31
396.127	230.31
396.352	251.31
396.576	236.31
396.801	223.31
397.025	268.31
397.249	254.31
397.474	252.31
397.698	247.31
397.922	249.31
398.147	240.31
398.371	260.31
398.595	251.31
398.82	246.31
399.044	274.31
399.268	264.31
399.492	258.31
399.717	256.31
399.941	250.31
400.165	240.31
400.389	231.31
400.613	226.31
400.837	223.31
401.062	210.31
401.286	209.31
401.51	224.31
401.734	220.31
401.958	205.31
402.182	236.31
402.406	212.31
402.63	220.31
402.854	220.31
403.078	212.31
403.302	209.31
403.526	227.31
403.75	241.31
403.974	247.31
404.198	242.31
404.422	215.31
404.645	235.31
404.869	219.31
405.093	219.31
405.317	219.31
405.541	224.31
405.765	236.31
405.988	244.31
406.212	234.31
406.436	219.31
406.66	217.31
406.883	233.31
407.107	235.31
407.331	233.31
407.555	233.31
407.778	240.31
408.002	229.31
408.226	250.31
408.449	222.31
408.673	214.31
408.896	228.31
409.12	239.31
409.344	225.31
409.567	211.31
409.791	236.31
410.014	216.31
410.238	211.31
410.461	211.31
410.685	211.31
410.908	212.31
411.132	235.31
411.355	219.31
411.578	216.31
411.802	212.31
412.025	223.31
412.249	231.31
412.472	240.31
412.695	230.31
412.919	253.31
413.142	227.31
413.365	227.31
413.589	218.31
413.812	212.31
414.035	205.31
414.258	221.31
414.482	219.31
414.705	195.31
414.928	201.31
415.151	207.31
415.374	200.31
415.597	208.31
415.821	215.31
416.044	205.31
416.267	210.31
416.49	216.31
416.713	219.31
416.936	204.31
417.159	213.31
417.382	207.31
417.605	215.31
417.828	212.31
418.051	229.31
418.274	225.31
418.497	201.31
418.72	232.31
418.943	211.31
419.166	216.31
419.389	237.31
419.611	240.31
419.834	216.31
420.057	229.31
420.28	211.31
420.503	218.31
420.726	200.31
420.948	204.31
421.171	211.31
421.394	205.31
421.617	212.31
421.839	212.31
422.062	216.31
422.285	225.31
422.507	231.31
422.73	210.31
422.953	221.31
423.175	216.31
423.398	224.31
423.621	217.31
423.843	215.31
424.066	220.31
424.288	224.31
424.511	220.31
424.733	217.31
424.956	222.31
425.178	265.31
425.401	338.31
425.623	362.31
425.846	268.31
426.068	227.31
426.291	248.31
426.513	240.31
426.735	223.31
426.958	230.31
427.18	254.31
427.402	320.31
427.625	369.31
427.847	285.31
428.069	216.31
428.292	217.31
428.514	220.31
428.736	211.31
428.958	301.31
429.181	309.31
429.403	254.31
429.625	235.31
429.847	226.31
430.069	217.31
430.292	217.31
430.514	199.31
430.736	200.31
430.958	201.31
431.18	202.31
431.402	208.31
431.624	198.31
431.846	186.31
432.068	200.31
432.29	193.31
432.512	204.31
432.734	192.31
432.956	195.31
433.178	212.31
433.4	207.31
433.622	221.31
433.844	253.31
434.066	261.31
434.287	250.31
434.509	266.31
434.731	248.31
434.953	247.31
435.175	266.31
435.397	266.31
435.618	223.31
435.84	197.31
436.062	232.31
436.284	220.31
436.505	214.31
436.727	208.31
436.949	202.31
437.17	215.31
437.392	221.31
437.614	204.31
437.835	212.31
438.057	210.31
438.278	202.31
438.5	208.31
438.721	216.31
438.943	190.31
439.165	199.31
439.386	196.31
439.608	215.31
439.829	217.31
440.05	197.31
440.272	201.31
440.493	200.31
440.715	196.31
440.936	200.31
441.158	199.31
441.379	187.31
441.6	201.31
441.822	214.31
442.043	221.31
442.264	211.31
442.486	204.31
442.707	224.31
442.928	227.31
443.149	212.31
443.371	223.31
443.592	220.31
443.813	209.31
444.034	211.31
444.255	218.31
444.476	215.31
444.698	213.31
444.919	219.31
445.14	305.31
445.361	248.31
445.582	207.31
445.803	209.31
446.024	226.31
446.245	215.31
446.466	218.31
446.687	220.31
446.908	199.31
447.129	203.31
447.35	213.31
447.571	211.31
447.792	196.31
448.013	208.31
448.234	190.31
448.455	205.31
448.675	216.31
448.896	201.31
449.117	202.31
449.338	223.31
449.559	197.31
449.779	227.31
450	241.31
450.221	209.31
450.442	213.31
450.662	208.31
450.883	193.31
451.104	187.31
451.324	203.31
451.545	211.31
451.766	196.31
451.986	201.31
452.207	200.31
452.428	200.31
452.648	199.31
452.869	246.31
453.089	228.31
453.31	227.31
453.53	207.31
453.751	225.31
453.971	207.31
454.192	223.31
454.412	211.31
454.633	214.31
454.853	213.31
455.073	189.31
455.294	203.31
455.514	180.31
455.734	202.31
455.955	223.31
456.175	209.31
456.395	206.31
456.616	202.31
456.836	195.31
457.056	198.31
457.276	194.31
457.497	179.31
457.717	184.31
457.937	197.31
458.157	199.31
458.377	199.31
458.598	201.31
458.818	212.31
459.038	225.31
459.258	227.31
459.478	209.31
459.698	212.31
459.918	220.31
460.138	222.31
460.358	231.31
460.578	214.31
460.798	211.31
461.018	205.31
461.238	226.31
461.458	245.31
461.678	250.31
461.898	260.31
462.118	252.31
462.338	253.31
462.558	267.31
462.777	256.31
462.997	223.31
463.217	237.31
463.437	245.31
463.657	231.31
463.876	236.31
464.096	229.31
464.316	236.31
464.536	253.31
464.755	293.31
464.975	260.31
465.195	249.31
465.414	256.31
465.634	211.31
465.854	201.31
466.073	200.31
466.293	207.31
466.512	218.31
466.732	228.31
466.951	217.31
467.171	193.31
467.391	212.31
467.61	185.31
467.829	186.31
468.049	195.31
468.268	191.31
468.488	197.31
468.707	204.31
468.927	194.31
469.146	209.31
469.365	209.31
469.585	200.31
469.804	204.31
470.023	209.31
470.243	199.31
470.462	197.31
470.681	200.31
470.901	218.31
471.12	225.31
471.339	205.31
471.558	189.31
471.777	200.31
471.997	212.31
472.216	209.31
472.435	193.31
472.654	204.31
472.873	190.31
473.092	208.31
473.311	210.31
473.53	193.31
473.749	211.31
473.968	203.31
474.187	196.31
474.406	198.31
474.625	190.31
474.844	186.31
475.063	212.31
475.282	217.31
475.501	207.31
475.72	249.31
475.939	226.31
476.158	209.31
476.377	217.31
476.596	199.31
476.814	229.31
477.033	205.31
477.252	212.31
477.471	204.31
477.69	203.31
477.908	211.31
478.127	225.31
478.346	216.31
478.564	212.31
478.783	209.31
479.002	236.31
479.22	249.31
479.439	241.31
479.658	246.31
479.876	229.31
480.095	229.31
480.313	245.31
480.532	222.31
480.751	225.31
480.969	210.31
481.188	229.31
481.406	199.31
481.624	218.31
481.843	213.31
482.061	232.31
482.28	212.31
482.498	236.31
482.717	247.31
482.935	233.31
483.153	232.31
483.372	228.31
483.59	223.31
483.808	227.31
484.027	213.31
484.245	203.31
484.463	226.31
484.681	221.31
484.9	241.31
485.118	241.31
485.336	220.31
485.554	227.31
485.772	204.31
485.99	211.31
486.209	237.31
486.427	242.31
486.645	246.31
486.863	233.31
487.081	253.31
487.299	272.31
487.517	245.31
487.735	241.31
487.953	229.31
488.171	239.31
488.389	224.31
488.607	251.31
488.825	266.31
489.043	255.31
489.261	225.31
489.479	241.31
489.696	242.31
489.914	229.31
490.132	238.31
490.35	239.31
490.568	241.31
490.786	238.31
491.003	231.31
491.221	232.31
491.439	226.31
491.657	231.31
491.874	247.31
492.092	257.31
492.31	304.31
492.527	259.31
492.745	235.31
492.963	239.31
493.18	223.31
493.398	240.31
493.615	236.31
493.833	265.31
494.05	243.31
494.268	230.31
494.485	251.31
494.703	256.31
494.92	233.31
495.138	242.31
495.355	243.31
495.573	265.31
495.79	263.31
496.008	255.31
496.225	243.31
496.442	247.31
496.66	261.31
496.877	251.31
497.094	258.31
497.312	256.31
497.529	265.31
497.746	265.31
497.963	271.31
498.181	272.31
498.398	271.31
498.615	284.31
498.832	283.31
499.049	299.31
499.267	308.31
499.484	315.31
499.701	341.31
499.918	355.31
500.135	345.31
500.352	368.31
500.569	391.31
500.786	375.31
501.003	362.31
501.22	349.31
501.437	321.31
501.654	305.31
501.871	299.31
502.088	307.31
502.305	285.31
502.522	282.31
502.739	281.31
502.956	279.31
503.172	285.31
503.389	272.31
503.606	252.31
