Data from StA_HRD10591_070.txt Node
Date: Fri May 16 15:19:18 EDT 2025
User: Yrep
Spectrometer: HR+D1059
Trigger mode: 1
Integration Time (sec): 1.000000E-1
Scans to average: 1
Electric dark correction enabled: true
Nonlinearity correction enabled: false
Boxcar width: 0
XAxis mode: Wavelengths
Number of Pixels in Spectrum: 2048
>>>>>Begin Spectral Data<<<<<
223.165	-4.88
223.4	-4.88
223.635	-4.88
223.869	-18.88
224.104	-24.88
224.338	-8.88
224.573	-15.88
224.808	-16.88
225.042	4.12
225.277	1.12
225.511	-22.88
225.746	-2.88
225.98	4.12
226.215	19.12
226.449	13.12
226.683	24.12
226.918	24.12
227.152	26.12
227.387	41.12
227.621	33.12
227.856	51.12
228.09	29.12
228.324	51.12
228.559	40.12
228.793	48.12
229.027	59.12
229.262	77.12
229.496	73.12
229.73	76.12
229.964	84.12
230.199	75.12
230.433	75.12
230.667	87.12
230.901	83.12
231.136	73.12
231.37	88.12
231.604	86.12
231.838	71.12
232.072	89.12
232.306	94.12
232.541	87.12
232.775	85.12
233.009	77.12
233.243	83.12
233.477	81.12
233.711	90.12
233.945	74.12
234.179	70.12
234.413	77.12
234.647	86.12
234.881	83.12
235.115	80.12
235.349	86.12
235.583	74.12
235.817	73.12
236.051	57.12
236.285	72.12
236.519	86.12
236.753	67.12
236.987	71.12
237.221	68.12
237.455	62.12
237.689	56.12
237.922	79.12
238.156	81.12
238.39	79.12
238.624	73.12
238.858	83.12
239.091	87.12
239.325	51.12
239.559	81.12
239.793	69.12
240.027	69.12
240.26	69.12
240.494	74.12
240.728	77.12
240.961	63.12
241.195	71.12
241.429	82.12
241.662	83.12
241.896	77.12
242.13	89.12
242.363	95.12
242.597	76.12
242.83	74.12
243.064	80.12
243.298	73.12
243.531	78.12
243.765	77.12
243.998	86.12
244.232	69.12
244.465	89.12
244.699	91.12
244.932	64.12
245.166	58.12
245.399	75.12
245.633	86.12
245.866	67.12
246.099	79.12
246.333	73.12
246.566	92.12
246.8	82.12
247.033	75.12
247.266	78.12
247.5	81.12
247.733	77.12
247.966	80.12
248.2	85.12
248.433	82.12
248.666	74.12
248.899	73.12
249.133	82.12
249.366	77.12
249.599	84.12
249.832	84.12
250.066	83.12
250.299	77.12
250.532	79.12
250.765	81.12
250.998	78.12
251.231	83.12
251.465	73.12
251.698	84.12
251.931	79.12
252.164	83.12
252.397	79.12
252.63	65.12
252.863	75.12
253.096	77.12
253.329	87.12
253.562	72.12
253.795	88.12
254.028	83.12
254.261	83.12
254.494	86.12
254.727	84.12
254.96	89.12
255.193	67.12
255.426	82.12
255.659	85.12
255.892	89.12
256.124	80.12
256.357	74.12
256.59	86.12
256.823	75.12
257.056	78.12
257.289	86.12
257.521	73.12
257.754	72.12
257.987	72.12
258.22	69.12
258.452	85.12
258.685	85.12
258.918	76.12
259.151	77.12
259.383	79.12
259.616	90.12
259.849	79.12
260.081	85.12
260.314	94.12
260.547	84.12
260.779	75.12
261.012	70.12
261.244	72.12
261.477	65.12
261.71	81.12
261.942	88.12
262.175	84.12
262.407	83.12
262.64	84.12
262.872	78.12
263.105	81.12
263.337	103.12
263.57	87.12
263.802	74.12
264.035	78.12
264.267	72.12
264.499	71.12
264.732	84.12
264.964	88.12
265.197	88.12
265.429	88.12
265.661	81.12
265.894	88.12
266.126	77.12
266.358	59.12
266.591	81.12
266.823	78.12
267.055	75.12
267.287	84.12
267.52	77.12
267.752	87.12
267.984	85.12
268.216	86.12
268.448	91.12
268.681	86.12
268.913	81.12
269.145	95.12
269.377	71.12
269.609	85.12
269.841	82.12
270.073	87.12
270.306	80.12
270.538	97.12
270.77	81.12
271.002	82.12
271.234	72.12
271.466	85.12
271.698	88.12
271.93	83.12
272.162	75.12
272.394	79.12
272.626	76.12
272.858	71.12
273.09	75.12
273.322	71.12
273.553	89.12
273.785	80.12
274.017	90.12
274.249	85.12
274.481	92.12
274.713	86.12
274.945	85.12
275.176	84.12
275.408	87.12
275.64	77.12
275.872	85.12
276.104	83.12
276.335	93.12
276.567	86.12
276.799	86.12
277.031	92.12
277.262	95.12
277.494	69.12
277.726	86.12
277.957	88.12
278.189	85.12
278.421	88.12
278.652	96.12
278.884	88.12
279.115	94.12
279.347	79.12
279.579	80.12
279.81	89.12
280.042	92.12
280.273	86.12
280.505	76.12
280.736	89.12
280.968	75.12
281.199	86.12
281.431	86.12
281.662	93.12
281.894	83.12
282.125	97.12
282.356	80.12
282.588	87.12
282.819	92.12
283.051	87.12
283.282	83.12
283.513	92.12
283.745	107.12
283.976	93.12
284.207	81.12
284.439	92.12
284.67	78.12
284.901	78.12
285.132	86.12
285.364	80.12
285.595	77.12
285.826	87.12
286.057	86.12
286.288	76.12
286.52	84.12
286.751	94.12
286.982	90.12
287.213	103.12
287.444	94.12
287.675	75.12
287.906	101.12
288.138	92.12
288.369	85.12
288.6	77.12
288.831	84.12
289.062	101.12
289.293	83.12
289.524	85.12
289.755	76.12
289.986	79.12
290.217	83.12
290.448	86.12
290.679	83.12
290.91	86.12
291.141	69.12
291.371	82.12
291.602	85.12
291.833	89.12
292.064	90.12
292.295	93.12
292.526	88.12
292.757	87.12
292.987	89.12
293.218	75.12
293.449	89.12
293.68	75.12
293.91	82.12
294.141	100.12
294.372	79.12
294.603	87.12
294.833	80.12
295.064	71.12
295.295	81.12
295.525	92.12
295.756	96.12
295.987	95.12
296.217	89.12
296.448	74.12
296.679	88.12
296.909	88.12
297.14	88.12
297.37	85.12
297.601	79.12
297.831	88.12
298.062	104.12
298.292	87.12
298.523	83.12
298.753	94.12
298.984	86.12
299.214	89.12
299.445	95.12
299.675	75.12
299.905	88.12
300.136	97.12
300.366	95.12
300.597	83.12
300.827	100.12
301.057	103.12
301.288	89.12
301.518	92.12
301.748	115.12
301.979	113.12
302.209	98.12
302.439	89.12
302.669	75.12
302.9	92.12
303.13	92.12
303.36	91.12
303.59	104.12
303.82	95.12
304.051	83.12
304.281	89.12
304.511	87.12
304.741	81.12
304.971	86.12
305.201	94.12
305.431	78.12
305.661	94.12
305.891	76.12
306.121	90.12
306.352	93.12
306.582	94.12
306.812	70.12
307.042	73.12
307.272	74.12
307.502	91.12
307.731	78.12
307.961	91.12
308.191	95.12
308.421	87.12
308.651	86.12
308.881	86.12
309.111	86.12
309.341	71.12
309.571	79.12
309.8	81.12
310.03	80.12
310.26	83.12
310.49	94.12
310.72	85.12
310.949	81.12
311.179	85.12
311.409	80.12
311.639	103.12
311.868	92.12
312.098	94.12
312.328	89.12
312.557	87.12
312.787	97.12
313.017	88.12
313.246	96.12
313.476	91.12
313.706	93.12
313.935	87.12
314.165	70.12
314.394	96.12
314.624	79.12
314.853	87.12
315.083	86.12
315.312	89.12
315.542	88.12
315.771	75.12
316.001	83.12
316.23	95.12
316.46	83.12
316.689	82.12
316.919	84.12
317.148	77.12
317.377	106.12
317.607	87.12
317.836	84.12
318.065	85.12
318.295	65.12
318.524	93.12
318.753	87.12
318.983	89.12
319.212	97.12
319.441	79.12
319.67	88.12
319.9	86.12
320.129	96.12
320.358	88.12
320.587	102.12
320.816	97.12
321.046	81.12
321.275	85.12
321.504	78.12
321.733	79.12
321.962	80.12
322.191	91.12
322.42	81.12
322.649	83.12
322.878	86.12
323.108	103.12
323.337	101.12
323.566	88.12
323.795	85.12
324.024	76.12
324.253	83.12
324.482	86.12
324.71	87.12
324.939	98.12
325.168	89.12
325.397	89.12
325.626	84.12
325.855	79.12
326.084	94.12
326.313	71.12
326.542	97.12
326.77	73.12
326.999	80.12
327.228	79.12
327.457	83.12
327.686	84.12
327.914	72.12
328.143	89.12
328.372	86.12
328.6	88.12
328.829	96.12
329.058	87.12
329.287	77.12
329.515	77.12
329.744	89.12
329.972	74.12
330.201	75.12
330.43	86.12
330.658	79.12
330.887	78.12
331.115	86.12
331.344	81.12
331.572	78.12
331.801	76.12
332.03	96.12
332.258	76.12
332.486	89.12
332.715	69.12
332.943	92.12
333.172	81.12
333.4	70.12
333.629	89.12
333.857	92.12
334.085	84.12
334.314	99.12
334.542	73.12
334.771	82.12
334.999	95.12
335.227	81.12
335.455	76.12
335.684	89.12
335.912	97.12
336.14	91.12
336.369	88.12
336.597	92.12
336.825	88.12
337.053	87.12
337.281	81.12
337.51	75.12
337.738	84.12
337.966	73.12
338.194	84.12
338.422	84.12
338.65	91.12
338.878	83.12
339.106	85.12
339.334	100.12
339.562	76.12
339.79	78.12
340.018	80.12
340.246	74.12
340.474	86.12
340.702	85.12
340.93	83.12
341.158	78.12
341.386	79.12
341.614	82.12
341.842	71.12
342.07	73.12
342.298	90.12
342.526	76.12
342.754	76.12
342.981	80.12
343.209	95.12
343.437	109.12
343.665	87.12
343.893	90.12
344.12	108.12
344.348	100.12
344.576	97.12
344.804	92.12
345.031	88.12
345.259	91.12
345.487	90.12
345.714	69.12
345.942	83.12
346.17	82.12
346.397	70.12
346.625	87.12
346.853	100.12
347.08	77.12
347.308	83.12
347.535	91.12
347.763	72.12
347.99	96.12
348.218	87.12
348.445	88.12
348.673	75.12
348.9	84.12
349.128	80.12
349.355	77.12
349.583	78.12
349.81	66.12
350.037	82.12
350.265	84.12
350.492	83.12
350.72	85.12
350.947	68.12
351.174	86.12
351.402	75.12
351.629	80.12
351.856	97.12
352.083	66.12
352.311	71.12
352.538	79.12
352.765	76.12
352.992	87.12
353.22	87.12
353.447	87.12
353.674	86.12
353.901	88.12
354.128	89.12
354.355	79.12
354.583	86.12
354.81	89.12
355.037	95.12
355.264	81.12
355.491	92.12
355.718	83.12
355.945	71.12
356.172	73.12
356.399	83.12
356.626	85.12
356.853	80.12
357.08	95.12
357.307	92.12
357.534	99.12
357.761	123.12
357.988	115.12
358.215	99.12
358.441	93.12
358.668	78.12
358.895	100.12
359.122	107.12
359.349	91.12
359.576	119.12
359.802	89.12
360.029	89.12
360.256	100.12
360.483	105.12
360.709	101.12
360.936	104.12
361.163	95.12
361.39	97.12
361.616	82.12
361.843	77.12
362.07	79.12
362.296	73.12
362.523	83.12
362.749	83.12
362.976	89.12
363.203	83.12
363.429	77.12
363.656	86.12
363.882	99.12
364.109	99.12
364.335	87.12
364.562	93.12
364.788	95.12
365.015	68.12
365.241	70.12
365.468	90.12
365.694	86.12
365.92	77.12
366.147	87.12
366.373	82.12
366.599	94.12
366.826	72.12
367.052	80.12
367.278	99.12
367.505	79.12
367.731	88.12
367.957	89.12
368.184	85.12
368.41	89.12
368.636	99.12
368.862	82.12
369.089	91.12
369.315	88.12
369.541	81.12
369.767	72.12
369.993	95.12
370.219	83.12
370.445	85.12
370.672	82.12
370.898	82.12
371.124	87.12
371.35	88.12
371.576	93.12
371.802	85.12
372.028	81.12
372.254	85.12
372.48	73.12
372.706	79.12
372.932	90.12
373.158	99.12
373.384	97.12
373.61	88.12
373.835	78.12
374.061	92.12
374.287	80.12
374.513	80.12
374.739	85.12
374.965	85.12
375.191	89.12
375.416	90.12
375.642	89.12
375.868	82.12
376.094	73.12
376.319	72.12
376.545	91.12
376.771	88.12
376.997	82.12
377.222	77.12
377.448	82.12
377.674	79.12
377.899	75.12
378.125	70.12
378.35	83.12
378.576	87.12
378.802	69.12
379.027	76.12
379.253	91.12
379.478	93.12
379.704	92.12
379.929	75.12
380.155	92.12
380.38	80.12
380.606	78.12
380.831	91.12
381.057	96.12
381.282	97.12
381.507	100.12
381.733	93.12
381.958	79.12
382.184	86.12
382.409	86.12
382.634	91.12
382.86	84.12
383.085	87.12
383.31	85.12
383.535	92.12
383.761	88.12
383.986	89.12
384.211	66.12
384.436	73.12
384.662	89.12
384.887	94.12
385.112	87.12
385.337	87.12
385.562	97.12
385.787	84.12
386.013	93.12
386.238	78.12
386.463	93.12
386.688	95.12
386.913	81.12
387.138	80.12
387.363	78.12
387.588	92.12
387.813	86.12
388.038	89.12
388.263	83.12
388.488	91.12
388.713	83.12
388.938	95.12
389.163	92.12
389.387	93.12
389.612	83.12
389.837	80.12
390.062	86.12
390.287	81.12
390.512	85.12
390.736	97.12
390.961	86.12
391.186	91.12
391.411	94.12
391.636	95.12
391.86	95.12
392.085	96.12
392.31	87.12
392.534	81.12
392.759	90.12
392.984	88.12
393.208	86.12
393.433	77.12
393.658	80.12
393.882	82.12
394.107	83.12
394.331	89.12
394.556	79.12
394.78	74.12
395.005	80.12
395.229	84.12
395.454	93.12
395.678	89.12
395.903	91.12
396.127	73.12
396.352	91.12
396.576	88.12
396.801	83.12
397.025	95.12
397.249	96.12
397.474	90.12
397.698	88.12
397.922	101.12
398.147	92.12
398.371	82.12
398.595	90.12
398.82	68.12
399.044	85.12
399.268	101.12
399.492	77.12
399.717	87.12
399.941	70.12
400.165	89.12
400.389	82.12
400.613	81.12
400.837	91.12
401.062	83.12
401.286	87.12
401.51	86.12
401.734	70.12
401.958	84.12
402.182	76.12
402.406	85.12
402.63	79.12
402.854	86.12
403.078	68.12
403.302	82.12
403.526	87.12
403.75	97.12
403.974	68.12
404.198	63.12
404.422	75.12
404.645	77.12
404.869	83.12
405.093	79.12
405.317	84.12
405.541	91.12
405.765	89.12
405.988	78.12
406.212	71.12
406.436	95.12
406.66	99.12
406.883	65.12
407.107	86.12
407.331	79.12
407.555	76.12
407.778	95.12
408.002	81.12
408.226	75.12
408.449	81.12
408.673	78.12
408.896	81.12
409.12	80.12
409.344	82.12
409.567	85.12
409.791	77.12
410.014	84.12
410.238	77.12
410.461	61.12
410.685	82.12
410.908	69.12
411.132	86.12
411.355	81.12
411.578	89.12
411.802	90.12
412.025	83.12
412.249	83.12
412.472	70.12
412.695	77.12
412.919	72.12
413.142	84.12
413.365	89.12
413.589	88.12
413.812	86.12
414.035	79.12
414.258	80.12
414.482	96.12
414.705	100.12
414.928	67.12
415.151	89.12
415.374	87.12
415.597	79.12
415.821	86.12
416.044	83.12
416.267	88.12
416.49	92.12
416.713	73.12
416.936	90.12
417.159	79.12
417.382	80.12
417.605	89.12
417.828	90.12
418.051	75.12
418.274	87.12
418.497	78.12
418.72	84.12
418.943	91.12
419.166	87.12
419.389	84.12
419.611	77.12
419.834	72.12
420.057	70.12
420.28	102.12
420.503	75.12
420.726	86.12
420.948	81.12
421.171	79.12
421.394	79.12
421.617	72.12
421.839	82.12
422.062	100.12
422.285	79.12
422.507	73.12
422.73	103.12
422.953	99.12
423.175	78.12
423.398	73.12
423.621	80.12
423.843	82.12
424.066	84.12
424.288	91.12
424.511	75.12
424.733	74.12
424.956	84.12
425.178	96.12
425.401	122.12
425.623	152.12
425.846	87.12
426.068	82.12
426.291	81.12
426.513	89.12
426.735	89.12
426.958	100.12
427.18	100.12
427.402	115.12
427.625	142.12
427.847	99.12
428.069	95.12
428.292	89.12
428.514	82.12
428.736	108.12
428.958	129.12
429.181	126.12
429.403	107.12
429.625	83.12
429.847	76.12
430.069	87.12
430.292	86.12
430.514	84.12
430.736	86.12
430.958	91.12
431.18	77.12
431.402	73.12
431.624	75.12
431.846	77.12
432.068	78.12
432.29	87.12
432.512	75.12
432.734	88.12
432.956	87.12
433.178	95.12
433.4	101.12
433.622	98.12
433.844	121.12
434.066	113.12
434.287	95.12
434.509	95.12
434.731	92.12
434.953	106.12
435.175	107.12
435.397	105.12
435.618	75.12
435.84	79.12
436.062	88.12
436.284	85.12
436.505	76.12
436.727	77.12
436.949	88.12
437.17	81.12
437.392	89.12
437.614	73.12
437.835	62.12
438.057	79.12
438.278	90.12
438.5	90.12
438.721	91.12
438.943	87.12
439.165	74.12
439.386	67.12
439.608	85.12
439.829	71.12
440.05	95.12
440.272	71.12
440.493	82.12
440.715	78.12
440.936	75.12
441.158	87.12
441.379	89.12
441.6	89.12
441.822	75.12
442.043	75.12
442.264	73.12
442.486	79.12
442.707	92.12
442.928	82.12
443.149	89.12
443.371	91.12
443.592	75.12
443.813	70.12
444.034	78.12
444.255	72.12
444.476	79.12
444.698	79.12
444.919	80.12
445.14	151.12
445.361	111.12
445.582	89.12
445.803	81.12
446.024	82.12
446.245	85.12
446.466	79.12
446.687	76.12
446.908	76.12
447.129	72.12
447.35	85.12
447.571	92.12
447.792	78.12
448.013	83.12
448.234	72.12
448.455	91.12
448.675	71.12
448.896	89.12
449.117	83.12
449.338	90.12
449.559	86.12
449.779	89.12
450	87.12
450.221	81.12
450.442	79.12
450.662	85.12
450.883	74.12
451.104	83.12
451.324	85.12
451.545	87.12
451.766	75.12
451.986	80.12
452.207	81.12
452.428	85.12
452.648	77.12
452.869	84.12
453.089	92.12
453.31	77.12
453.53	89.12
453.751	91.12
453.971	82.12
454.192	103.12
454.412	91.12
454.633	79.12
454.853	82.12
455.073	76.12
455.294	70.12
455.514	75.12
455.734	85.12
455.955	84.12
456.175	80.12
456.395	83.12
456.616	87.12
456.836	94.12
457.056	95.12
457.276	92.12
457.497	84.12
457.717	75.12
457.937	89.12
458.157	86.12
458.377	73.12
458.598	78.12
458.818	89.12
459.038	87.12
459.258	88.12
459.478	75.12
459.698	87.12
459.918	88.12
460.138	99.12
460.358	79.12
460.578	80.12
460.798	86.12
461.018	89.12
461.238	75.12
461.458	105.12
461.678	97.12
461.898	110.12
462.118	95.12
462.338	84.12
462.558	101.12
462.777	105.12
462.997	91.12
463.217	90.12
463.437	81.12
463.657	64.12
463.876	84.12
464.096	82.12
464.316	89.12
464.536	104.12
464.755	125.12
464.975	86.12
465.195	111.12
465.414	91.12
465.634	65.12
465.854	63.12
466.073	76.12
466.293	80.12
466.512	69.12
466.732	85.12
466.951	80.12
467.171	77.12
467.391	90.12
467.61	73.12
467.829	87.12
468.049	79.12
468.268	86.12
468.488	83.12
468.707	68.12
468.927	83.12
469.146	82.12
469.365	86.12
469.585	102.12
469.804	83.12
470.023	93.12
470.243	80.12
470.462	77.12
470.681	82.12
470.901	87.12
471.12	79.12
471.339	96.12
471.558	80.12
471.777	84.12
471.997	92.12
472.216	89.12
472.435	69.12
472.654	88.12
472.873	65.12
473.092	76.12
473.311	92.12
473.53	84.12
473.749	85.12
473.968	70.12
474.187	75.12
474.406	95.12
474.625	66.12
474.844	95.12
475.063	85.12
475.282	83.12
475.501	75.12
475.72	91.12
475.939	92.12
476.158	92.12
476.377	81.12
476.596	71.12
476.814	90.12
477.033	83.12
477.252	87.12
477.471	83.12
477.69	71.12
477.908	94.12
478.127	87.12
478.346	86.12
478.564	82.12
478.783	89.12
479.002	87.12
479.22	97.12
479.439	106.12
479.658	76.12
479.876	93.12
480.095	84.12
480.313	85.12
480.532	75.12
480.751	79.12
480.969	73.12
481.188	85.12
481.406	90.12
481.624	92.12
481.843	74.12
482.061	79.12
482.28	71.12
482.498	83.12
482.717	88.12
482.935	79.12
483.153	95.12
483.372	76.12
483.59	82.12
483.808	91.12
484.027	88.12
484.245	74.12
484.463	73.12
484.681	89.12
484.9	78.12
485.118	81.12
485.336	76.12
485.554	87.12
485.772	76.12
485.99	76.12
486.209	85.12
486.427	94.12
486.645	78.12
486.863	80.12
487.081	88.12
487.299	95.12
487.517	90.12
487.735	76.12
487.953	93.12
488.171	83.12
488.389	93.12
488.607	67.12
488.825	94.12
489.043	85.12
489.261	84.12
489.479	79.12
489.696	84.12
489.914	99.12
490.132	84.12
490.35	88.12
490.568	100.12
490.786	91.12
491.003	85.12
491.221	89.12
491.439	68.12
491.657	93.12
491.874	79.12
492.092	103.12
492.31	86.12
492.527	104.12
492.745	90.12
492.963	105.12
493.18	86.12
493.398	74.12
493.615	94.12
493.833	77.12
494.05	90.12
494.268	85.12
494.485	92.12
494.703	87.12
494.92	79.12
495.138	88.12
495.355	75.12
495.573	97.12
495.79	88.12
496.008	81.12
496.225	84.12
496.442	93.12
496.66	89.12
496.877	85.12
497.094	94.12
497.312	98.12
497.529	88.12
497.746	80.12
497.963	79.12
498.181	86.12
498.398	86.12
498.615	74.12
498.832	87.12
499.049	96.12
499.267	80.12
499.484	71.12
499.701	99.12
499.918	87.12
500.135	78.12
500.352	79.12
500.569	72.12
500.786	80.12
501.003	84.12
501.22	85.12
501.437	79.12
501.654	88.12
501.871	77.12
502.088	81.12
502.305	84.12
502.522	97.12
502.739	90.12
502.956	87.12
503.172	92.12
503.389	95.12
503.606	71.12
503.823	94.12
504.04	87.12
504.256	87.12
504.473	85.12
504.69	79.12
504.907	83.12
505.123	87.12
505.34	87.12
505.557	88.12
505.773	91.12
505.99	77.12
506.207	79.12
506.423	85.12
506.64	86.12
506.856	96.12
507.073	84.12
507.289	95.12
507.506	100.12
507.722	66.12
507.939	81.12
508.155	88.12
508.372	81.12
508.588	83.12
508.805	87.12
509.021	93.12
509.238	84.12
509.454	87.12
509.67	84.12
509.887	71.12
510.103	81.12
510.319	81.12
510.536	93.12
510.752	87.12
510.968	99.12
511.184	94.12
511.401	90.12
511.617	81.12
511.833	92.12
512.049	83.12
512.265	85.12
512.481	99.12
512.698	83.12
512.914	88.12
513.13	82.12
513.346	84.12
513.562	94.12
513.778	86.12
513.994	84.12
514.21	91.12
514.426	95.12
514.642	72.12
514.858	83.12
515.074	87.12
515.29	85.12
515.506	96.12
515.721	70.12
515.937	88.12
516.153	79.12
516.369	81.12
516.585	77.12
516.801	92.12
517.016	84.12
517.232	85.12
517.448	79.12
517.664	74.12
517.879	79.12
518.095	91.12
518.311	90.12
518.527	80.12
518.742	95.12
518.958	90.12
519.173	93.12
519.389	84.12
