Data from StA_HRD10591_098.txt Node
Date: Fri May 16 15:19:32 EDT 2025
User: Yrep
Spectrometer: HR+D1059
Trigger mode: 1
Integration Time (sec): 1.000000E-1
Scans to average: 1
Electric dark correction enabled: true
Nonlinearity correction enabled: false
Boxcar width: 0
XAxis mode: Wavelengths
Number of Pixels in Spectrum: 2048
>>>>>Begin Spectral Data<<<<<
223.165	-5.5
223.4	-5.5
223.635	-5.5
223.869	-14.5
224.104	-18.5
224.338	-6.5
224.573	-13.5
224.808	-17.5
225.042	-11.5
225.277	-13.5
225.511	0.5
225.746	-0.5
225.98	10.5
226.215	10.5
226.449	5.5
226.683	26.5
226.918	22.5
227.152	25.5
227.387	34.5
227.621	45.5
227.856	51.5
228.09	43.5
228.324	54.5
228.559	60.5
228.793	52.5
229.027	64.5
229.262	66.5
229.496	62.5
229.73	67.5
229.964	73.5
230.199	60.5
230.433	75.5
230.667	78.5
230.901	80.5
231.136	88.5
231.37	64.5
231.604	77.5
231.838	82.5
232.072	78.5
232.306	78.5
232.541	91.5
232.775	92.5
233.009	76.5
233.243	69.5
233.477	84.5
233.711	71.5
233.945	90.5
234.179	78.5
234.413	87.5
234.647	78.5
234.881	90.5
235.115	76.5
235.349	84.5
235.583	94.5
235.817	65.5
236.051	83.5
236.285	78.5
236.519	68.5
236.753	76.5
236.987	74.5
237.221	68.5
237.455	88.5
237.689	76.5
237.922	54.5
238.156	77.5
238.39	79.5
238.624	75.5
238.858	88.5
239.091	81.5
239.325	79.5
239.559	80.5
239.793	86.5
240.027	69.5
240.26	78.5
240.494	90.5
240.728	81.5
240.961	78.5
241.195	76.5
241.429	82.5
241.662	68.5
241.896	70.5
242.13	71.5
242.363	71.5
242.597	90.5
242.83	82.5
243.064	73.5
243.298	80.5
243.531	78.5
243.765	78.5
243.998	75.5
244.232	67.5
244.465	81.5
244.699	63.5
244.932	57.5
245.166	66.5
245.399	75.5
245.633	79.5
245.866	67.5
246.099	66.5
246.333	78.5
246.566	74.5
246.8	80.5
247.033	94.5
247.266	82.5
247.5	76.5
247.733	88.5
247.966	73.5
248.2	86.5
248.433	81.5
248.666	71.5
248.899	70.5
249.133	63.5
249.366	79.5
249.599	80.5
249.832	82.5
250.066	77.5
250.299	81.5
250.532	78.5
250.765	77.5
250.998	85.5
251.231	83.5
251.465	88.5
251.698	84.5
251.931	84.5
252.164	82.5
252.397	77.5
252.63	71.5
252.863	90.5
253.096	74.5
253.329	75.5
253.562	79.5
253.795	78.5
254.028	92.5
254.261	80.5
254.494	84.5
254.727	85.5
254.96	74.5
255.193	83.5
255.426	72.5
255.659	80.5
255.892	67.5
256.124	75.5
256.357	80.5
256.59	86.5
256.823	74.5
257.056	78.5
257.289	77.5
257.521	76.5
257.754	72.5
257.987	89.5
258.22	86.5
258.452	81.5
258.685	61.5
258.918	76.5
259.151	69.5
259.383	85.5
259.616	71.5
259.849	79.5
260.081	84.5
260.314	73.5
260.547	83.5
260.779	80.5
261.012	73.5
261.244	82.5
261.477	93.5
261.71	76.5
261.942	85.5
262.175	86.5
262.407	81.5
262.64	84.5
262.872	81.5
263.105	74.5
263.337	84.5
263.57	87.5
263.802	87.5
264.035	77.5
264.267	77.5
264.499	81.5
264.732	81.5
264.964	86.5
265.197	76.5
265.429	85.5
265.661	88.5
265.894	81.5
266.126	72.5
266.358	71.5
266.591	97.5
266.823	89.5
267.055	88.5
267.287	84.5
267.52	77.5
267.752	72.5
267.984	78.5
268.216	88.5
268.448	83.5
268.681	89.5
268.913	80.5
269.145	86.5
269.377	72.5
269.609	72.5
269.841	87.5
270.073	96.5
270.306	74.5
270.538	90.5
270.77	85.5
271.002	87.5
271.234	82.5
271.466	84.5
271.698	80.5
271.93	96.5
272.162	81.5
272.394	84.5
272.626	92.5
272.858	84.5
273.09	79.5
273.322	72.5
273.553	79.5
273.785	86.5
274.017	92.5
274.249	76.5
274.481	97.5
274.713	83.5
274.945	91.5
275.176	86.5
275.408	84.5
275.64	66.5
275.872	74.5
276.104	102.5
276.335	77.5
276.567	98.5
276.799	92.5
277.031	73.5
277.262	75.5
277.494	84.5
277.726	88.5
277.957	79.5
278.189	93.5
278.421	74.5
278.652	78.5
278.884	85.5
279.115	100.5
279.347	75.5
279.579	74.5
279.81	77.5
280.042	64.5
280.273	85.5
280.505	69.5
280.736	82.5
280.968	80.5
281.199	87.5
281.431	72.5
281.662	92.5
281.894	82.5
282.125	88.5
282.356	80.5
282.588	81.5
282.819	75.5
283.051	104.5
283.282	94.5
283.513	79.5
283.745	77.5
283.976	58.5
284.207	76.5
284.439	90.5
284.67	81.5
284.901	84.5
285.132	90.5
285.364	94.5
285.595	89.5
285.826	85.5
286.057	91.5
286.288	87.5
286.52	75.5
286.751	88.5
286.982	86.5
287.213	83.5
287.444	75.5
287.675	83.5
287.906	95.5
288.138	92.5
288.369	79.5
288.6	80.5
288.831	85.5
289.062	82.5
289.293	102.5
289.524	92.5
289.755	93.5
289.986	77.5
290.217	92.5
290.448	77.5
290.679	78.5
290.91	92.5
291.141	85.5
291.371	87.5
291.602	80.5
291.833	85.5
292.064	84.5
292.295	74.5
292.526	75.5
292.757	73.5
292.987	77.5
293.218	79.5
293.449	66.5
293.68	96.5
293.91	85.5
294.141	80.5
294.372	99.5
294.603	82.5
294.833	88.5
295.064	88.5
295.295	84.5
295.525	80.5
295.756	76.5
295.987	87.5
296.217	82.5
296.448	81.5
296.679	84.5
296.909	95.5
297.14	90.5
297.37	90.5
297.601	93.5
297.831	81.5
298.062	97.5
298.292	74.5
298.523	93.5
298.753	79.5
298.984	93.5
299.214	106.5
299.445	82.5
299.675	88.5
299.905	84.5
300.136	91.5
300.366	81.5
300.597	79.5
300.827	90.5
301.057	76.5
301.288	95.5
301.518	102.5
301.748	96.5
301.979	106.5
302.209	102.5
302.439	108.5
302.669	92.5
302.9	87.5
303.13	83.5
303.36	92.5
303.59	84.5
303.82	84.5
304.051	71.5
304.281	93.5
304.511	94.5
304.741	105.5
304.971	90.5
305.201	99.5
305.431	87.5
305.661	89.5
305.891	85.5
306.121	79.5
306.352	77.5
306.582	98.5
306.812	84.5
307.042	89.5
307.272	78.5
307.502	106.5
307.731	91.5
307.961	80.5
308.191	88.5
308.421	81.5
308.651	86.5
308.881	81.5
309.111	88.5
309.341	88.5
309.571	86.5
309.8	78.5
310.03	72.5
310.26	79.5
310.49	76.5
310.72	79.5
310.949	98.5
311.179	84.5
311.409	94.5
311.639	85.5
311.868	94.5
312.098	99.5
312.328	93.5
312.557	88.5
312.787	94.5
313.017	93.5
313.246	88.5
313.476	97.5
313.706	83.5
313.935	76.5
314.165	82.5
314.394	90.5
314.624	78.5
314.853	96.5
315.083	88.5
315.312	84.5
315.542	93.5
315.771	88.5
316.001	82.5
316.23	75.5
316.46	79.5
316.689	72.5
316.919	90.5
317.148	94.5
317.377	88.5
317.607	97.5
317.836	88.5
318.065	91.5
318.295	93.5
318.524	67.5
318.753	86.5
318.983	95.5
319.212	87.5
319.441	94.5
319.67	78.5
319.9	82.5
320.129	92.5
320.358	73.5
320.587	89.5
320.816	80.5
321.046	85.5
321.275	82.5
321.504	72.5
321.733	80.5
321.962	96.5
322.191	91.5
322.42	77.5
322.649	94.5
322.878	74.5
323.108	86.5
323.337	97.5
323.566	76.5
323.795	94.5
324.024	79.5
324.253	73.5
324.482	85.5
324.71	85.5
324.939	84.5
325.168	92.5
325.397	81.5
325.626	88.5
325.855	93.5
326.084	80.5
326.313	82.5
326.542	78.5
326.77	81.5
326.999	92.5
327.228	85.5
327.457	84.5
327.686	98.5
327.914	90.5
328.143	84.5
328.372	90.5
328.6	91.5
328.829	88.5
329.058	79.5
329.287	69.5
329.515	84.5
329.744	84.5
329.972	74.5
330.201	85.5
330.43	78.5
330.658	92.5
330.887	89.5
331.115	88.5
331.344	75.5
331.572	84.5
331.801	75.5
332.03	88.5
332.258	85.5
332.486	91.5
332.715	84.5
332.943	85.5
333.172	81.5
333.4	82.5
333.629	89.5
333.857	88.5
334.085	91.5
334.314	89.5
334.542	98.5
334.771	91.5
334.999	86.5
335.227	88.5
335.455	84.5
335.684	85.5
335.912	91.5
336.14	87.5
336.369	86.5
336.597	92.5
336.825	83.5
337.053	88.5
337.281	78.5
337.51	76.5
337.738	82.5
337.966	92.5
338.194	82.5
338.422	84.5
338.65	91.5
338.878	73.5
339.106	87.5
339.334	85.5
339.562	76.5
339.79	66.5
340.018	89.5
340.246	77.5
340.474	91.5
340.702	94.5
340.93	87.5
341.158	80.5
341.386	88.5
341.614	91.5
341.842	87.5
342.07	89.5
342.298	89.5
342.526	72.5
342.754	91.5
342.981	93.5
343.209	89.5
343.437	108.5
343.665	96.5
343.893	92.5
344.12	87.5
344.348	96.5
344.576	87.5
344.804	83.5
345.031	90.5
345.259	72.5
345.487	90.5
345.714	93.5
345.942	76.5
346.17	81.5
346.397	76.5
346.625	90.5
346.853	89.5
347.08	92.5
347.308	76.5
347.535	81.5
347.763	76.5
347.99	83.5
348.218	94.5
348.445	77.5
348.673	91.5
348.9	94.5
349.128	82.5
349.355	71.5
349.583	85.5
349.81	82.5
350.037	91.5
350.265	80.5
350.492	86.5
350.72	93.5
350.947	87.5
351.174	76.5
351.402	82.5
351.629	75.5
351.856	92.5
352.083	78.5
352.311	78.5
352.538	91.5
352.765	88.5
352.992	87.5
353.22	74.5
353.447	95.5
353.674	96.5
353.901	78.5
354.128	86.5
354.355	79.5
354.583	96.5
354.81	86.5
355.037	93.5
355.264	83.5
355.491	86.5
355.718	83.5
355.945	105.5
356.172	95.5
356.399	94.5
356.626	91.5
356.853	94.5
357.08	92.5
357.307	77.5
357.534	102.5
357.761	114.5
357.988	119.5
358.215	107.5
358.441	102.5
358.668	98.5
358.895	93.5
359.122	101.5
359.349	104.5
359.576	108.5
359.802	73.5
360.029	96.5
360.256	97.5
360.483	109.5
360.709	104.5
360.936	92.5
361.163	83.5
361.39	81.5
361.616	76.5
361.843	77.5
362.07	84.5
362.296	85.5
362.523	83.5
362.749	86.5
362.976	88.5
363.203	91.5
363.429	80.5
363.656	84.5
363.882	79.5
364.109	79.5
364.335	90.5
364.562	71.5
364.788	79.5
365.015	83.5
365.241	74.5
365.468	94.5
365.694	77.5
365.92	96.5
366.147	82.5
366.373	89.5
366.599	86.5
366.826	69.5
367.052	82.5
367.278	86.5
367.505	93.5
367.731	98.5
367.957	80.5
368.184	95.5
368.41	84.5
368.636	78.5
368.862	84.5
369.089	81.5
369.315	84.5
369.541	75.5
369.767	70.5
369.993	82.5
370.219	73.5
370.445	71.5
370.672	65.5
370.898	85.5
371.124	82.5
371.35	78.5
371.576	79.5
371.802	87.5
372.028	80.5
372.254	77.5
372.48	70.5
372.706	86.5
372.932	94.5
373.158	94.5
373.384	102.5
373.61	93.5
373.835	68.5
374.061	65.5
374.287	84.5
374.513	95.5
374.739	88.5
374.965	79.5
375.191	84.5
375.416	99.5
375.642	87.5
375.868	89.5
376.094	73.5
376.319	76.5
376.545	88.5
376.771	85.5
376.997	97.5
377.222	87.5
377.448	73.5
377.674	83.5
377.899	76.5
378.125	80.5
378.35	76.5
378.576	78.5
378.802	85.5
379.027	77.5
379.253	85.5
379.478	88.5
379.704	90.5
379.929	75.5
380.155	81.5
380.38	85.5
380.606	98.5
380.831	80.5
381.057	78.5
381.282	95.5
381.507	85.5
381.733	90.5
381.958	88.5
382.184	73.5
382.409	85.5
382.634	82.5
382.86	82.5
383.085	88.5
383.31	86.5
383.535	88.5
383.761	81.5
383.986	74.5
384.211	80.5
384.436	94.5
384.662	82.5
384.887	86.5
385.112	95.5
385.337	83.5
385.562	78.5
385.787	91.5
386.013	89.5
386.238	82.5
386.463	80.5
386.688	92.5
386.913	84.5
387.138	92.5
387.363	77.5
387.588	75.5
387.813	85.5
388.038	82.5
388.263	84.5
388.488	86.5
388.713	90.5
388.938	86.5
389.163	82.5
389.387	83.5
389.612	81.5
389.837	87.5
390.062	84.5
390.287	91.5
390.512	81.5
390.736	87.5
390.961	105.5
391.186	90.5
391.411	84.5
391.636	88.5
391.86	100.5
392.085	94.5
392.31	85.5
392.534	81.5
392.759	89.5
392.984	77.5
393.208	87.5
393.433	101.5
393.658	87.5
393.882	88.5
394.107	69.5
394.331	81.5
394.556	72.5
394.78	79.5
395.005	89.5
395.229	72.5
395.454	77.5
395.678	77.5
395.903	90.5
396.127	89.5
396.352	88.5
396.576	108.5
396.801	88.5
397.025	90.5
397.249	97.5
397.474	72.5
397.698	103.5
397.922	93.5
398.147	84.5
398.371	81.5
398.595	87.5
398.82	94.5
399.044	77.5
399.268	93.5
399.492	99.5
399.717	72.5
399.941	71.5
400.165	65.5
400.389	73.5
400.613	86.5
400.837	79.5
401.062	84.5
401.286	74.5
401.51	89.5
401.734	85.5
401.958	65.5
402.182	77.5
402.406	86.5
402.63	90.5
402.854	85.5
403.078	85.5
403.302	74.5
403.526	86.5
403.75	71.5
403.974	75.5
404.198	81.5
404.422	89.5
404.645	80.5
404.869	82.5
405.093	90.5
405.317	90.5
405.541	67.5
405.765	86.5
405.988	78.5
406.212	66.5
406.436	79.5
406.66	94.5
406.883	87.5
407.107	92.5
407.331	86.5
407.555	83.5
407.778	74.5
408.002	73.5
408.226	90.5
408.449	81.5
408.673	82.5
408.896	84.5
409.12	87.5
409.344	71.5
409.567	82.5
409.791	89.5
410.014	99.5
410.238	80.5
410.461	76.5
410.685	70.5
410.908	94.5
411.132	78.5
411.355	88.5
411.578	89.5
411.802	73.5
412.025	70.5
412.249	76.5
412.472	87.5
412.695	100.5
412.919	90.5
413.142	73.5
413.365	90.5
413.589	74.5
413.812	71.5
414.035	86.5
414.258	88.5
414.482	80.5
414.705	77.5
414.928	88.5
415.151	86.5
415.374	82.5
415.597	88.5
415.821	64.5
416.044	83.5
416.267	96.5
416.49	90.5
416.713	73.5
416.936	86.5
417.159	77.5
417.382	76.5
417.605	77.5
417.828	81.5
418.051	92.5
418.274	67.5
418.497	86.5
418.72	84.5
418.943	99.5
419.166	94.5
419.389	79.5
419.611	80.5
419.834	90.5
420.057	86.5
420.28	80.5
420.503	91.5
420.726	88.5
420.948	69.5
421.171	84.5
421.394	87.5
421.617	94.5
421.839	82.5
422.062	88.5
422.285	77.5
422.507	86.5
422.73	72.5
422.953	72.5
423.175	78.5
423.398	70.5
423.621	81.5
423.843	70.5
424.066	75.5
424.288	76.5
424.511	70.5
424.733	80.5
424.956	88.5
425.178	104.5
425.401	118.5
425.623	144.5
425.846	106.5
426.068	87.5
426.291	78.5
426.513	79.5
426.735	86.5
426.958	86.5
427.18	92.5
427.402	118.5
427.625	137.5
427.847	100.5
428.069	90.5
428.292	93.5
428.514	84.5
428.736	90.5
428.958	120.5
429.181	137.5
429.403	107.5
429.625	91.5
429.847	96.5
430.069	90.5
430.292	81.5
430.514	59.5
430.736	97.5
430.958	82.5
431.18	86.5
431.402	79.5
431.624	79.5
431.846	90.5
432.068	94.5
432.29	80.5
432.512	86.5
432.734	78.5
432.956	78.5
433.178	94.5
433.4	73.5
433.622	95.5
433.844	110.5
434.066	116.5
434.287	110.5
434.509	107.5
434.731	100.5
434.953	92.5
435.175	114.5
435.397	115.5
435.618	81.5
435.84	84.5
436.062	88.5
436.284	95.5
436.505	80.5
436.727	87.5
436.949	94.5
437.17	89.5
437.392	92.5
437.614	80.5
437.835	79.5
438.057	80.5
438.278	81.5
438.5	86.5
438.721	70.5
438.943	85.5
439.165	85.5
439.386	80.5
439.608	91.5
439.829	85.5
440.05	78.5
440.272	92.5
440.493	97.5
440.715	93.5
440.936	83.5
441.158	67.5
441.379	82.5
441.6	76.5
441.822	81.5
442.043	88.5
442.264	92.5
442.486	79.5
442.707	70.5
442.928	87.5
443.149	92.5
443.371	88.5
443.592	97.5
443.813	84.5
444.034	88.5
444.255	81.5
444.476	79.5
444.698	87.5
444.919	90.5
445.14	159.5
445.361	119.5
445.582	90.5
445.803	80.5
446.024	82.5
446.245	86.5
446.466	77.5
446.687	84.5
446.908	102.5
447.129	94.5
447.35	75.5
447.571	100.5
447.792	88.5
448.013	76.5
448.234	85.5
448.455	98.5
448.675	75.5
448.896	77.5
449.117	90.5
449.338	96.5
449.559	88.5
449.779	94.5
450	91.5
450.221	111.5
450.442	103.5
450.662	93.5
450.883	87.5
451.104	82.5
451.324	91.5
451.545	85.5
451.766	82.5
451.986	73.5
452.207	89.5
452.428	83.5
452.648	107.5
452.869	90.5
453.089	94.5
453.31	77.5
453.53	92.5
453.751	80.5
453.971	70.5
454.192	80.5
454.412	86.5
454.633	92.5
454.853	87.5
455.073	73.5
455.294	88.5
455.514	103.5
455.734	77.5
455.955	83.5
456.175	77.5
456.395	100.5
456.616	72.5
456.836	86.5
457.056	88.5
457.276	79.5
457.497	83.5
457.717	86.5
457.937	83.5
458.157	96.5
458.377	82.5
458.598	72.5
458.818	67.5
459.038	80.5
459.258	74.5
459.478	82.5
459.698	79.5
459.918	88.5
460.138	97.5
460.358	87.5
460.578	94.5
460.798	75.5
461.018	84.5
461.238	80.5
461.458	85.5
461.678	86.5
461.898	105.5
462.118	84.5
462.338	96.5
462.558	80.5
462.777	82.5
462.997	86.5
463.217	68.5
463.437	86.5
463.657	80.5
463.876	93.5
464.096	66.5
464.316	92.5
464.536	94.5
464.755	103.5
464.975	106.5
465.195	112.5
465.414	96.5
465.634	87.5
465.854	72.5
466.073	85.5
466.293	99.5
466.512	89.5
466.732	78.5
466.951	82.5
467.171	70.5
467.391	94.5
467.61	89.5
467.829	89.5
468.049	72.5
468.268	81.5
468.488	86.5
468.707	75.5
468.927	78.5
469.146	73.5
469.365	82.5
469.585	84.5
469.804	81.5
470.023	84.5
470.243	88.5
470.462	82.5
470.681	92.5
470.901	100.5
471.12	92.5
471.339	86.5
471.558	80.5
471.777	87.5
471.997	96.5
472.216	94.5
472.435	73.5
472.654	86.5
472.873	91.5
473.092	65.5
473.311	84.5
473.53	86.5
473.749	86.5
473.968	89.5
474.187	91.5
474.406	76.5
474.625	98.5
474.844	87.5
475.063	96.5
475.282	96.5
475.501	87.5
475.72	85.5
475.939	86.5
476.158	86.5
476.377	91.5
476.596	77.5
476.814	84.5
477.033	95.5
477.252	90.5
477.471	78.5
477.69	87.5
477.908	95.5
478.127	78.5
478.346	81.5
478.564	75.5
478.783	85.5
479.002	86.5
479.22	94.5
479.439	84.5
479.658	88.5
479.876	78.5
480.095	97.5
480.313	94.5
480.532	86.5
480.751	79.5
480.969	78.5
481.188	79.5
481.406	102.5
481.624	103.5
481.843	81.5
482.061	84.5
482.28	77.5
482.498	85.5
482.717	109.5
482.935	87.5
483.153	94.5
483.372	82.5
483.59	100.5
483.808	78.5
484.027	100.5
484.245	84.5
484.463	78.5
484.681	88.5
484.9	89.5
485.118	92.5
485.336	79.5
485.554	84.5
485.772	88.5
485.99	85.5
486.209	92.5
486.427	66.5
486.645	86.5
486.863	89.5
487.081	94.5
487.299	93.5
487.517	94.5
487.735	88.5
487.953	70.5
488.171	78.5
488.389	79.5
488.607	85.5
488.825	114.5
489.043	88.5
489.261	93.5
489.479	86.5
489.696	77.5
489.914	73.5
490.132	74.5
490.35	76.5
490.568	90.5
490.786	81.5
491.003	89.5
491.221	89.5
491.439	74.5
491.657	85.5
491.874	89.5
492.092	84.5
492.31	89.5
492.527	92.5
492.745	70.5
492.963	96.5
493.18	104.5
493.398	106.5
493.615	82.5
493.833	95.5
494.05	90.5
494.268	75.5
494.485	88.5
494.703	88.5
494.92	81.5
495.138	91.5
495.355	82.5
495.573	92.5
495.79	94.5
496.008	85.5
496.225	101.5
496.442	97.5
496.66	83.5
496.877	85.5
497.094	84.5
497.312	83.5
497.529	86.5
497.746	94.5
497.963	94.5
498.181	85.5
498.398	78.5
498.615	80.5
498.832	78.5
499.049	101.5
499.267	86.5
499.484	76.5
499.701	78.5
499.918	86.5
500.135	77.5
500.352	84.5
500.569	86.5
500.786	86.5
501.003	102.5
501.22	87.5
501.437	80.5
501.654	76.5
501.871	85.5
502.088	99.5
502.305	86.5
502.522	84.5
502.739	84.5
502.956	75.5
503.172	87.5
503.389	86.5
503.606	93.5
503.823	82.5
504.04	73.5
504.256	79.5
504.473	75.5
504.69	73.5
504.907	95.5
505.123	88.5
505.34	90.5
505.557	80.5
505.773	86.5
505.99	87.5
506.207	94.5
506.423	89.5
506.64	92.5
506.856	94.5
507.073	76.5
507.289	87.5
507.506	79.5
507.722	92.5
507.939	83.5
508.155	77.5
508.372	85.5
508.588	71.5
508.805	87.5
509.021	82.5
509.238	92.5
509.454	84.5
509.67	79.5
509.887	93.5
510.103	78.5
510.319	69.5
510.536	90.5
510.752	90.5
510.968	73.5
511.184	87.5
511.401	94.5
511.617	88.5
511.833	68.5
512.049	92.5
512.265	74.5
512.481	87.5
512.698	89.5
512.914	90.5
513.13	80.5
513.346	92.5
513.562	98.5
513.778	84.5
513.994	84.5
514.21	85.5
514.426	80.5
514.642	87.5
514.858	85.5
515.074	87.5
515.29	95.5
515.506	88.5
515.721	83.5
515.937	101.5
516.153	67.5
516.369	81.5
516.585	75.5
516.801	87.5
517.016	82.5
517.232	82.5
517.448	84.5
517.664	84.5
517.879	88.5
518.095	100.5
518.311	86.5
518.527	89.5
518.742	84.5
518.958	90.5
519.173	84.5
519.389	110.5
519.605	89.5
519.82	86.5
520.036	101.5
520.251	112.5
520.467	180.5
520.682	381.5
520.898	359.5
521.113	270.5
521.329	128.5
521.544	89.5
521.76	80.5
521.975	88.5
522.19	84.5
522.406	102.5
522.621	102.5
522.836	96.5
523.052	74.5
523.267	90.5
523.482	77.5
523.698	77.5
523.913	83.5
524.128	83.5
524.343	80.5
524.559	96.5
524.774	88.5
524.989	105.5
525.204	82.5
525.419	94.5
525.634	85.5
525.849	88.5
526.064	101.5
526.28	81.5
526.495	106.5
526.71	137.5
526.925	85.5
527.14	81.5
527.355	86.5
527.57	102.5
527.785	117.5
527.999	97.5
528.214	97.5
528.429	77.5
528.644	86.5
528.859	89.5
529.074	74.5
529.289	81.5
529.503	90.5
529.718	120.5
529.933	194.5
530.148	143.5
530.363	93.5
530.577	101.5
530.792	80.5
531.007	93.5
531.221	82.5
531.436	89.5
531.651	85.5
531.865	89.5
532.08	104.5
532.295	82.5
532.509	97.5
532.724	102.5
532.938	109.5
533.153	114.5
533.367	99.5
533.582	94.5
533.796	98.5
534.011	104.5
534.225	94.5
534.44	98.5
534.654	127.5
534.868	163.5
535.083	124.5
535.297	88.5
535.511	87.5
535.726	95.5
535.94	88.5
536.154	82.5
536.369	81.5
536.583	82.5
536.797	85.5
537.011	88.5
537.225	80.5
537.44	77.5
537.654	86.5
537.868	93.5
538.082	95.5
538.296	84.5
538.51	76.5
538.724	83.5
538.938	84.5
539.153	69.5
539.367	84.5
