Data from StA_HRD10591_094.txt Node
Date: Fri May 16 15:19:30 EDT 2025
User: Yrep
Spectrometer: HR+D1059
Trigger mode: 1
Integration Time (sec): 1.000000E-1
Scans to average: 1
Electric dark correction enabled: true
Nonlinearity correction enabled: false
Boxcar width: 0
XAxis mode: Wavelengths
Number of Pixels in Spectrum: 2048
>>>>>Begin Spectral Data<<<<<
223.165	-22.31
223.4	-22.31
223.635	-22.31
223.869	-21.31
224.104	-23.31
224.338	-15.31
224.573	-16.31
224.808	-16.31
225.042	-18.31
225.277	1.69
225.511	-3.31
225.746	23.69
225.98	9.69
226.215	12.69
226.449	26.69
226.683	23.69
226.918	15.69
227.152	22.69
227.387	45.69
227.621	42.69
227.856	40.69
228.09	43.69
228.324	41.69
228.559	48.69
228.793	58.69
229.027	64.69
229.262	74.69
229.496	59.69
229.73	60.69
229.964	70.69
230.199	70.69
230.433	68.69
230.667	69.69
230.901	71.69
231.136	82.69
231.37	75.69
231.604	75.69
231.838	78.69
232.072	76.69
232.306	88.69
232.541	81.69
232.775	86.69
233.009	89.69
233.243	77.69
233.477	74.69
233.711	76.69
233.945	57.69
234.179	88.69
234.413	85.69
234.647	79.69
234.881	75.69
235.115	73.69
235.349	72.69
235.583	77.69
235.817	87.69
236.051	73.69
236.285	78.69
236.519	82.69
236.753	71.69
236.987	90.69
237.221	88.69
237.455	77.69
237.689	80.69
237.922	77.69
238.156	89.69
238.39	84.69
238.624	81.69
238.858	96.69
239.091	82.69
239.325	76.69
239.559	77.69
239.793	83.69
240.027	76.69
240.26	80.69
240.494	70.69
240.728	76.69
240.961	68.69
241.195	72.69
241.429	78.69
241.662	73.69
241.896	85.69
242.13	78.69
242.363	100.69
242.597	95.69
242.83	77.69
243.064	78.69
243.298	71.69
243.531	75.69
243.765	71.69
243.998	78.69
244.232	74.69
244.465	70.69
244.699	70.69
244.932	83.69
245.166	68.69
245.399	77.69
245.633	72.69
245.866	72.69
246.099	77.69
246.333	89.69
246.566	93.69
246.8	78.69
247.033	74.69
247.266	89.69
247.5	85.69
247.733	73.69
247.966	83.69
248.2	84.69
248.433	84.69
248.666	81.69
248.899	73.69
249.133	71.69
249.366	76.69
249.599	88.69
249.832	70.69
250.066	81.69
250.299	80.69
250.532	69.69
250.765	71.69
250.998	81.69
251.231	80.69
251.465	79.69
251.698	70.69
251.931	86.69
252.164	79.69
252.397	79.69
252.63	82.69
252.863	77.69
253.096	81.69
253.329	84.69
253.562	73.69
253.795	64.69
254.028	81.69
254.261	93.69
254.494	79.69
254.727	83.69
254.96	82.69
255.193	82.69
255.426	70.69
255.659	82.69
255.892	79.69
256.124	81.69
256.357	77.69
256.59	67.69
256.823	81.69
257.056	67.69
257.289	73.69
257.521	86.69
257.754	76.69
257.987	77.69
258.22	80.69
258.452	78.69
258.685	75.69
258.918	106.69
259.151	80.69
259.383	86.69
259.616	87.69
259.849	63.69
260.081	82.69
260.314	90.69
260.547	76.69
260.779	69.69
261.012	78.69
261.244	95.69
261.477	82.69
261.71	84.69
261.942	70.69
262.175	77.69
262.407	70.69
262.64	88.69
262.872	87.69
263.105	80.69
263.337	76.69
263.57	73.69
263.802	79.69
264.035	77.69
264.267	91.69
264.499	67.69
264.732	80.69
264.964	83.69
265.197	74.69
265.429	80.69
265.661	76.69
265.894	86.69
266.126	88.69
266.358	86.69
266.591	87.69
266.823	89.69
267.055	85.69
267.287	78.69
267.52	88.69
267.752	88.69
267.984	87.69
268.216	81.69
268.448	86.69
268.681	92.69
268.913	82.69
269.145	88.69
269.377	95.69
269.609	82.69
269.841	85.69
270.073	89.69
270.306	90.69
270.538	87.69
270.77	81.69
271.002	79.69
271.234	76.69
271.466	86.69
271.698	79.69
271.93	64.69
272.162	80.69
272.394	88.69
272.626	83.69
272.858	92.69
273.09	89.69
273.322	72.69
273.553	85.69
273.785	93.69
274.017	84.69
274.249	82.69
274.481	84.69
274.713	74.69
274.945	84.69
275.176	81.69
275.408	84.69
275.64	82.69
275.872	79.69
276.104	88.69
276.335	94.69
276.567	90.69
276.799	81.69
277.031	84.69
277.262	83.69
277.494	91.69
277.726	80.69
277.957	81.69
278.189	83.69
278.421	87.69
278.652	86.69
278.884	84.69
279.115	81.69
279.347	85.69
279.579	82.69
279.81	100.69
280.042	83.69
280.273	75.69
280.505	78.69
280.736	90.69
280.968	93.69
281.199	93.69
281.431	89.69
281.662	85.69
281.894	96.69
282.125	89.69
282.356	88.69
282.588	89.69
282.819	89.69
283.051	85.69
283.282	83.69
283.513	88.69
283.745	90.69
283.976	81.69
284.207	89.69
284.439	88.69
284.67	86.69
284.901	89.69
285.132	92.69
285.364	94.69
285.595	98.69
285.826	81.69
286.057	97.69
286.288	99.69
286.52	93.69
286.751	93.69
286.982	96.69
287.213	82.69
287.444	94.69
287.675	100.69
287.906	101.69
288.138	85.69
288.369	87.69
288.6	73.69
288.831	82.69
289.062	80.69
289.293	103.69
289.524	96.69
289.755	84.69
289.986	90.69
290.217	84.69
290.448	90.69
290.679	84.69
290.91	93.69
291.141	91.69
291.371	93.69
291.602	101.69
291.833	100.69
292.064	73.69
292.295	90.69
292.526	85.69
292.757	84.69
292.987	101.69
293.218	89.69
293.449	73.69
293.68	72.69
293.91	95.69
294.141	90.69
294.372	94.69
294.603	97.69
294.833	89.69
295.064	93.69
295.295	87.69
295.525	92.69
295.756	89.69
295.987	88.69
296.217	72.69
296.448	89.69
296.679	88.69
296.909	79.69
297.14	84.69
297.37	94.69
297.601	85.69
297.831	87.69
298.062	77.69
298.292	81.69
298.523	88.69
298.753	104.69
298.984	102.69
299.214	84.69
299.445	88.69
299.675	111.69
299.905	93.69
300.136	87.69
300.366	78.69
300.597	87.69
300.827	89.69
301.057	81.69
301.288	96.69
301.518	85.69
301.748	102.69
301.979	90.69
302.209	90.69
302.439	104.69
302.669	80.69
302.9	81.69
303.13	89.69
303.36	88.69
303.59	100.69
303.82	90.69
304.051	76.69
304.281	108.69
304.511	94.69
304.741	80.69
304.971	93.69
305.201	87.69
305.431	100.69
305.661	103.69
305.891	93.69
306.121	104.69
306.352	82.69
306.582	69.69
306.812	79.69
307.042	73.69
307.272	75.69
307.502	78.69
307.731	89.69
307.961	88.69
308.191	94.69
308.421	87.69
308.651	81.69
308.881	84.69
309.111	72.69
309.341	83.69
309.571	88.69
309.8	88.69
310.03	97.69
310.26	94.69
310.49	89.69
310.72	89.69
310.949	93.69
311.179	82.69
311.409	91.69
311.639	89.69
311.868	96.69
312.098	91.69
312.328	97.69
312.557	95.69
312.787	95.69
313.017	106.69
313.246	94.69
313.476	90.69
313.706	89.69
313.935	86.69
314.165	79.69
314.394	93.69
314.624	90.69
314.853	77.69
315.083	102.69
315.312	83.69
315.542	72.69
315.771	85.69
316.001	93.69
316.23	87.69
316.46	77.69
316.689	87.69
316.919	98.69
317.148	83.69
317.377	106.69
317.607	84.69
317.836	75.69
318.065	74.69
318.295	95.69
318.524	82.69
318.753	89.69
318.983	100.69
319.212	87.69
319.441	89.69
319.67	86.69
319.9	81.69
320.129	73.69
320.358	89.69
320.587	84.69
320.816	102.69
321.046	85.69
321.275	83.69
321.504	81.69
321.733	74.69
321.962	79.69
322.191	76.69
322.42	84.69
322.649	86.69
322.878	87.69
323.108	82.69
323.337	69.69
323.566	88.69
323.795	89.69
324.024	84.69
324.253	104.69
324.482	81.69
324.71	82.69
324.939	84.69
325.168	87.69
325.397	91.69
325.626	83.69
325.855	81.69
326.084	76.69
326.313	96.69
326.542	84.69
326.77	88.69
326.999	81.69
327.228	86.69
327.457	72.69
327.686	84.69
327.914	80.69
328.143	89.69
328.372	76.69
328.6	86.69
328.829	79.69
329.058	87.69
329.287	80.69
329.515	76.69
329.744	89.69
329.972	73.69
330.201	87.69
330.43	85.69
330.658	78.69
330.887	95.69
331.115	84.69
331.344	80.69
331.572	92.69
331.801	82.69
332.03	80.69
332.258	95.69
332.486	93.69
332.715	80.69
332.943	90.69
333.172	95.69
333.4	84.69
333.629	100.69
333.857	84.69
334.085	81.69
334.314	87.69
334.542	93.69
334.771	87.69
334.999	79.69
335.227	82.69
335.455	97.69
335.684	85.69
335.912	78.69
336.14	75.69
336.369	90.69
336.597	95.69
336.825	92.69
337.053	85.69
337.281	78.69
337.51	87.69
337.738	81.69
337.966	80.69
338.194	93.69
338.422	100.69
338.65	83.69
338.878	74.69
339.106	91.69
339.334	89.69
339.562	90.69
339.79	85.69
340.018	85.69
340.246	81.69
340.474	96.69
340.702	95.69
340.93	92.69
341.158	81.69
341.386	96.69
341.614	84.69
341.842	89.69
342.07	76.69
342.298	90.69
342.526	78.69
342.754	81.69
342.981	89.69
343.209	89.69
343.437	96.69
343.665	112.69
343.893	84.69
344.12	85.69
344.348	82.69
344.576	78.69
344.804	66.69
345.031	87.69
345.259	71.69
345.487	87.69
345.714	89.69
345.942	84.69
346.17	70.69
346.397	85.69
346.625	80.69
346.853	89.69
347.08	93.69
347.308	80.69
347.535	86.69
347.763	90.69
347.99	76.69
348.218	83.69
348.445	84.69
348.673	84.69
348.9	83.69
349.128	92.69
349.355	80.69
349.583	70.69
349.81	88.69
350.037	94.69
350.265	79.69
350.492	92.69
350.72	96.69
350.947	80.69
351.174	77.69
351.402	85.69
351.629	82.69
351.856	91.69
352.083	92.69
352.311	93.69
352.538	81.69
352.765	71.69
352.992	100.69
353.22	97.69
353.447	88.69
353.674	93.69
353.901	85.69
354.128	78.69
354.355	70.69
354.583	103.69
354.81	80.69
355.037	89.69
355.264	81.69
355.491	81.69
355.718	80.69
355.945	76.69
356.172	81.69
356.399	92.69
356.626	102.69
356.853	86.69
357.08	96.69
357.307	108.69
357.534	101.69
357.761	108.69
357.988	135.69
358.215	104.69
358.441	93.69
358.668	94.69
358.895	84.69
359.122	84.69
359.349	111.69
359.576	98.69
359.802	87.69
360.029	103.69
360.256	96.69
360.483	104.69
360.709	118.69
360.936	96.69
361.163	89.69
361.39	96.69
361.616	79.69
361.843	81.69
362.07	84.69
362.296	90.69
362.523	84.69
362.749	91.69
362.976	90.69
363.203	86.69
363.429	88.69
363.656	92.69
363.882	90.69
364.109	96.69
364.335	84.69
364.562	80.69
364.788	94.69
365.015	99.69
365.241	86.69
365.468	92.69
365.694	94.69
365.92	85.69
366.147	97.69
366.373	93.69
366.599	78.69
366.826	87.69
367.052	88.69
367.278	81.69
367.505	99.69
367.731	90.69
367.957	85.69
368.184	88.69
368.41	91.69
368.636	93.69
368.862	69.69
369.089	87.69
369.315	85.69
369.541	93.69
369.767	78.69
369.993	74.69
370.219	87.69
370.445	66.69
370.672	79.69
370.898	76.69
371.124	95.69
371.35	87.69
371.576	96.69
371.802	77.69
372.028	90.69
372.254	81.69
372.48	90.69
372.706	89.69
372.932	87.69
373.158	81.69
373.384	79.69
373.61	84.69
373.835	92.69
374.061	85.69
374.287	86.69
374.513	102.69
374.739	78.69
374.965	75.69
375.191	93.69
375.416	86.69
375.642	95.69
375.868	80.69
376.094	84.69
376.319	83.69
376.545	81.69
376.771	76.69
376.997	77.69
377.222	99.69
377.448	84.69
377.674	80.69
377.899	92.69
378.125	63.69
378.35	87.69
378.576	78.69
378.802	92.69
379.027	91.69
379.253	100.69
379.478	82.69
379.704	90.69
379.929	77.69
380.155	89.69
380.38	73.69
380.606	81.69
380.831	84.69
381.057	74.69
381.282	78.69
381.507	77.69
381.733	86.69
381.958	89.69
382.184	78.69
382.409	88.69
382.634	96.69
382.86	86.69
383.085	85.69
383.31	81.69
383.535	97.69
383.761	101.69
383.986	86.69
384.211	80.69
384.436	73.69
384.662	78.69
384.887	90.69
385.112	94.69
385.337	94.69
385.562	95.69
385.787	78.69
386.013	90.69
386.238	84.69
386.463	79.69
386.688	101.69
386.913	88.69
387.138	91.69
387.363	86.69
387.588	77.69
387.813	104.69
388.038	97.69
388.263	93.69
388.488	85.69
388.713	107.69
388.938	93.69
389.163	100.69
389.387	89.69
389.612	91.69
389.837	91.69
390.062	65.69
390.287	81.69
390.512	93.69
390.736	88.69
390.961	90.69
391.186	85.69
391.411	97.69
391.636	77.69
391.86	92.69
392.085	104.69
392.31	85.69
392.534	89.69
392.759	81.69
392.984	92.69
393.208	87.69
393.433	79.69
393.658	75.69
393.882	85.69
394.107	89.69
394.331	97.69
394.556	75.69
394.78	93.69
395.005	76.69
395.229	73.69
395.454	79.69
395.678	85.69
395.903	87.69
396.127	79.69
396.352	88.69
396.576	107.69
396.801	82.69
397.025	89.69
397.249	90.69
397.474	96.69
397.698	88.69
397.922	87.69
398.147	90.69
398.371	97.69
398.595	96.69
398.82	90.69
399.044	96.69
399.268	85.69
399.492	84.69
399.717	82.69
399.941	80.69
400.165	73.69
400.389	80.69
400.613	79.69
400.837	82.69
401.062	72.69
401.286	72.69
401.51	75.69
401.734	86.69
401.958	72.69
402.182	84.69
402.406	80.69
402.63	70.69
402.854	88.69
403.078	81.69
403.302	82.69
403.526	95.69
403.75	84.69
403.974	85.69
404.198	91.69
404.422	77.69
404.645	78.69
404.869	74.69
405.093	80.69
405.317	85.69
405.541	86.69
405.765	86.69
405.988	93.69
406.212	80.69
406.436	93.69
406.66	89.69
406.883	73.69
407.107	71.69
407.331	77.69
407.555	74.69
407.778	85.69
408.002	65.69
408.226	82.69
408.449	89.69
408.673	85.69
408.896	76.69
409.12	79.69
409.344	81.69
409.567	93.69
409.791	96.69
410.014	69.69
410.238	81.69
410.461	63.69
410.685	88.69
410.908	92.69
411.132	98.69
411.355	81.69
411.578	87.69
411.802	80.69
412.025	52.69
412.249	100.69
412.472	94.69
412.695	93.69
412.919	84.69
413.142	97.69
413.365	75.69
413.589	87.69
413.812	67.69
414.035	76.69
414.258	76.69
414.482	80.69
414.705	82.69
414.928	86.69
415.151	86.69
415.374	96.69
415.597	77.69
415.821	73.69
416.044	85.69
416.267	63.69
416.49	78.69
416.713	89.69
416.936	72.69
417.159	79.69
417.382	81.69
417.605	93.69
417.828	88.69
418.051	92.69
418.274	86.69
418.497	80.69
418.72	85.69
418.943	100.69
419.166	74.69
419.389	100.69
419.611	78.69
419.834	85.69
420.057	83.69
420.28	86.69
420.503	81.69
420.726	82.69
420.948	85.69
421.171	84.69
421.394	76.69
421.617	80.69
421.839	79.69
422.062	62.69
422.285	84.69
422.507	89.69
422.73	78.69
422.953	80.69
423.175	85.69
423.398	72.69
423.621	89.69
423.843	74.69
424.066	84.69
424.288	90.69
424.511	86.69
424.733	82.69
424.956	79.69
425.178	102.69
425.401	127.69
425.623	134.69
425.846	92.69
426.068	85.69
426.291	77.69
426.513	82.69
426.735	93.69
426.958	73.69
427.18	97.69
427.402	124.69
427.625	146.69
427.847	110.69
428.069	74.69
428.292	73.69
428.514	80.69
428.736	78.69
428.958	116.69
429.181	126.69
429.403	93.69
429.625	71.69
429.847	94.69
430.069	86.69
430.292	85.69
430.514	78.69
430.736	86.69
430.958	90.69
431.18	78.69
431.402	85.69
431.624	96.69
431.846	84.69
432.068	76.69
432.29	87.69
432.512	76.69
432.734	84.69
432.956	75.69
433.178	90.69
433.4	82.69
433.622	94.69
433.844	122.69
434.066	120.69
434.287	89.69
434.509	95.69
434.731	94.69
434.953	86.69
435.175	103.69
435.397	111.69
435.618	74.69
435.84	85.69
436.062	89.69
436.284	89.69
436.505	96.69
436.727	73.69
436.949	85.69
437.17	102.69
437.392	84.69
437.614	66.69
437.835	86.69
438.057	79.69
438.278	84.69
438.5	88.69
438.721	92.69
438.943	76.69
439.165	87.69
439.386	93.69
439.608	83.69
439.829	90.69
440.05	97.69
440.272	80.69
440.493	101.69
440.715	83.69
440.936	84.69
441.158	104.69
441.379	78.69
441.6	62.69
441.822	88.69
442.043	93.69
442.264	81.69
442.486	85.69
442.707	86.69
442.928	91.69
443.149	88.69
443.371	90.69
443.592	88.69
443.813	87.69
444.034	84.69
444.255	86.69
444.476	83.69
444.698	78.69
444.919	83.69
445.14	138.69
445.361	132.69
445.582	61.69
445.803	82.69
446.024	88.69
446.245	76.69
446.466	90.69
446.687	82.69
446.908	81.69
447.129	79.69
447.35	71.69
447.571	75.69
447.792	78.69
448.013	83.69
448.234	89.69
448.455	76.69
448.675	93.69
448.896	97.69
449.117	89.69
449.338	85.69
449.559	78.69
449.779	94.69
450	97.69
450.221	72.69
450.442	85.69
450.662	80.69
450.883	90.69
451.104	92.69
451.324	86.69
451.545	79.69
451.766	76.69
451.986	85.69
452.207	90.69
452.428	88.69
452.648	91.69
452.869	102.69
453.089	91.69
453.31	94.69
453.53	87.69
453.751	76.69
453.971	87.69
454.192	92.69
454.412	109.69
454.633	89.69
454.853	85.69
455.073	91.69
455.294	81.69
455.514	76.69
455.734	73.69
455.955	89.69
456.175	90.69
456.395	86.69
456.616	90.69
456.836	79.69
457.056	86.69
457.276	79.69
457.497	98.69
457.717	87.69
457.937	87.69
458.157	94.69
458.377	80.69
458.598	86.69
458.818	91.69
459.038	86.69
459.258	90.69
459.478	84.69
459.698	84.69
459.918	81.69
460.138	106.69
460.358	106.69
460.578	86.69
460.798	76.69
461.018	77.69
461.238	79.69
461.458	70.69
461.678	108.69
461.898	106.69
462.118	80.69
462.338	85.69
462.558	97.69
462.777	93.69
462.997	95.69
463.217	93.69
463.437	91.69
463.657	84.69
463.876	76.69
464.096	71.69
464.316	82.69
464.536	102.69
464.755	108.69
464.975	98.69
465.195	116.69
465.414	121.69
465.634	88.69
465.854	82.69
466.073	80.69
466.293	93.69
466.512	84.69
466.732	92.69
466.951	66.69
467.171	84.69
467.391	93.69
467.61	78.69
467.829	90.69
468.049	86.69
468.268	79.69
468.488	76.69
468.707	76.69
468.927	81.69
469.146	83.69
469.365	67.69
469.585	84.69
469.804	86.69
470.023	92.69
470.243	81.69
470.462	75.69
470.681	74.69
470.901	85.69
471.12	86.69
471.339	77.69
471.558	80.69
471.777	92.69
471.997	76.69
472.216	87.69
472.435	76.69
472.654	90.69
472.873	89.69
473.092	101.69
473.311	92.69
473.53	76.69
473.749	103.69
473.968	100.69
474.187	77.69
474.406	88.69
474.625	82.69
474.844	93.69
475.063	81.69
475.282	73.69
475.501	79.69
475.72	102.69
475.939	88.69
476.158	92.69
476.377	81.69
476.596	80.69
476.814	84.69
477.033	81.69
477.252	67.69
477.471	104.69
477.69	91.69
477.908	88.69
478.127	93.69
478.346	81.69
478.564	92.69
478.783	76.69
479.002	87.69
479.22	88.69
479.439	97.69
479.658	88.69
479.876	77.69
480.095	70.69
480.313	87.69
480.532	86.69
480.751	80.69
480.969	85.69
481.188	85.69
481.406	87.69
481.624	84.69
481.843	78.69
482.061	77.69
482.28	77.69
482.498	79.69
482.717	73.69
482.935	97.69
483.153	93.69
483.372	85.69
483.59	84.69
483.808	91.69
484.027	86.69
484.245	82.69
484.463	92.69
484.681	92.69
484.9	75.69
485.118	89.69
485.336	99.69
485.554	82.69
485.772	66.69
485.99	84.69
486.209	94.69
486.427	85.69
486.645	81.69
486.863	86.69
487.081	72.69
487.299	96.69
487.517	89.69
487.735	93.69
487.953	68.69
488.171	80.69
488.389	94.69
488.607	88.69
488.825	94.69
489.043	86.69
489.261	89.69
489.479	87.69
489.696	87.69
489.914	96.69
490.132	87.69
490.35	87.69
490.568	79.69
490.786	83.69
491.003	89.69
491.221	90.69
491.439	96.69
491.657	82.69
491.874	86.69
492.092	90.69
492.31	103.69
492.527	81.69
492.745	84.69
492.963	64.69
493.18	85.69
493.398	93.69
493.615	81.69
493.833	100.69
494.05	91.69
494.268	77.69
494.485	89.69
494.703	91.69
494.92	101.69
495.138	87.69
495.355	87.69
495.573	96.69
495.79	70.69
496.008	89.69
496.225	85.69
496.442	77.69
496.66	101.69
496.877	92.69
497.094	74.69
497.312	78.69
497.529	77.69
497.746	76.69
497.963	63.69
498.181	62.69
498.398	66.69
498.615	78.69
498.832	88.69
499.049	96.69
499.267	104.69
499.484	87.69
499.701	79.69
499.918	77.69
500.135	87.69
500.352	79.69
500.569	86.69
500.786	86.69
501.003	78.69
501.22	83.69
501.437	95.69
501.654	94.69
501.871	82.69
502.088	69.69
502.305	87.69
502.522	79.69
502.739	82.69
502.956	66.69
503.172	93.69
503.389	93.69
503.606	88.69
503.823	79.69
504.04	87.69
504.256	76.69
504.473	86.69
504.69	84.69
504.907	86.69
505.123	75.69
505.34	92.69
505.557	87.69
505.773	97.69
505.99	86.69
506.207	78.69
506.423	81.69
506.64	85.69
506.856	86.69
507.073	96.69
507.289	90.69
507.506	94.69
507.722	89.69
507.939	91.69
508.155	94.69
508.372	86.69
508.588	89.69
508.805	86.69
509.021	88.69
509.238	84.69
509.454	73.69
509.67	85.69
509.887	88.69
510.103	84.69
510.319	92.69
510.536	89.69
510.752	80.69
510.968	94.69
511.184	91.69
511.401	96.69
511.617	72.69
511.833	84.69
512.049	85.69
512.265	88.69
512.481	86.69
512.698	94.69
512.914	78.69
513.13	73.69
513.346	82.69
513.562	80.69
513.778	84.69
513.994	86.69
514.21	84.69
514.426	82.69
514.642	76.69
514.858	80.69
515.074	72.69
515.29	92.69
515.506	73.69
515.721	98.69
515.937	85.69
516.153	103.69
516.369	72.69
516.585	74.69
516.801	76.69
517.016	81.69
517.232	88.69
517.448	92.69
517.664	92.69
517.879	85.69
518.095	86.69
518.311	82.69
518.527	105.69
518.742	86.69
518.958	80.69
