Data from StA_HRD10591_056.txt Node
Date: Fri May 16 15:19:11 EDT 2025
User: Yrep
Spectrometer: HR+D1059
Trigger mode: 1
Integration Time (sec): 1.000000E-1
Scans to average: 1
Electric dark correction enabled: true
Nonlinearity correction enabled: false
Boxcar width: 0
XAxis mode: Wavelengths
Number of Pixels in Spectrum: 2048
>>>>>Begin Spectral Data<<<<<
223.165	-14.31
223.4	-14.31
223.635	-14.31
223.869	-20.31
224.104	-21.31
224.338	-20.31
224.573	-7.31
224.808	-7.31
225.042	-5.31
225.277	-15.31
225.511	-9.31
225.746	4.69
225.98	-5.31
226.215	22.69
226.449	10.69
226.683	26.69
226.918	25.69
227.152	35.69
227.387	31.69
227.621	35.69
227.856	39.69
228.09	54.69
228.324	56.69
228.559	60.69
228.793	60.69
229.027	63.69
229.262	67.69
229.496	67.69
229.73	55.69
229.964	79.69
230.199	63.69
230.433	66.69
230.667	72.69
230.901	65.69
231.136	81.69
231.37	79.69
231.604	69.69
231.838	86.69
232.072	88.69
232.306	90.69
232.541	88.69
232.775	78.69
233.009	59.69
233.243	75.69
233.477	74.69
233.711	88.69
233.945	68.69
234.179	84.69
234.413	87.69
234.647	80.69
234.881	88.69
235.115	70.69
235.349	72.69
235.583	67.69
235.817	63.69
236.051	64.69
236.285	82.69
236.519	82.69
236.753	56.69
236.987	78.69
237.221	79.69
237.455	66.69
237.689	69.69
237.922	84.69
238.156	67.69
238.39	60.69
238.624	68.69
238.858	69.69
239.091	80.69
239.325	79.69
239.559	87.69
239.793	94.69
240.027	93.69
240.26	52.69
240.494	85.69
240.728	69.69
240.961	75.69
241.195	80.69
241.429	78.69
241.662	56.69
241.896	83.69
242.13	75.69
242.363	65.69
242.597	76.69
242.83	78.69
243.064	72.69
243.298	71.69
243.531	83.69
243.765	71.69
243.998	74.69
244.232	71.69
244.465	91.69
244.699	78.69
244.932	75.69
245.166	65.69
245.399	68.69
245.633	75.69
245.866	63.69
246.099	72.69
246.333	79.69
246.566	74.69
246.8	79.69
247.033	78.69
247.266	68.69
247.5	71.69
247.733	76.69
247.966	66.69
248.2	86.69
248.433	76.69
248.666	82.69
248.899	82.69
249.133	75.69
249.366	75.69
249.599	83.69
249.832	91.69
250.066	69.69
250.299	77.69
250.532	79.69
250.765	83.69
250.998	72.69
251.231	80.69
251.465	92.69
251.698	80.69
251.931	71.69
252.164	78.69
252.397	72.69
252.63	91.69
252.863	81.69
253.096	73.69
253.329	84.69
253.562	65.69
253.795	76.69
254.028	77.69
254.261	79.69
254.494	79.69
254.727	93.69
254.96	81.69
255.193	78.69
255.426	84.69
255.659	84.69
255.892	76.69
256.124	84.69
256.357	72.69
256.59	78.69
256.823	84.69
257.056	77.69
257.289	82.69
257.521	82.69
257.754	85.69
257.987	80.69
258.22	76.69
258.452	79.69
258.685	69.69
258.918	71.69
259.151	88.69
259.383	83.69
259.616	84.69
259.849	87.69
260.081	55.69
260.314	76.69
260.547	67.69
260.779	65.69
261.012	78.69
261.244	80.69
261.477	74.69
261.71	83.69
261.942	88.69
262.175	76.69
262.407	87.69
262.64	65.69
262.872	76.69
263.105	80.69
263.337	94.69
263.57	77.69
263.802	81.69
264.035	76.69
264.267	75.69
264.499	84.69
264.732	80.69
264.964	79.69
265.197	79.69
265.429	77.69
265.661	78.69
265.894	84.69
266.126	103.69
266.358	87.69
266.591	80.69
266.823	77.69
267.055	65.69
267.287	84.69
267.52	78.69
267.752	87.69
267.984	81.69
268.216	95.69
268.448	92.69
268.681	83.69
268.913	85.69
269.145	82.69
269.377	82.69
269.609	80.69
269.841	67.69
270.073	88.69
270.306	86.69
270.538	84.69
270.77	71.69
271.002	83.69
271.234	71.69
271.466	88.69
271.698	91.69
271.93	88.69
272.162	74.69
272.394	72.69
272.626	81.69
272.858	80.69
273.09	84.69
273.322	77.69
273.553	80.69
273.785	80.69
274.017	97.69
274.249	99.69
274.481	88.69
274.713	85.69
274.945	88.69
275.176	99.69
275.408	84.69
275.64	80.69
275.872	74.69
276.104	85.69
276.335	88.69
276.567	93.69
276.799	95.69
277.031	68.69
277.262	76.69
277.494	85.69
277.726	87.69
277.957	87.69
278.189	97.69
278.421	82.69
278.652	72.69
278.884	78.69
279.115	72.69
279.347	91.69
279.579	87.69
279.81	83.69
280.042	78.69
280.273	90.69
280.505	89.69
280.736	76.69
280.968	92.69
281.199	94.69
281.431	83.69
281.662	99.69
281.894	82.69
282.125	86.69
282.356	87.69
282.588	68.69
282.819	91.69
283.051	88.69
283.282	82.69
283.513	89.69
283.745	84.69
283.976	84.69
284.207	79.69
284.439	103.69
284.67	102.69
284.901	87.69
285.132	91.69
285.364	92.69
285.595	91.69
285.826	92.69
286.057	91.69
286.288	97.69
286.52	83.69
286.751	101.69
286.982	93.69
287.213	98.69
287.444	92.69
287.675	103.69
287.906	92.69
288.138	81.69
288.369	92.69
288.6	99.69
288.831	95.69
289.062	88.69
289.293	91.69
289.524	81.69
289.755	69.69
289.986	98.69
290.217	99.69
290.448	93.69
290.679	91.69
290.91	91.69
291.141	93.69
291.371	84.69
291.602	75.69
291.833	83.69
292.064	72.69
292.295	79.69
292.526	89.69
292.757	97.69
292.987	83.69
293.218	95.69
293.449	75.69
293.68	79.69
293.91	85.69
294.141	96.69
294.372	98.69
294.603	85.69
294.833	81.69
295.064	80.69
295.295	94.69
295.525	83.69
295.756	95.69
295.987	92.69
296.217	87.69
296.448	84.69
296.679	88.69
296.909	91.69
297.14	96.69
297.37	91.69
297.601	83.69
297.831	87.69
298.062	78.69
298.292	73.69
298.523	92.69
298.753	101.69
298.984	91.69
299.214	86.69
299.445	91.69
299.675	81.69
299.905	71.69
300.136	89.69
300.366	92.69
300.597	99.69
300.827	87.69
301.057	96.69
301.288	97.69
301.518	112.69
301.748	107.69
301.979	100.69
302.209	88.69
302.439	81.69
302.669	105.69
302.9	100.69
303.13	95.69
303.36	79.69
303.59	91.69
303.82	90.69
304.051	95.69
304.281	91.69
304.511	81.69
304.741	79.69
304.971	90.69
305.201	89.69
305.431	107.69
305.661	85.69
305.891	87.69
306.121	78.69
306.352	84.69
306.582	90.69
306.812	89.69
307.042	63.69
307.272	79.69
307.502	83.69
307.731	92.69
307.961	87.69
308.191	76.69
308.421	79.69
308.651	93.69
308.881	84.69
309.111	91.69
309.341	83.69
309.571	86.69
309.8	80.69
310.03	85.69
310.26	87.69
310.49	86.69
310.72	86.69
310.949	81.69
311.179	86.69
311.409	93.69
311.639	87.69
311.868	105.69
312.098	89.69
312.328	105.69
312.557	88.69
312.787	89.69
313.017	89.69
313.246	84.69
313.476	94.69
313.706	82.69
313.935	88.69
314.165	92.69
314.394	93.69
314.624	86.69
314.853	85.69
315.083	77.69
315.312	76.69
315.542	94.69
315.771	88.69
316.001	82.69
316.23	86.69
316.46	85.69
316.689	81.69
316.919	87.69
317.148	84.69
317.377	73.69
317.607	95.69
317.836	89.69
318.065	80.69
318.295	86.69
318.524	80.69
318.753	101.69
318.983	87.69
319.212	92.69
319.441	87.69
319.67	85.69
319.9	88.69
320.129	92.69
320.358	82.69
320.587	74.69
320.816	96.69
321.046	85.69
321.275	86.69
321.504	93.69
321.733	83.69
321.962	92.69
322.191	85.69
322.42	80.69
322.649	88.69
322.878	89.69
323.108	81.69
323.337	83.69
323.566	83.69
323.795	83.69
324.024	88.69
324.253	73.69
324.482	96.69
324.71	90.69
324.939	76.69
325.168	89.69
325.397	78.69
325.626	91.69
325.855	84.69
326.084	84.69
326.313	81.69
326.542	82.69
326.77	76.69
326.999	73.69
327.228	95.69
327.457	95.69
327.686	76.69
327.914	88.69
328.143	95.69
328.372	96.69
328.6	88.69
328.829	84.69
329.058	94.69
329.287	85.69
329.515	92.69
329.744	86.69
329.972	83.69
330.201	88.69
330.43	77.69
330.658	89.69
330.887	91.69
331.115	96.69
331.344	85.69
331.572	92.69
331.801	74.69
332.03	84.69
332.258	76.69
332.486	77.69
332.715	80.69
332.943	96.69
333.172	90.69
333.4	82.69
333.629	93.69
333.857	78.69
334.085	83.69
334.314	81.69
334.542	85.69
334.771	87.69
334.999	80.69
335.227	89.69
335.455	102.69
335.684	92.69
335.912	65.69
336.14	97.69
336.369	90.69
336.597	103.69
336.825	80.69
337.053	83.69
337.281	89.69
337.51	76.69
337.738	75.69
337.966	87.69
338.194	103.69
338.422	79.69
338.65	76.69
338.878	90.69
339.106	101.69
339.334	83.69
339.562	87.69
339.79	75.69
340.018	89.69
340.246	83.69
340.474	86.69
340.702	89.69
340.93	96.69
341.158	87.69
341.386	70.69
341.614	86.69
341.842	81.69
342.07	93.69
342.298	81.69
342.526	95.69
342.754	95.69
342.981	83.69
343.209	79.69
343.437	111.69
343.665	92.69
343.893	88.69
344.12	92.69
344.348	88.69
344.576	87.69
344.804	85.69
345.031	80.69
345.259	90.69
345.487	85.69
345.714	93.69
345.942	91.69
346.17	97.69
346.397	90.69
346.625	86.69
346.853	82.69
347.08	91.69
347.308	95.69
347.535	83.69
347.763	84.69
347.99	73.69
348.218	80.69
348.445	94.69
348.673	82.69
348.9	78.69
349.128	81.69
349.355	83.69
349.583	104.69
349.81	81.69
350.037	90.69
350.265	87.69
350.492	95.69
350.72	90.69
350.947	88.69
351.174	81.69
351.402	94.69
351.629	95.69
351.856	79.69
352.083	80.69
352.311	82.69
352.538	77.69
352.765	92.69
352.992	78.69
353.22	86.69
353.447	87.69
353.674	77.69
353.901	81.69
354.128	80.69
354.355	84.69
354.583	86.69
354.81	94.69
355.037	95.69
355.264	78.69
355.491	95.69
355.718	74.69
355.945	84.69
356.172	82.69
356.399	84.69
356.626	84.69
356.853	84.69
357.08	93.69
357.307	94.69
357.534	112.69
357.761	112.69
357.988	126.69
358.215	111.69
358.441	80.69
358.668	85.69
358.895	70.69
359.122	91.69
359.349	123.69
359.576	111.69
359.802	96.69
360.029	87.69
360.256	102.69
360.483	116.69
360.709	117.69
360.936	94.69
361.163	88.69
361.39	86.69
361.616	72.69
361.843	79.69
362.07	79.69
362.296	91.69
362.523	84.69
362.749	90.69
362.976	86.69
363.203	88.69
363.429	83.69
363.656	83.69
363.882	85.69
364.109	89.69
364.335	100.69
364.562	101.69
364.788	84.69
365.015	75.69
365.241	90.69
365.468	90.69
365.694	75.69
365.92	79.69
366.147	80.69
366.373	84.69
366.599	88.69
366.826	83.69
367.052	88.69
367.278	80.69
367.505	83.69
367.731	89.69
367.957	87.69
368.184	85.69
368.41	85.69
368.636	85.69
368.862	71.69
369.089	81.69
369.315	76.69
369.541	73.69
369.767	85.69
369.993	88.69
370.219	73.69
370.445	80.69
370.672	79.69
370.898	70.69
371.124	85.69
371.35	83.69
371.576	73.69
371.802	80.69
372.028	69.69
372.254	93.69
372.48	81.69
372.706	95.69
372.932	96.69
373.158	99.69
373.384	95.69
373.61	88.69
373.835	77.69
374.061	100.69
374.287	101.69
374.513	87.69
374.739	101.69
374.965	87.69
375.191	84.69
375.416	84.69
375.642	102.69
375.868	90.69
376.094	91.69
376.319	83.69
376.545	87.69
376.771	79.69
376.997	89.69
377.222	88.69
377.448	85.69
377.674	77.69
377.899	80.69
378.125	86.69
378.35	87.69
378.576	86.69
378.802	86.69
379.027	93.69
379.253	96.69
379.478	80.69
379.704	96.69
379.929	83.69
380.155	90.69
380.38	92.69
380.606	91.69
380.831	90.69
381.057	96.69
381.282	77.69
381.507	84.69
381.733	71.69
381.958	73.69
382.184	92.69
382.409	81.69
382.634	90.69
382.86	81.69
383.085	79.69
383.31	78.69
383.535	89.69
383.761	99.69
383.986	98.69
384.211	86.69
384.436	99.69
384.662	88.69
384.887	97.69
385.112	95.69
385.337	73.69
385.562	83.69
385.787	87.69
386.013	81.69
386.238	77.69
386.463	67.69
386.688	100.69
386.913	84.69
387.138	88.69
387.363	86.69
387.588	92.69
387.813	80.69
388.038	94.69
388.263	83.69
388.488	100.69
388.713	95.69
388.938	107.69
389.163	92.69
389.387	85.69
389.612	86.69
389.837	79.69
390.062	87.69
390.287	71.69
390.512	80.69
390.736	77.69
390.961	84.69
391.186	100.69
391.411	75.69
391.636	92.69
391.86	88.69
392.085	92.69
392.31	87.69
392.534	91.69
392.759	80.69
392.984	85.69
393.208	87.69
393.433	83.69
393.658	74.69
393.882	89.69
394.107	92.69
394.331	89.69
394.556	80.69
394.78	78.69
395.005	76.69
395.229	79.69
395.454	79.69
395.678	91.69
395.903	102.69
396.127	85.69
396.352	102.69
396.576	105.69
396.801	79.69
397.025	94.69
397.249	96.69
397.474	93.69
397.698	91.69
397.922	89.69
398.147	82.69
398.371	91.69
398.595	87.69
398.82	94.69
399.044	79.69
399.268	92.69
399.492	93.69
399.717	77.69
399.941	98.69
400.165	83.69
400.389	84.69
400.613	92.69
400.837	75.69
401.062	94.69
401.286	82.69
401.51	73.69
401.734	77.69
401.958	85.69
402.182	85.69
402.406	88.69
402.63	79.69
402.854	92.69
403.078	87.69
403.302	82.69
403.526	79.69
403.75	73.69
403.974	76.69
404.198	92.69
404.422	92.69
404.645	85.69
404.869	70.69
405.093	78.69
405.317	93.69
405.541	92.69
405.765	73.69
405.988	86.69
406.212	82.69
406.436	90.69
406.66	81.69
406.883	81.69
407.107	75.69
407.331	83.69
407.555	79.69
407.778	69.69
408.002	80.69
408.226	75.69
408.449	77.69
408.673	68.69
408.896	76.69
409.12	101.69
409.344	63.69
409.567	76.69
409.791	81.69
410.014	78.69
410.238	84.69
410.461	89.69
410.685	82.69
410.908	84.69
411.132	89.69
411.355	85.69
411.578	90.69
411.802	88.69
412.025	79.69
412.249	75.69
412.472	70.69
412.695	85.69
412.919	79.69
413.142	87.69
413.365	88.69
413.589	80.69
413.812	91.69
414.035	84.69
414.258	87.69
414.482	76.69
414.705	86.69
414.928	72.69
415.151	75.69
415.374	97.69
415.597	70.69
415.821	89.69
416.044	87.69
416.267	85.69
416.49	92.69
416.713	79.69
416.936	74.69
417.159	82.69
417.382	78.69
417.605	94.69
417.828	82.69
418.051	85.69
418.274	89.69
418.497	68.69
418.72	83.69
418.943	73.69
419.166	86.69
419.389	78.69
419.611	78.69
419.834	80.69
420.057	92.69
420.28	85.69
420.503	77.69
420.726	81.69
420.948	86.69
421.171	90.69
421.394	86.69
421.617	76.69
421.839	77.69
422.062	95.69
422.285	96.69
422.507	66.69
422.73	92.69
422.953	81.69
423.175	70.69
423.398	86.69
423.621	76.69
423.843	84.69
424.066	81.69
424.288	81.69
424.511	73.69
424.733	76.69
424.956	77.69
425.178	82.69
425.401	135.69
425.623	145.69
425.846	103.69
426.068	75.69
426.291	78.69
426.513	77.69
426.735	79.69
426.958	76.69
427.18	92.69
427.402	115.69
427.625	141.69
427.847	97.69
428.069	104.69
428.292	80.69
428.514	88.69
428.736	95.69
428.958	107.69
429.181	123.69
429.403	104.69
429.625	85.69
429.847	83.69
430.069	81.69
430.292	85.69
430.514	80.69
430.736	89.69
430.958	74.69
431.18	87.69
431.402	89.69
431.624	83.69
431.846	83.69
432.068	93.69
432.29	84.69
432.512	93.69
432.734	78.69
432.956	83.69
433.178	86.69
433.4	89.69
433.622	92.69
433.844	112.69
434.066	118.69
434.287	107.69
434.509	111.69
434.731	92.69
434.953	88.69
435.175	108.69
435.397	104.69
435.618	83.69
435.84	89.69
436.062	108.69
436.284	91.69
436.505	81.69
436.727	71.69
436.949	70.69
437.17	76.69
437.392	96.69
437.614	83.69
437.835	88.69
438.057	84.69
438.278	71.69
438.5	89.69
438.721	86.69
438.943	85.69
439.165	83.69
439.386	74.69
439.608	70.69
439.829	85.69
440.05	85.69
440.272	88.69
440.493	90.69
440.715	82.69
440.936	71.69
441.158	92.69
441.379	71.69
441.6	85.69
441.822	90.69
442.043	73.69
442.264	79.69
442.486	83.69
442.707	89.69
442.928	84.69
443.149	95.69
443.371	95.69
443.592	78.69
443.813	77.69
444.034	83.69
444.255	88.69
444.476	83.69
444.698	85.69
444.919	81.69
445.14	169.69
445.361	128.69
445.582	79.69
445.803	69.69
446.024	85.69
446.245	93.69
446.466	68.69
446.687	91.69
446.908	73.69
447.129	83.69
447.35	86.69
447.571	86.69
447.792	80.69
448.013	81.69
448.234	85.69
448.455	72.69
448.675	84.69
448.896	82.69
449.117	85.69
449.338	80.69
449.559	103.69
449.779	78.69
450	95.69
450.221	84.69
450.442	86.69
450.662	88.69
450.883	62.69
451.104	89.69
451.324	89.69
451.545	80.69
451.766	89.69
451.986	66.69
452.207	87.69
452.428	89.69
452.648	104.69
452.869	92.69
453.089	92.69
453.31	86.69
453.53	84.69
453.751	81.69
453.971	99.69
454.192	94.69
454.412	78.69
454.633	82.69
454.853	83.69
455.073	73.69
455.294	69.69
455.514	88.69
455.734	91.69
455.955	80.69
456.175	95.69
456.395	79.69
456.616	80.69
456.836	78.69
457.056	75.69
457.276	81.69
457.497	88.69
457.717	81.69
457.937	77.69
458.157	81.69
458.377	78.69
458.598	74.69
458.818	87.69
459.038	80.69
459.258	91.69
459.478	81.69
459.698	84.69
459.918	95.69
460.138	80.69
460.358	92.69
460.578	93.69
460.798	91.69
461.018	89.69
461.238	88.69
461.458	87.69
461.678	89.69
461.898	101.69
462.118	80.69
462.338	98.69
462.558	96.69
462.777	95.69
462.997	80.69
463.217	75.69
463.437	82.69
463.657	75.69
463.876	89.69
464.096	92.69
464.316	88.69
464.536	90.69
464.755	111.69
464.975	88.69
465.195	103.69
465.414	129.69
465.634	108.69
465.854	68.69
466.073	81.69
466.293	83.69
466.512	77.69
466.732	79.69
466.951	92.69
467.171	76.69
467.391	78.69
467.61	79.69
467.829	85.69
468.049	95.69
468.268	65.69
468.488	80.69
468.707	83.69
468.927	84.69
469.146	81.69
469.365	76.69
469.585	81.69
469.804	82.69
470.023	74.69
470.243	75.69
470.462	72.69
470.681	73.69
470.901	93.69
471.12	79.69
471.339	86.69
471.558	77.69
471.777	86.69
471.997	92.69
472.216	79.69
472.435	73.69
472.654	84.69
472.873	84.69
473.092	71.69
473.311	87.69
473.53	95.69
473.749	80.69
473.968	85.69
474.187	89.69
474.406	87.69
474.625	82.69
474.844	87.69
475.063	93.69
475.282	86.69
475.501	95.69
475.72	91.69
475.939	89.69
476.158	85.69
476.377	82.69
476.596	81.69
476.814	77.69
477.033	79.69
477.252	92.69
477.471	87.69
477.69	78.69
477.908	86.69
478.127	88.69
478.346	79.69
478.564	69.69
478.783	78.69
479.002	92.69
479.22	104.69
479.439	98.69
479.658	91.69
479.876	102.69
480.095	75.69
480.313	85.69
480.532	86.69
480.751	89.69
480.969	61.69
481.188	69.69
481.406	74.69
481.624	88.69
481.843	80.69
482.061	75.69
482.28	73.69
482.498	80.69
482.717	78.69
482.935	91.69
483.153	77.69
483.372	81.69
483.59	81.69
483.808	80.69
484.027	85.69
484.245	75.69
484.463	75.69
484.681	85.69
484.9	91.69
485.118	84.69
485.336	83.69
485.554	87.69
485.772	92.69
485.99	86.69
486.209	86.69
486.427	84.69
486.645	90.69
486.863	81.69
487.081	71.69
487.299	96.69
487.517	99.69
487.735	93.69
487.953	96.69
488.171	89.69
488.389	90.69
488.607	107.69
488.825	92.69
489.043	89.69
489.261	85.69
489.479	82.69
489.696	91.69
489.914	65.69
490.132	88.69
490.35	83.69
490.568	92.69
490.786	88.69
491.003	86.69
491.221	80.69
491.439	81.69
491.657	83.69
491.874	88.69
492.092	84.69
492.31	106.69
492.527	101.69
492.745	87.69
492.963	85.69
493.18	85.69
493.398	96.69
493.615	101.69
493.833	85.69
494.05	88.69
494.268	93.69
494.485	103.69
494.703	83.69
494.92	73.69
495.138	75.69
495.355	65.69
495.573	85.69
495.79	89.69
496.008	84.69
496.225	75.69
496.442	87.69
496.66	73.69
496.877	83.69
497.094	89.69
497.312	88.69
497.529	78.69
497.746	83.69
497.963	87.69
498.181	83.69
498.398	83.69
498.615	92.69
498.832	78.69
499.049	77.69
499.267	81.69
499.484	88.69
499.701	81.69
499.918	85.69
500.135	85.69
500.352	78.69
500.569	94.69
500.786	79.69
501.003	96.69
501.22	100.69
501.437	94.69
501.654	74.69
501.871	83.69
502.088	87.69
502.305	86.69
502.522	72.69
502.739	84.69
502.956	64.69
503.172	75.69
503.389	78.69
503.606	69.69
503.823	88.69
504.04	81.69
504.256	89.69
504.473	72.69
504.69	88.69
504.907	88.69
505.123	87.69
505.34	94.69
505.557	90.69
505.773	81.69
505.99	87.69
506.207	93.69
506.423	60.69
506.64	81.69
506.856	87.69
507.073	77.69
507.289	65.69
507.506	85.69
507.722	79.69
507.939	73.69
508.155	96.69
508.372	84.69
508.588	85.69
508.805	66.69
509.021	92.69
509.238	86.69
509.454	91.69
509.67	79.69
509.887	85.69
510.103	88.69
510.319	85.69
510.536	96.69
510.752	93.69
510.968	79.69
511.184	93.69
511.401	79.69
511.617	81.69
511.833	98.69
512.049	93.69
512.265	87.69
512.481	91.69
512.698	78.69
512.914	75.69
513.13	87.69
513.346	87.69
513.562	92.69
513.778	80.69
513.994	72.69
514.21	72.69
514.426	76.69
514.642	78.69
514.858	80.69
515.074	66.69
515.29	73.69
515.506	82.69
515.721	73.69
515.937	79.69
516.153	81.69
516.369	86.69
516.585	83.69
516.801	87.69
517.016	75.69
517.232	79.69
517.448	73.69
517.664	70.69
517.879	90.69
518.095	75.69
518.311	88.69
518.527	92.69
518.742	83.69
518.958	94.69
519.173	99.69
