Data from StA_HRD10591_028.txt Node
Date: Fri May 16 15:18:58 EDT 2025
User: Yrep
Spectrometer: HR+D1059
Trigger mode: 1
Integration Time (sec): 1.000000E-1
Scans to average: 1
Electric dark correction enabled: true
Nonlinearity correction enabled: false
Boxcar width: 0
XAxis mode: Wavelengths
Number of Pixels in Spectrum: 2048
>>>>>Begin Spectral Data<<<<<
223.165	-22.62
223.4	-22.62
223.635	-22.62
223.869	-24.62
224.104	-23.62
224.338	-15.62
224.573	-5.62
224.808	-7.62
225.042	-11.62
225.277	-1.62
225.511	2.38
225.746	-1.62
225.98	5.38
226.215	17.38
226.449	21.38
226.683	5.38
226.918	30.38
227.152	32.38
227.387	33.38
227.621	43.38
227.856	46.38
228.09	37.38
228.324	46.38
228.559	59.38
228.793	57.38
229.027	62.38
229.262	64.38
229.496	68.38
229.73	73.38
229.964	68.38
230.199	53.38
230.433	81.38
230.667	63.38
230.901	67.38
231.136	76.38
231.37	74.38
231.604	80.38
231.838	87.38
232.072	86.38
232.306	81.38
232.541	87.38
232.775	94.38
233.009	62.38
233.243	73.38
233.477	93.38
233.711	78.38
233.945	73.38
234.179	78.38
234.413	70.38
234.647	68.38
234.881	81.38
235.115	61.38
235.349	81.38
235.583	88.38
235.817	79.38
236.051	83.38
236.285	74.38
236.519	80.38
236.753	74.38
236.987	65.38
237.221	72.38
237.455	63.38
237.689	58.38
237.922	69.38
238.156	72.38
238.39	70.38
238.624	73.38
238.858	72.38
239.091	85.38
239.325	73.38
239.559	85.38
239.793	56.38
240.027	84.38
240.26	70.38
240.494	81.38
240.728	65.38
240.961	58.38
241.195	75.38
241.429	66.38
241.662	81.38
241.896	75.38
242.13	83.38
242.363	82.38
242.597	81.38
242.83	61.38
243.064	79.38
243.298	73.38
243.531	72.38
243.765	85.38
243.998	81.38
244.232	75.38
244.465	70.38
244.699	84.38
244.932	73.38
245.166	92.38
245.399	75.38
245.633	66.38
245.866	78.38
246.099	70.38
246.333	62.38
246.566	78.38
246.8	90.38
247.033	88.38
247.266	68.38
247.5	84.38
247.733	73.38
247.966	74.38
248.2	73.38
248.433	73.38
248.666	77.38
248.899	73.38
249.133	84.38
249.366	92.38
249.599	76.38
249.832	79.38
250.066	67.38
250.299	75.38
250.532	86.38
250.765	65.38
250.998	79.38
251.231	63.38
251.465	76.38
251.698	68.38
251.931	72.38
252.164	88.38
252.397	85.38
252.63	73.38
252.863	83.38
253.096	73.38
253.329	77.38
253.562	68.38
253.795	79.38
254.028	84.38
254.261	66.38
254.494	82.38
254.727	78.38
254.96	78.38
255.193	76.38
255.426	63.38
255.659	69.38
255.892	86.38
256.124	75.38
256.357	85.38
256.59	78.38
256.823	84.38
257.056	79.38
257.289	69.38
257.521	75.38
257.754	72.38
257.987	99.38
258.22	87.38
258.452	83.38
258.685	91.38
258.918	76.38
259.151	78.38
259.383	79.38
259.616	75.38
259.849	88.38
260.081	84.38
260.314	92.38
260.547	87.38
260.779	95.38
261.012	86.38
261.244	68.38
261.477	83.38
261.71	80.38
261.942	71.38
262.175	85.38
262.407	85.38
262.64	87.38
262.872	83.38
263.105	88.38
263.337	89.38
263.57	79.38
263.802	72.38
264.035	63.38
264.267	93.38
264.499	80.38
264.732	97.38
264.964	75.38
265.197	73.38
265.429	79.38
265.661	93.38
265.894	88.38
266.126	77.38
266.358	80.38
266.591	93.38
266.823	76.38
267.055	96.38
267.287	97.38
267.52	87.38
267.752	91.38
267.984	92.38
268.216	73.38
268.448	79.38
268.681	74.38
268.913	86.38
269.145	72.38
269.377	86.38
269.609	77.38
269.841	83.38
270.073	75.38
270.306	78.38
270.538	89.38
270.77	72.38
271.002	87.38
271.234	79.38
271.466	80.38
271.698	76.38
271.93	85.38
272.162	74.38
272.394	76.38
272.626	92.38
272.858	86.38
273.09	83.38
273.322	82.38
273.553	79.38
273.785	87.38
274.017	84.38
274.249	85.38
274.481	66.38
274.713	94.38
274.945	92.38
275.176	89.38
275.408	90.38
275.64	83.38
275.872	77.38
276.104	88.38
276.335	95.38
276.567	87.38
276.799	80.38
277.031	81.38
277.262	86.38
277.494	76.38
277.726	81.38
277.957	59.38
278.189	80.38
278.421	87.38
278.652	87.38
278.884	84.38
279.115	74.38
279.347	93.38
279.579	77.38
279.81	79.38
280.042	77.38
280.273	87.38
280.505	80.38
280.736	70.38
280.968	91.38
281.199	93.38
281.431	57.38
281.662	80.38
281.894	77.38
282.125	78.38
282.356	72.38
282.588	92.38
282.819	77.38
283.051	87.38
283.282	83.38
283.513	108.38
283.745	85.38
283.976	84.38
284.207	91.38
284.439	74.38
284.67	82.38
284.901	80.38
285.132	100.38
285.364	90.38
285.595	77.38
285.826	79.38
286.057	92.38
286.288	90.38
286.52	91.38
286.751	86.38
286.982	85.38
287.213	77.38
287.444	91.38
287.675	92.38
287.906	91.38
288.138	91.38
288.369	77.38
288.6	89.38
288.831	76.38
289.062	80.38
289.293	89.38
289.524	84.38
289.755	81.38
289.986	76.38
290.217	83.38
290.448	70.38
290.679	78.38
290.91	87.38
291.141	81.38
291.371	78.38
291.602	94.38
291.833	96.38
292.064	74.38
292.295	88.38
292.526	83.38
292.757	96.38
292.987	92.38
293.218	84.38
293.449	85.38
293.68	96.38
293.91	77.38
294.141	85.38
294.372	80.38
294.603	86.38
294.833	80.38
295.064	83.38
295.295	68.38
295.525	84.38
295.756	92.38
295.987	90.38
296.217	93.38
296.448	87.38
296.679	73.38
296.909	84.38
297.14	87.38
297.37	83.38
297.601	72.38
297.831	93.38
298.062	89.38
298.292	94.38
298.523	94.38
298.753	97.38
298.984	81.38
299.214	86.38
299.445	97.38
299.675	87.38
299.905	107.38
300.136	78.38
300.366	81.38
300.597	86.38
300.827	83.38
301.057	74.38
301.288	83.38
301.518	95.38
301.748	103.38
301.979	108.38
302.209	104.38
302.439	89.38
302.669	96.38
302.9	93.38
303.13	90.38
303.36	83.38
303.59	86.38
303.82	95.38
304.051	93.38
304.281	84.38
304.511	85.38
304.741	101.38
304.971	75.38
305.201	84.38
305.431	88.38
305.661	81.38
305.891	85.38
306.121	89.38
306.352	66.38
306.582	75.38
306.812	77.38
307.042	89.38
307.272	92.38
307.502	97.38
307.731	97.38
307.961	103.38
308.191	77.38
308.421	79.38
308.651	86.38
308.881	79.38
309.111	87.38
309.341	86.38
309.571	86.38
309.8	89.38
310.03	86.38
310.26	86.38
310.49	95.38
310.72	71.38
310.949	85.38
311.179	86.38
311.409	86.38
311.639	86.38
311.868	93.38
312.098	70.38
312.328	95.38
312.557	92.38
312.787	72.38
313.017	83.38
313.246	90.38
313.476	85.38
313.706	99.38
313.935	89.38
314.165	85.38
314.394	75.38
314.624	91.38
314.853	73.38
315.083	79.38
315.312	72.38
315.542	85.38
315.771	80.38
316.001	88.38
316.23	84.38
316.46	81.38
316.689	83.38
316.919	95.38
317.148	92.38
317.377	86.38
317.607	101.38
317.836	96.38
318.065	77.38
318.295	92.38
318.524	84.38
318.753	78.38
318.983	97.38
319.212	76.38
319.441	89.38
319.67	93.38
319.9	96.38
320.129	92.38
320.358	93.38
320.587	88.38
320.816	77.38
321.046	93.38
321.275	87.38
321.504	99.38
321.733	106.38
321.962	89.38
322.191	76.38
322.42	86.38
322.649	78.38
322.878	88.38
323.108	63.38
323.337	77.38
323.566	75.38
323.795	83.38
324.024	78.38
324.253	84.38
324.482	84.38
324.71	93.38
324.939	84.38
325.168	79.38
325.397	84.38
325.626	89.38
325.855	89.38
326.084	86.38
326.313	77.38
326.542	74.38
326.77	88.38
326.999	75.38
327.228	80.38
327.457	81.38
327.686	83.38
327.914	81.38
328.143	89.38
328.372	85.38
328.6	84.38
328.829	77.38
329.058	92.38
329.287	78.38
329.515	85.38
329.744	82.38
329.972	96.38
330.201	84.38
330.43	92.38
330.658	81.38
330.887	82.38
331.115	85.38
331.344	78.38
331.572	83.38
331.801	85.38
332.03	84.38
332.258	71.38
332.486	76.38
332.715	73.38
332.943	88.38
333.172	83.38
333.4	84.38
333.629	90.38
333.857	97.38
334.085	82.38
334.314	93.38
334.542	81.38
334.771	82.38
334.999	80.38
335.227	83.38
335.455	76.38
335.684	72.38
335.912	84.38
336.14	94.38
336.369	99.38
336.597	77.38
336.825	92.38
337.053	96.38
337.281	87.38
337.51	94.38
337.738	91.38
337.966	77.38
338.194	88.38
338.422	71.38
338.65	74.38
338.878	73.38
339.106	79.38
339.334	71.38
339.562	81.38
339.79	83.38
340.018	85.38
340.246	100.38
340.474	73.38
340.702	96.38
340.93	73.38
341.158	74.38
341.386	83.38
341.614	83.38
341.842	84.38
342.07	84.38
342.298	73.38
342.526	79.38
342.754	85.38
342.981	88.38
343.209	78.38
343.437	107.38
343.665	77.38
343.893	87.38
344.12	79.38
344.348	92.38
344.576	86.38
344.804	83.38
345.031	84.38
345.259	92.38
345.487	107.38
345.714	73.38
345.942	78.38
346.17	88.38
346.397	71.38
346.625	76.38
346.853	83.38
347.08	87.38
347.308	76.38
347.535	83.38
347.763	86.38
347.99	76.38
348.218	92.38
348.445	95.38
348.673	83.38
348.9	88.38
349.128	101.38
349.355	77.38
349.583	93.38
349.81	73.38
350.037	69.38
350.265	76.38
350.492	75.38
350.72	69.38
350.947	74.38
351.174	89.38
351.402	67.38
351.629	73.38
351.856	75.38
352.083	75.38
352.311	93.38
352.538	77.38
352.765	80.38
352.992	89.38
353.22	86.38
353.447	93.38
353.674	79.38
353.901	75.38
354.128	74.38
354.355	83.38
354.583	87.38
354.81	97.38
355.037	87.38
355.264	91.38
355.491	86.38
355.718	88.38
355.945	91.38
356.172	77.38
356.399	78.38
356.626	92.38
356.853	91.38
357.08	89.38
357.307	94.38
357.534	99.38
357.761	109.38
357.988	111.38
358.215	100.38
358.441	77.38
358.668	71.38
358.895	90.38
359.122	91.38
359.349	104.38
359.576	117.38
359.802	88.38
360.029	80.38
360.256	100.38
360.483	110.38
360.709	121.38
360.936	109.38
361.163	101.38
361.39	82.38
361.616	80.38
361.843	78.38
362.07	90.38
362.296	81.38
362.523	77.38
362.749	88.38
362.976	83.38
363.203	87.38
363.429	89.38
363.656	77.38
363.882	88.38
364.109	88.38
364.335	91.38
364.562	84.38
364.788	83.38
365.015	81.38
365.241	105.38
365.468	76.38
365.694	65.38
365.92	80.38
366.147	77.38
366.373	80.38
366.599	91.38
366.826	91.38
367.052	82.38
367.278	88.38
367.505	76.38
367.731	81.38
367.957	74.38
368.184	73.38
368.41	82.38
368.636	92.38
368.862	102.38
369.089	72.38
369.315	81.38
369.541	80.38
369.767	75.38
369.993	72.38
370.219	67.38
370.445	76.38
370.672	84.38
370.898	84.38
371.124	72.38
371.35	91.38
371.576	72.38
371.802	85.38
372.028	83.38
372.254	77.38
372.48	87.38
372.706	64.38
372.932	84.38
373.158	92.38
373.384	87.38
373.61	85.38
373.835	76.38
374.061	79.38
374.287	84.38
374.513	97.38
374.739	104.38
374.965	96.38
375.191	95.38
375.416	75.38
375.642	92.38
375.868	85.38
376.094	74.38
376.319	69.38
376.545	83.38
376.771	75.38
376.997	75.38
377.222	83.38
377.448	84.38
377.674	77.38
377.899	65.38
378.125	73.38
378.35	80.38
378.576	73.38
378.802	76.38
379.027	83.38
379.253	89.38
379.478	81.38
379.704	91.38
379.929	81.38
380.155	84.38
380.38	76.38
380.606	88.38
380.831	92.38
381.057	94.38
381.282	84.38
381.507	85.38
381.733	90.38
381.958	85.38
382.184	89.38
382.409	82.38
382.634	89.38
382.86	88.38
383.085	84.38
383.31	93.38
383.535	79.38
383.761	91.38
383.986	79.38
384.211	58.38
384.436	87.38
384.662	77.38
384.887	88.38
385.112	79.38
385.337	93.38
385.562	93.38
385.787	90.38
386.013	73.38
386.238	73.38
386.463	74.38
386.688	86.38
386.913	82.38
387.138	76.38
387.363	81.38
387.588	75.38
387.813	88.38
388.038	76.38
388.263	86.38
388.488	93.38
388.713	82.38
388.938	91.38
389.163	81.38
389.387	80.38
389.612	74.38
389.837	87.38
390.062	87.38
390.287	93.38
390.512	93.38
390.736	81.38
390.961	102.38
391.186	94.38
391.411	86.38
391.636	73.38
391.86	106.38
392.085	88.38
392.31	78.38
392.534	79.38
392.759	84.38
392.984	83.38
393.208	80.38
393.433	75.38
393.658	77.38
393.882	75.38
394.107	74.38
394.331	74.38
394.556	72.38
394.78	94.38
395.005	84.38
395.229	89.38
395.454	87.38
395.678	81.38
395.903	84.38
396.127	81.38
396.352	96.38
396.576	115.38
396.801	92.38
397.025	83.38
397.249	89.38
397.474	92.38
397.698	85.38
397.922	95.38
398.147	90.38
398.371	88.38
398.595	98.38
398.82	79.38
399.044	87.38
399.268	87.38
399.492	87.38
399.717	85.38
399.941	89.38
400.165	85.38
400.389	75.38
400.613	105.38
400.837	96.38
401.062	80.38
401.286	85.38
401.51	89.38
401.734	78.38
401.958	83.38
402.182	98.38
402.406	84.38
402.63	71.38
402.854	78.38
403.078	73.38
403.302	84.38
403.526	77.38
403.75	71.38
403.974	73.38
404.198	76.38
404.422	86.38
404.645	76.38
404.869	80.38
405.093	75.38
405.317	88.38
405.541	85.38
405.765	79.38
405.988	71.38
406.212	85.38
406.436	84.38
406.66	82.38
406.883	80.38
407.107	73.38
407.331	75.38
407.555	78.38
407.778	72.38
408.002	75.38
408.226	82.38
408.449	72.38
408.673	83.38
408.896	87.38
409.12	78.38
409.344	85.38
409.567	80.38
409.791	73.38
410.014	84.38
410.238	75.38
410.461	80.38
410.685	71.38
410.908	91.38
411.132	91.38
411.355	69.38
411.578	76.38
411.802	68.38
412.025	79.38
412.249	69.38
412.472	88.38
412.695	84.38
412.919	85.38
413.142	89.38
413.365	82.38
413.589	72.38
413.812	88.38
414.035	73.38
414.258	79.38
414.482	75.38
414.705	86.38
414.928	84.38
415.151	68.38
415.374	76.38
415.597	74.38
415.821	74.38
416.044	89.38
416.267	75.38
416.49	89.38
416.713	100.38
416.936	84.38
417.159	74.38
417.382	75.38
417.605	89.38
417.828	79.38
418.051	85.38
418.274	69.38
418.497	78.38
418.72	81.38
418.943	65.38
419.166	82.38
419.389	91.38
419.611	92.38
419.834	81.38
420.057	85.38
420.28	68.38
420.503	83.38
420.726	90.38
420.948	97.38
421.171	88.38
421.394	84.38
421.617	84.38
421.839	75.38
422.062	77.38
422.285	81.38
422.507	85.38
422.73	58.38
422.953	87.38
423.175	87.38
423.398	75.38
423.621	70.38
423.843	71.38
424.066	80.38
424.288	87.38
424.511	85.38
424.733	83.38
424.956	76.38
425.178	90.38
425.401	126.38
425.623	136.38
425.846	104.38
426.068	78.38
426.291	86.38
426.513	61.38
426.735	83.38
426.958	85.38
427.18	109.38
427.402	133.38
427.625	137.38
427.847	105.38
428.069	87.38
428.292	89.38
428.514	77.38
428.736	101.38
428.958	117.38
429.181	129.38
429.403	87.38
429.625	73.38
429.847	90.38
430.069	93.38
430.292	92.38
430.514	78.38
430.736	77.38
430.958	86.38
431.18	72.38
431.402	81.38
431.624	75.38
431.846	81.38
432.068	82.38
432.29	79.38
432.512	84.38
432.734	79.38
432.956	71.38
433.178	89.38
433.4	90.38
433.622	89.38
433.844	107.38
434.066	111.38
434.287	94.38
434.509	99.38
434.731	101.38
434.953	93.38
435.175	109.38
435.397	121.38
435.618	88.38
435.84	93.38
436.062	94.38
436.284	95.38
436.505	83.38
436.727	80.38
436.949	85.38
437.17	91.38
437.392	85.38
437.614	104.38
437.835	93.38
438.057	69.38
438.278	90.38
438.5	74.38
438.721	101.38
438.943	82.38
439.165	86.38
439.386	88.38
439.608	74.38
439.829	74.38
440.05	81.38
440.272	81.38
440.493	84.38
440.715	78.38
440.936	89.38
441.158	91.38
441.379	72.38
441.6	82.38
441.822	63.38
442.043	83.38
442.264	70.38
442.486	73.38
442.707	73.38
442.928	79.38
443.149	79.38
443.371	71.38
443.592	71.38
443.813	102.38
444.034	84.38
444.255	85.38
444.476	88.38
444.698	72.38
444.919	78.38
445.14	136.38
445.361	104.38
445.582	84.38
445.803	83.38
446.024	85.38
446.245	95.38
446.466	78.38
446.687	83.38
446.908	80.38
447.129	75.38
447.35	87.38
447.571	76.38
447.792	93.38
448.013	78.38
448.234	70.38
448.455	82.38
448.675	83.38
448.896	83.38
449.117	92.38
449.338	65.38
449.559	99.38
449.779	86.38
450	95.38
450.221	73.38
450.442	92.38
450.662	79.38
450.883	91.38
451.104	87.38
451.324	87.38
451.545	68.38
451.766	79.38
451.986	84.38
452.207	66.38
452.428	78.38
452.648	90.38
452.869	82.38
453.089	81.38
453.31	59.38
453.53	99.38
453.751	83.38
453.971	80.38
454.192	99.38
454.412	101.38
454.633	84.38
454.853	94.38
455.073	76.38
455.294	89.38
455.514	84.38
455.734	83.38
455.955	91.38
456.175	70.38
456.395	78.38
456.616	77.38
456.836	86.38
457.056	85.38
457.276	70.38
457.497	71.38
457.717	93.38
457.937	87.38
458.157	78.38
458.377	87.38
458.598	93.38
458.818	87.38
459.038	91.38
459.258	88.38
459.478	86.38
459.698	87.38
459.918	80.38
460.138	88.38
460.358	89.38
460.578	87.38
460.798	80.38
461.018	96.38
461.238	86.38
461.458	92.38
461.678	79.38
461.898	85.38
462.118	86.38
462.338	87.38
462.558	86.38
462.777	91.38
462.997	89.38
463.217	84.38
463.437	80.38
463.657	87.38
463.876	84.38
464.096	88.38
464.316	94.38
464.536	88.38
464.755	101.38
464.975	115.38
465.195	97.38
465.414	84.38
465.634	89.38
465.854	80.38
466.073	75.38
466.293	80.38
466.512	80.38
466.732	83.38
466.951	85.38
467.171	80.38
467.391	77.38
467.61	80.38
467.829	71.38
468.049	77.38
468.268	88.38
468.488	78.38
468.707	93.38
468.927	63.38
469.146	76.38
469.365	66.38
469.585	73.38
469.804	85.38
470.023	100.38
470.243	82.38
470.462	80.38
470.681	85.38
470.901	84.38
471.12	83.38
471.339	60.38
471.558	85.38
471.777	87.38
471.997	97.38
472.216	93.38
472.435	82.38
472.654	86.38
472.873	104.38
473.092	89.38
473.311	83.38
473.53	86.38
473.749	85.38
473.968	85.38
474.187	97.38
474.406	74.38
474.625	59.38
474.844	71.38
475.063	89.38
475.282	70.38
475.501	95.38
475.72	91.38
475.939	84.38
476.158	88.38
476.377	68.38
476.596	76.38
476.814	78.38
477.033	75.38
477.252	82.38
477.471	80.38
477.69	73.38
477.908	93.38
478.127	94.38
478.346	75.38
478.564	81.38
478.783	93.38
479.002	81.38
479.22	94.38
479.439	91.38
479.658	82.38
479.876	73.38
480.095	86.38
480.313	86.38
480.532	72.38
480.751	91.38
480.969	85.38
481.188	80.38
481.406	88.38
481.624	77.38
481.843	83.38
482.061	99.38
482.28	85.38
482.498	79.38
482.717	84.38
482.935	90.38
483.153	95.38
483.372	80.38
483.59	85.38
483.808	70.38
484.027	87.38
484.245	88.38
484.463	76.38
484.681	81.38
484.9	77.38
485.118	72.38
485.336	76.38
485.554	86.38
485.772	81.38
485.99	99.38
486.209	81.38
486.427	80.38
486.645	71.38
486.863	82.38
487.081	81.38
487.299	71.38
487.517	78.38
487.735	86.38
487.953	86.38
488.171	93.38
488.389	74.38
488.607	95.38
488.825	96.38
489.043	85.38
489.261	88.38
489.479	81.38
489.696	72.38
489.914	100.38
490.132	86.38
490.35	69.38
490.568	73.38
490.786	63.38
491.003	85.38
491.221	90.38
491.439	79.38
491.657	96.38
491.874	88.38
492.092	96.38
492.31	106.38
492.527	98.38
492.745	78.38
492.963	94.38
493.18	93.38
493.398	79.38
493.615	95.38
493.833	85.38
494.05	92.38
494.268	80.38
494.485	76.38
494.703	80.38
494.92	78.38
495.138	75.38
495.355	91.38
495.573	91.38
495.79	83.38
496.008	75.38
496.225	101.38
496.442	90.38
496.66	82.38
496.877	88.38
497.094	80.38
497.312	101.38
497.529	88.38
497.746	89.38
497.963	89.38
498.181	86.38
498.398	74.38
498.615	75.38
498.832	86.38
499.049	83.38
499.267	91.38
499.484	80.38
499.701	81.38
499.918	85.38
500.135	79.38
500.352	89.38
500.569	81.38
500.786	87.38
501.003	87.38
501.22	90.38
501.437	84.38
501.654	82.38
501.871	80.38
502.088	72.38
502.305	91.38
502.522	83.38
502.739	79.38
502.956	77.38
503.172	89.38
503.389	84.38
503.606	75.38
503.823	73.38
504.04	94.38
504.256	86.38
504.473	72.38
504.69	79.38
504.907	77.38
505.123	86.38
505.34	77.38
505.557	85.38
505.773	99.38
505.99	86.38
506.207	80.38
506.423	72.38
506.64	87.38
506.856	85.38
507.073	83.38
507.289	72.38
507.506	92.38
507.722	95.38
507.939	84.38
508.155	85.38
508.372	82.38
508.588	69.38
508.805	63.38
509.021	79.38
509.238	87.38
509.454	88.38
509.67	84.38
509.887	77.38
510.103	74.38
510.319	87.38
510.536	69.38
510.752	88.38
510.968	88.38
511.184	77.38
511.401	73.38
511.617	73.38
511.833	84.38
512.049	84.38
512.265	81.38
512.481	94.38
512.698	87.38
512.914	80.38
513.13	89.38
513.346	80.38
513.562	80.38
513.778	88.38
513.994	90.38
514.21	80.38
514.426	85.38
514.642	71.38
514.858	85.38
515.074	96.38
515.29	87.38
515.506	86.38
515.721	65.38
515.937	92.38
516.153	85.38
516.369	79.38
516.585	77.38
516.801	76.38
517.016	92.38
517.232	71.38
517.448	79.38
517.664	89.38
517.879	92.38
518.095	85.38
518.311	76.38
518.527	80.38
518.742	89.38
518.958	83.38
519.173	88.38
519.389	80.38
519.605	101.38
