Data from StA_HRD10591_065.txt Node
Date: Fri May 16 15:19:16 EDT 2025
User: Yrep
Spectrometer: HR+D1059
Trigger mode: 1
Integration Time (sec): 1.000000E-1
Scans to average: 1
Electric dark correction enabled: true
Nonlinearity correction enabled: false
Boxcar width: 0
XAxis mode: Wavelengths
Number of Pixels in Spectrum: 2048
>>>>>Begin Spectral Data<<<<<
223.165	-23.25
223.4	-23.25
223.635	-23.25
223.869	-7.25
224.104	-18.25
224.338	-15.25
224.573	-29.25
224.808	-10.25
225.042	-27.25
225.277	-20.25
225.511	-6.25
225.746	15.75
225.98	18.75
226.215	17.75
226.449	11.75
226.683	26.75
226.918	32.75
227.152	33.75
227.387	29.75
227.621	38.75
227.856	34.75
228.09	40.75
228.324	52.75
228.559	56.75
228.793	71.75
229.027	66.75
229.262	65.75
229.496	81.75
229.73	78.75
229.964	74.75
230.199	95.75
230.433	94.75
230.667	86.75
230.901	90.75
231.136	84.75
231.37	86.75
231.604	95.75
231.838	92.75
232.072	92.75
232.306	101.75
232.541	100.75
232.775	96.75
233.009	97.75
233.243	100.75
233.477	96.75
233.711	88.75
233.945	103.75
234.179	92.75
234.413	93.75
234.647	100.75
234.881	93.75
235.115	103.75
235.349	93.75
235.583	81.75
235.817	101.75
236.051	96.75
236.285	86.75
236.519	74.75
236.753	84.75
236.987	106.75
237.221	87.75
237.455	96.75
237.689	82.75
237.922	106.75
238.156	87.75
238.39	78.75
238.624	94.75
238.858	92.75
239.091	91.75
239.325	92.75
239.559	91.75
239.793	82.75
240.027	87.75
240.26	96.75
240.494	89.75
240.728	86.75
240.961	90.75
241.195	92.75
241.429	81.75
241.662	100.75
241.896	113.75
242.13	90.75
242.363	90.75
242.597	97.75
242.83	108.75
243.064	93.75
243.298	97.75
243.531	99.75
243.765	104.75
243.998	109.75
244.232	97.75
244.465	98.75
244.699	110.75
244.932	96.75
245.166	102.75
245.399	97.75
245.633	93.75
245.866	112.75
246.099	102.75
246.333	121.75
246.566	96.75
246.8	113.75
247.033	110.75
247.266	110.75
247.5	105.75
247.733	109.75
247.966	127.75
248.2	116.75
248.433	135.75
248.666	128.75
248.899	148.75
249.133	133.75
249.366	137.75
249.599	124.75
249.832	127.75
250.066	144.75
250.299	130.75
250.532	134.75
250.765	136.75
250.998	126.75
251.231	121.75
251.465	133.75
251.698	134.75
251.931	130.75
252.164	157.75
252.397	153.75
252.63	138.75
252.863	162.75
253.096	152.75
253.329	174.75
253.562	157.75
253.795	147.75
254.028	143.75
254.261	159.75
254.494	136.75
254.727	159.75
254.96	144.75
255.193	169.75
255.426	156.75
255.659	143.75
255.892	160.75
256.124	166.75
256.357	169.75
256.59	188.75
256.823	160.75
257.056	151.75
257.289	176.75
257.521	172.75
257.754	168.75
257.987	168.75
258.22	187.75
258.452	164.75
258.685	186.75
258.918	180.75
259.151	167.75
259.383	190.75
259.616	170.75
259.849	182.75
260.081	190.75
260.314	164.75
260.547	179.75
260.779	180.75
261.012	183.75
261.244	181.75
261.477	191.75
261.71	174.75
261.942	180.75
262.175	199.75
262.407	202.75
262.64	190.75
262.872	190.75
263.105	189.75
263.337	186.75
263.57	197.75
263.802	181.75
264.035	179.75
264.267	171.75
264.499	181.75
264.732	177.75
264.964	172.75
265.197	186.75
265.429	197.75
265.661	226.75
265.894	247.75
266.126	272.75
266.358	313.75
266.591	346.75
266.823	337.75
267.055	342.75
267.287	340.75
267.52	366.75
267.752	372.75
267.984	409.75
268.216	324.75
268.448	276.75
268.681	276.75
268.913	308.75
269.145	330.75
269.377	302.75
269.609	295.75
269.841	332.75
270.073	319.75
270.306	311.75
270.538	263.75
270.77	259.75
271.002	282.75
271.234	296.75
271.466	269.75
271.698	254.75
271.93	260.75
272.162	281.75
272.394	293.75
272.626	255.75
272.858	226.75
273.09	217.75
273.322	219.75
273.553	199.75
273.785	204.75
274.017	236.75
274.249	281.75
274.481	322.75
274.713	348.75
274.945	348.75
275.176	435.75
275.408	408.75
275.64	372.75
275.872	427.75
276.104	484.75
276.335	488.75
276.567	490.75
276.799	453.75
277.031	396.75
277.262	290.75
277.494	300.75
277.726	306.75
277.957	333.75
278.189	365.75
278.421	340.75
278.652	316.75
278.884	326.75
279.115	326.75
279.347	300.75
279.579	287.75
279.81	262.75
280.042	285.75
280.273	306.75
280.505	258.75
280.736	233.75
280.968	278.75
281.199	317.75
281.431	348.75
281.662	329.75
281.894	359.75
282.125	415.75
282.356	417.75
282.588	367.75
282.819	377.75
283.051	414.75
283.282	522.75
283.513	596.75
283.745	640.75
283.976	572.75
284.207	564.75
284.439	569.75
284.67	544.75
284.901	510.75
285.132	607.75
285.364	574.75
285.595	552.75
285.826	570.75
286.057	596.75
286.288	590.75
286.52	615.75
286.751	622.75
286.982	584.75
287.213	463.75
287.444	470.75
287.675	518.75
287.906	475.75
288.138	388.75
288.369	352.75
288.6	333.75
288.831	361.75
289.062	448.75
289.293	449.75
289.524	443.75
289.755	477.75
289.986	487.75
290.217	369.75
290.448	282.75
290.679	269.75
290.91	270.75
291.141	306.75
291.371	301.75
291.602	286.75
291.833	328.75
292.064	339.75
292.295	410.75
292.526	431.75
292.757	450.75
292.987	447.75
293.218	398.75
293.449	368.75
293.68	361.75
293.91	328.75
294.141	315.75
294.372	285.75
294.603	281.75
294.833	310.75
295.064	294.75
295.295	298.75
295.525	292.75
295.756	266.75
295.987	253.75
296.217	266.75
296.448	287.75
296.679	268.75
296.909	309.75
297.14	360.75
297.37	384.75
297.601	340.75
297.831	333.75
298.062	381.75
298.292	382.75
298.523	393.75
298.753	406.75
298.984	369.75
299.214	328.75
299.445	269.75
299.675	266.75
299.905	245.75
300.136	230.75
300.366	239.75
300.597	229.75
300.827	214.75
301.057	237.75
301.288	264.75
301.518	302.75
301.748	336.75
301.979	321.75
302.209	312.75
302.439	315.75
302.669	318.75
302.9	299.75
303.13	283.75
303.36	252.75
303.59	277.75
303.82	297.75
304.051	338.75
304.281	368.75
304.511	341.75
304.741	300.75
304.971	332.75
305.201	341.75
305.431	302.75
305.661	261.75
305.891	237.75
306.121	234.75
306.352	226.75
306.582	214.75
306.812	214.75
307.042	209.75
307.272	202.75
307.502	222.75
307.731	214.75
307.961	216.75
308.191	220.75
308.421	217.75
308.651	212.75
308.881	223.75
309.111	222.75
309.341	253.75
309.571	264.75
309.8	258.75
310.03	226.75
310.26	225.75
310.49	226.75
310.72	242.75
310.949	267.75
311.179	268.75
311.409	297.75
311.639	401.75
311.868	533.75
312.098	601.75
312.328	633.75
312.557	598.75
312.787	580.75
313.017	553.75
313.246	609.75
313.476	565.75
313.706	439.75
313.935	361.75
314.165	305.75
314.394	287.75
314.624	308.75
314.853	324.75
315.083	299.75
315.312	260.75
315.542	240.75
315.771	228.75
316.001	219.75
316.23	209.75
316.46	222.75
316.689	214.75
316.919	212.75
317.148	211.75
317.377	244.75
317.607	260.75
317.836	277.75
318.065	322.75
318.295	337.75
318.524	283.75
318.753	241.75
318.983	228.75
319.212	222.75
319.441	260.75
319.67	297.75
319.9	308.75
320.129	270.75
320.358	252.75
320.587	264.75
320.816	275.75
321.046	306.75
321.275	294.75
321.504	271.75
321.733	285.75
321.962	273.75
322.191	234.75
322.42	215.75
322.649	218.75
322.878	217.75
323.108	233.75
323.337	248.75
323.566	263.75
323.795	228.75
324.024	235.75
324.253	216.75
324.482	194.75
324.71	178.75
324.939	221.75
325.168	224.75
325.397	230.75
325.626	208.75
325.855	209.75
326.084	221.75
326.313	208.75
326.542	217.75
326.77	232.75
326.999	249.75
327.228	218.75
327.457	198.75
327.686	199.75
327.914	178.75
328.143	187.75
328.372	192.75
328.6	212.75
328.829	210.75
329.058	223.75
329.287	240.75
329.515	244.75
329.744	225.75
329.972	223.75
330.201	217.75
330.43	232.75
330.658	257.75
330.887	284.75
331.115	288.75
331.344	286.75
331.572	245.75
331.801	240.75
332.03	229.75
332.258	244.75
332.486	261.75
332.715	271.75
332.943	249.75
333.172	260.75
333.4	280.75
333.629	311.75
333.857	334.75
334.085	326.75
334.314	307.75
334.542	301.75
334.771	273.75
334.999	273.75
335.227	277.75
335.455	299.75
335.684	349.75
335.912	385.75
336.14	420.75
336.369	380.75
336.597	395.75
336.825	434.75
337.053	406.75
337.281	289.75
337.51	290.75
337.738	293.75
337.966	333.75
338.194	327.75
338.422	277.75
338.65	240.75
338.878	241.75
339.106	257.75
339.334	278.75
339.562	284.75
339.79	264.75
340.018	264.75
340.246	323.75
340.474	330.75
340.702	345.75
340.93	346.75
341.158	307.75
341.386	248.75
341.614	246.75
341.842	257.75
342.07	319.75
342.298	386.75
342.526	328.75
342.754	245.75
342.981	248.75
343.209	262.75
343.437	302.75
343.665	266.75
343.893	238.75
344.12	228.75
344.348	228.75
344.576	217.75
344.804	216.75
345.031	210.75
345.259	210.75
345.487	213.75
345.714	215.75
345.942	201.75
346.17	195.75
346.397	193.75
346.625	200.75
346.853	192.75
347.08	206.75
347.308	194.75
347.535	174.75
347.763	195.75
347.99	195.75
348.218	183.75
348.445	202.75
348.673	193.75
348.9	173.75
349.128	189.75
349.355	185.75
349.583	189.75
349.81	174.75
350.037	179.75
350.265	189.75
350.492	184.75
350.72	186.75
350.947	185.75
351.174	189.75
351.402	190.75
351.629	180.75
351.856	173.75
352.083	183.75
352.311	169.75
352.538	192.75
352.765	191.75
352.992	192.75
353.22	191.75
353.447	172.75
353.674	199.75
353.901	192.75
354.128	180.75
354.355	189.75
354.583	180.75
354.81	194.75
355.037	196.75
355.264	226.75
355.491	208.75
355.718	182.75
355.945	211.75
356.172	213.75
356.399	214.75
356.626	201.75
356.853	222.75
357.08	218.75
357.307	245.75
357.534	283.75
357.761	324.75
357.988	350.75
358.215	302.75
358.441	289.75
358.668	263.75
358.895	257.75
359.122	274.75
359.349	325.75
359.576	330.75
359.802	245.75
360.029	240.75
360.256	278.75
360.483	319.75
360.709	309.75
360.936	257.75
361.163	222.75
361.39	208.75
361.616	193.75
361.843	200.75
362.07	184.75
362.296	186.75
362.523	196.75
362.749	193.75
362.976	201.75
363.203	224.75
363.429	212.75
363.656	228.75
363.882	218.75
364.109	244.75
364.335	221.75
364.562	184.75
364.788	190.75
365.015	229.75
365.241	236.75
365.468	208.75
365.694	214.75
365.92	215.75
366.147	206.75
366.373	194.75
366.599	192.75
366.826	205.75
367.052	190.75
367.278	217.75
367.505	204.75
367.731	230.75
367.957	222.75
368.184	197.75
368.41	195.75
368.636	232.75
368.862	208.75
369.089	205.75
369.315	201.75
369.541	203.75
369.767	197.75
369.993	188.75
370.219	148.75
370.445	165.75
370.672	190.75
370.898	192.75
371.124	206.75
371.35	214.75
371.576	190.75
371.802	191.75
372.028	188.75
372.254	180.75
372.48	191.75
372.706	209.75
372.932	212.75
373.158	189.75
373.384	191.75
373.61	193.75
373.835	210.75
374.061	194.75
374.287	218.75
374.513	234.75
374.739	237.75
374.965	222.75
375.191	200.75
375.416	207.75
375.642	191.75
375.868	210.75
376.094	204.75
376.319	186.75
376.545	187.75
376.771	188.75
376.997	188.75
377.222	193.75
377.448	190.75
377.674	192.75
377.899	170.75
378.125	191.75
378.35	180.75
378.576	183.75
378.802	177.75
379.027	202.75
379.253	203.75
379.478	223.75
379.704	209.75
379.929	216.75
380.155	199.75
380.38	208.75
380.606	214.75
380.831	212.75
381.057	198.75
381.282	199.75
381.507	210.75
381.733	226.75
381.958	197.75
382.184	209.75
382.409	203.75
382.634	211.75
382.86	195.75
383.085	208.75
383.31	210.75
383.535	218.75
383.761	226.75
383.986	207.75
384.211	235.75
384.436	222.75
384.662	210.75
384.887	235.75
385.112	262.75
385.337	241.75
385.562	252.75
385.787	236.75
386.013	249.75
386.238	236.75
386.463	247.75
386.688	244.75
386.913	205.75
387.138	220.75
387.363	217.75
387.588	221.75
387.813	223.75
388.038	215.75
388.263	226.75
388.488	224.75
388.713	223.75
388.938	207.75
389.163	205.75
389.387	222.75
389.612	213.75
389.837	213.75
390.062	213.75
390.287	227.75
390.512	224.75
390.736	224.75
390.961	219.75
391.186	217.75
391.411	222.75
391.636	232.75
391.86	260.75
392.085	240.75
392.31	224.75
392.534	221.75
392.759	207.75
392.984	210.75
393.208	194.75
393.433	224.75
393.658	225.75
393.882	207.75
394.107	196.75
394.331	233.75
394.556	215.75
394.78	226.75
395.005	194.75
395.229	211.75
395.454	221.75
395.678	216.75
395.903	205.75
396.127	229.75
396.352	256.75
396.576	262.75
396.801	254.75
397.025	264.75
397.249	269.75
397.474	242.75
397.698	261.75
397.922	254.75
398.147	254.75
398.371	264.75
398.595	254.75
398.82	246.75
399.044	261.75
399.268	282.75
399.492	285.75
399.717	250.75
399.941	252.75
400.165	256.75
400.389	248.75
400.613	235.75
400.837	233.75
401.062	250.75
401.286	232.75
401.51	220.75
401.734	224.75
401.958	208.75
402.182	215.75
402.406	233.75
402.63	223.75
402.854	239.75
403.078	231.75
403.302	225.75
403.526	230.75
403.75	257.75
403.974	240.75
404.198	235.75
404.422	234.75
404.645	223.75
404.869	223.75
405.093	234.75
405.317	228.75
405.541	223.75
405.765	236.75
405.988	236.75
406.212	231.75
406.436	218.75
406.66	253.75
406.883	232.75
407.107	250.75
407.331	237.75
407.555	238.75
407.778	237.75
408.002	233.75
408.226	224.75
408.449	223.75
408.673	228.75
408.896	218.75
409.12	232.75
409.344	232.75
409.567	229.75
409.791	218.75
410.014	208.75
410.238	232.75
410.461	221.75
410.685	234.75
410.908	218.75
411.132	245.75
411.355	241.75
411.578	238.75
411.802	221.75
412.025	229.75
412.249	229.75
412.472	237.75
412.695	238.75
412.919	236.75
413.142	253.75
413.365	245.75
413.589	230.75
413.812	234.75
414.035	216.75
414.258	224.75
414.482	231.75
414.705	226.75
414.928	222.75
415.151	208.75
415.374	228.75
415.597	218.75
415.821	208.75
416.044	217.75
416.267	219.75
416.49	225.75
416.713	225.75
416.936	210.75
417.159	223.75
417.382	217.75
417.605	222.75
417.828	230.75
418.051	232.75
418.274	221.75
418.497	219.75
418.72	212.75
418.943	226.75
419.166	228.75
419.389	240.75
419.611	234.75
419.834	232.75
420.057	217.75
420.28	224.75
420.503	223.75
420.726	223.75
420.948	217.75
421.171	231.75
421.394	239.75
421.617	204.75
421.839	215.75
422.062	218.75
422.285	219.75
422.507	223.75
422.73	215.75
422.953	235.75
423.175	231.75
423.398	233.75
423.621	224.75
423.843	242.75
424.066	234.75
424.288	215.75
424.511	221.75
424.733	217.75
424.956	239.75
425.178	262.75
425.401	337.75
425.623	394.75
425.846	279.75
426.068	251.75
426.291	253.75
426.513	241.75
426.735	255.75
426.958	252.75
427.18	273.75
427.402	335.75
427.625	377.75
427.847	289.75
428.069	238.75
428.292	250.75
428.514	233.75
428.736	260.75
428.958	312.75
429.181	333.75
429.403	246.75
429.625	235.75
429.847	243.75
430.069	222.75
430.292	218.75
430.514	213.75
430.736	213.75
430.958	209.75
431.18	224.75
431.402	204.75
431.624	205.75
431.846	199.75
432.068	203.75
432.29	190.75
432.512	215.75
432.734	232.75
432.956	218.75
433.178	216.75
433.4	206.75
433.622	235.75
433.844	264.75
434.066	282.75
434.287	253.75
434.509	266.75
434.731	258.75
434.953	263.75
435.175	268.75
435.397	281.75
435.618	225.75
435.84	212.75
436.062	230.75
436.284	226.75
436.505	210.75
436.727	218.75
436.949	224.75
437.17	233.75
437.392	240.75
437.614	234.75
437.835	201.75
438.057	209.75
438.278	202.75
438.5	226.75
438.721	217.75
438.943	214.75
439.165	218.75
439.386	209.75
439.608	218.75
439.829	185.75
440.05	214.75
440.272	203.75
440.493	186.75
440.715	216.75
440.936	216.75
441.158	201.75
441.379	212.75
441.6	228.75
441.822	210.75
442.043	214.75
442.264	225.75
442.486	234.75
442.707	240.75
442.928	231.75
443.149	221.75
443.371	233.75
443.592	221.75
443.813	217.75
444.034	218.75
444.255	214.75
444.476	217.75
444.698	232.75
444.919	228.75
445.14	307.75
445.361	266.75
445.582	225.75
445.803	224.75
446.024	213.75
446.245	226.75
446.466	219.75
446.687	209.75
446.908	214.75
447.129	207.75
447.35	211.75
447.571	203.75
447.792	210.75
448.013	198.75
448.234	212.75
448.455	213.75
448.675	230.75
448.896	238.75
449.117	210.75
449.338	204.75
449.559	207.75
449.779	214.75
450	248.75
450.221	223.75
450.442	208.75
450.662	215.75
450.883	204.75
451.104	199.75
451.324	224.75
451.545	225.75
451.766	189.75
451.986	206.75
452.207	210.75
452.428	213.75
452.648	236.75
452.869	230.75
453.089	212.75
453.31	213.75
453.53	197.75
453.751	218.75
453.971	210.75
454.192	239.75
454.412	236.75
454.633	225.75
454.853	221.75
455.073	193.75
455.294	212.75
455.514	200.75
455.734	237.75
455.955	244.75
456.175	226.75
456.395	205.75
456.616	213.75
456.836	202.75
457.056	204.75
457.276	217.75
457.497	199.75
457.717	189.75
457.937	210.75
458.157	210.75
458.377	192.75
458.598	200.75
458.818	221.75
459.038	246.75
459.258	245.75
459.478	224.75
459.698	233.75
459.918	230.75
460.138	247.75
460.358	244.75
460.578	210.75
460.798	209.75
461.018	226.75
461.238	243.75
461.458	249.75
461.678	284.75
461.898	258.75
462.118	254.75
462.338	251.75
462.558	260.75
462.777	248.75
462.997	248.75
463.217	256.75
463.437	253.75
463.657	251.75
463.876	244.75
464.096	260.75
464.316	244.75
464.536	265.75
464.755	296.75
464.975	269.75
465.195	270.75
465.414	269.75
465.634	234.75
465.854	216.75
466.073	213.75
466.293	210.75
466.512	220.75
466.732	244.75
466.951	223.75
467.171	217.75
467.391	207.75
467.61	189.75
467.829	205.75
468.049	205.75
468.268	213.75
468.488	188.75
468.707	202.75
468.927	207.75
469.146	200.75
469.365	216.75
469.585	217.75
469.804	238.75
470.023	228.75
470.243	236.75
470.462	213.75
470.681	211.75
470.901	215.75
471.12	213.75
471.339	202.75
471.558	209.75
471.777	233.75
471.997	238.75
472.216	217.75
472.435	222.75
472.654	205.75
472.873	215.75
473.092	230.75
473.311	226.75
473.53	213.75
473.749	210.75
473.968	218.75
474.187	218.75
474.406	201.75
474.625	208.75
474.844	217.75
475.063	209.75
475.282	216.75
475.501	214.75
475.72	240.75
475.939	261.75
476.158	202.75
476.377	219.75
476.596	231.75
476.814	225.75
477.033	198.75
477.252	200.75
477.471	199.75
477.69	206.75
477.908	209.75
478.127	210.75
478.346	223.75
478.564	236.75
478.783	247.75
479.002	250.75
479.22	251.75
479.439	264.75
479.658	219.75
479.876	247.75
480.095	237.75
480.313	234.75
480.532	226.75
480.751	232.75
480.969	229.75
481.188	220.75
481.406	242.75
481.624	242.75
481.843	234.75
482.061	221.75
482.28	228.75
482.498	244.75
482.717	253.75
482.935	232.75
483.153	245.75
483.372	225.75
483.59	232.75
483.808	229.75
484.027	235.75
484.245	223.75
484.463	232.75
484.681	240.75
484.9	259.75
485.118	226.75
485.336	235.75
485.554	217.75
485.772	224.75
485.99	234.75
486.209	240.75
486.427	255.75
486.645	249.75
486.863	238.75
487.081	253.75
487.299	261.75
487.517	242.75
487.735	260.75
487.953	235.75
488.171	236.75
488.389	253.75
488.607	253.75
488.825	279.75
489.043	249.75
489.261	230.75
489.479	242.75
489.696	245.75
489.914	221.75
490.132	236.75
490.35	245.75
490.568	242.75
490.786	228.75
491.003	235.75
491.221	244.75
491.439	232.75
491.657	223.75
491.874	248.75
492.092	276.75
492.31	301.75
492.527	312.75
492.745	252.75
492.963	266.75
493.18	244.75
493.398	233.75
493.615	264.75
493.833	280.75
494.05	269.75
494.268	241.75
494.485	252.75
494.703	238.75
494.92	241.75
495.138	244.75
495.355	263.75
495.573	273.75
495.79	257.75
496.008	264.75
496.225	252.75
496.442	258.75
496.66	269.75
496.877	282.75
497.094	273.75
497.312	273.75
497.529	272.75
497.746	269.75
497.963	291.75
498.181	274.75
498.398	279.75
498.615	283.75
498.832	306.75
499.049	294.75
499.267	314.75
499.484	334.75
499.701	336.75
499.918	345.75
500.135	381.75
500.352	376.75
500.569	383.75
500.786	388.75
501.003	363.75
501.22	361.75
501.437	345.75
501.654	350.75
501.871	294.75
502.088	290.75
502.305	288.75
502.522	279.75
502.739	273.75
502.956	294.75
503.172	278.75
503.389	264.75
503.606	265.75
