Data from StA_HRD10591_019.txt Node
Date: Fri May 16 15:18:54 EDT 2025
User: Yrep
Spectrometer: HR+D1059
Trigger mode: 1
Integration Time (sec): 1.000000E-1
Scans to average: 1
Electric dark correction enabled: true
Nonlinearity correction enabled: false
Boxcar width: 0
XAxis mode: Wavelengths
Number of Pixels in Spectrum: 2048
>>>>>Begin Spectral Data<<<<<
223.165	-10.31
223.4	-10.31
223.635	-10.31
223.869	-13.31
224.104	-14.31
224.338	-22.31
224.573	-8.31
224.808	-13.31
225.042	-2.31
225.277	-21.31
225.511	-8.31
225.746	1.69
225.98	7.69
226.215	10.69
226.449	16.69
226.683	25.69
226.918	26.69
227.152	24.69
227.387	29.69
227.621	19.69
227.856	43.69
228.09	37.69
228.324	45.69
228.559	57.69
228.793	69.69
229.027	83.69
229.262	70.69
229.496	70.69
229.73	61.69
229.964	76.69
230.199	90.69
230.433	80.69
230.667	85.69
230.901	85.69
231.136	90.69
231.37	84.69
231.604	82.69
231.838	81.69
232.072	103.69
232.306	101.69
232.541	101.69
232.775	98.69
233.009	78.69
233.243	88.69
233.477	86.69
233.711	82.69
233.945	84.69
234.179	93.69
234.413	73.69
234.647	95.69
234.881	87.69
235.115	83.69
235.349	66.69
235.583	85.69
235.817	82.69
236.051	93.69
236.285	87.69
236.519	85.69
236.753	86.69
236.987	92.69
237.221	89.69
237.455	99.69
237.689	87.69
237.922	98.69
238.156	86.69
238.39	78.69
238.624	93.69
238.858	81.69
239.091	99.69
239.325	84.69
239.559	89.69
239.793	89.69
240.027	98.69
240.26	89.69
240.494	93.69
240.728	78.69
240.961	88.69
241.195	90.69
241.429	94.69
241.662	82.69
241.896	83.69
242.13	86.69
242.363	81.69
242.597	79.69
242.83	97.69
243.064	99.69
243.298	95.69
243.531	86.69
243.765	84.69
243.998	99.69
244.232	94.69
244.465	89.69
244.699	105.69
244.932	93.69
245.166	108.69
245.399	107.69
245.633	106.69
245.866	89.69
246.099	93.69
246.333	110.69
246.566	107.69
246.8	108.69
247.033	107.69
247.266	108.69
247.5	113.69
247.733	117.69
247.966	103.69
248.2	108.69
248.433	121.69
248.666	112.69
248.899	114.69
249.133	127.69
249.366	137.69
249.599	120.69
249.832	125.69
250.066	119.69
250.299	114.69
250.532	120.69
250.765	129.69
250.998	124.69
251.231	111.69
251.465	113.69
251.698	126.69
251.931	133.69
252.164	138.69
252.397	134.69
252.63	148.69
252.863	138.69
253.096	151.69
253.329	145.69
253.562	141.69
253.795	144.69
254.028	145.69
254.261	151.69
254.494	137.69
254.727	135.69
254.96	139.69
255.193	151.69
255.426	150.69
255.659	141.69
255.892	137.69
256.124	149.69
256.357	164.69
256.59	166.69
256.823	166.69
257.056	158.69
257.289	161.69
257.521	163.69
257.754	173.69
257.987	142.69
258.22	149.69
258.452	155.69
258.685	167.69
258.918	163.69
259.151	148.69
259.383	157.69
259.616	161.69
259.849	162.69
260.081	190.69
260.314	159.69
260.547	163.69
260.779	157.69
261.012	164.69
261.244	161.69
261.477	194.69
261.71	167.69
261.942	180.69
262.175	191.69
262.407	198.69
262.64	187.69
262.872	171.69
263.105	185.69
263.337	167.69
263.57	165.69
263.802	173.69
264.035	168.69
264.267	161.69
264.499	152.69
264.732	153.69
264.964	159.69
265.197	180.69
265.429	178.69
265.661	201.69
265.894	215.69
266.126	243.69
266.358	283.69
266.591	294.69
266.823	298.69
267.055	291.69
267.287	306.69
267.52	308.69
267.752	349.69
267.984	364.69
268.216	292.69
268.448	224.69
268.681	235.69
268.913	285.69
269.145	262.69
269.377	266.69
269.609	267.69
269.841	289.69
270.073	299.69
270.306	265.69
270.538	243.69
270.77	219.69
271.002	253.69
271.234	249.69
271.466	243.69
271.698	208.69
271.93	239.69
272.162	253.69
272.394	248.69
272.626	249.69
272.858	231.69
273.09	208.69
273.322	189.69
273.553	181.69
273.785	190.69
274.017	221.69
274.249	251.69
274.481	306.69
274.713	289.69
274.945	327.69
275.176	347.69
275.408	334.69
275.64	334.69
275.872	361.69
276.104	406.69
276.335	406.69
276.567	389.69
276.799	384.69
277.031	329.69
277.262	265.69
277.494	241.69
277.726	273.69
277.957	297.69
278.189	305.69
278.421	275.69
278.652	303.69
278.884	281.69
279.115	273.69
279.347	250.69
279.579	241.69
279.81	244.69
280.042	271.69
280.273	283.69
280.505	258.69
280.736	238.69
280.968	245.69
281.199	285.69
281.431	319.69
281.662	291.69
281.894	292.69
282.125	355.69
282.356	359.69
282.588	344.69
282.819	333.69
283.051	392.69
283.282	439.69
283.513	514.69
283.745	557.69
283.976	498.69
284.207	481.69
284.439	481.69
284.67	458.69
284.901	433.69
285.132	495.69
285.364	478.69
285.595	502.69
285.826	498.69
286.057	508.69
286.288	504.69
286.52	522.69
286.751	561.69
286.982	491.69
287.213	441.69
287.444	431.69
287.675	437.69
287.906	427.69
288.138	329.69
288.369	312.69
288.6	290.69
288.831	327.69
289.062	380.69
289.293	398.69
289.524	385.69
289.755	413.69
289.986	404.69
290.217	332.69
290.448	268.69
290.679	262.69
290.91	258.69
291.141	261.69
291.371	268.69
291.602	255.69
291.833	281.69
292.064	295.69
292.295	355.69
292.526	375.69
292.757	384.69
292.987	392.69
293.218	350.69
293.449	345.69
293.68	344.69
293.91	285.69
294.141	262.69
294.372	261.69
294.603	259.69
294.833	273.69
295.064	278.69
295.295	267.69
295.525	258.69
295.756	250.69
295.987	234.69
296.217	239.69
296.448	227.69
296.679	247.69
296.909	261.69
297.14	309.69
297.37	331.69
297.601	308.69
297.831	302.69
298.062	320.69
298.292	326.69
298.523	339.69
298.753	360.69
298.984	330.69
299.214	302.69
299.445	259.69
299.675	227.69
299.905	217.69
300.136	234.69
300.366	226.69
300.597	211.69
300.827	215.69
301.057	219.69
301.288	262.69
301.518	266.69
301.748	298.69
301.979	303.69
302.209	277.69
302.439	272.69
302.669	275.69
302.9	309.69
303.13	269.69
303.36	266.69
303.59	251.69
303.82	261.69
304.051	305.69
304.281	334.69
304.511	293.69
304.741	277.69
304.971	295.69
305.201	300.69
305.431	270.69
305.661	228.69
305.891	220.69
306.121	216.69
306.352	205.69
306.582	215.69
306.812	184.69
307.042	187.69
307.272	195.69
307.502	209.69
307.731	212.69
307.961	210.69
308.191	196.69
308.421	215.69
308.651	212.69
308.881	210.69
309.111	210.69
309.341	215.69
309.571	233.69
309.8	226.69
310.03	207.69
310.26	192.69
310.49	226.69
310.72	230.69
310.949	236.69
311.179	252.69
311.409	279.69
311.639	358.69
311.868	451.69
312.098	537.69
312.328	545.69
312.557	531.69
312.787	495.69
313.017	479.69
313.246	523.69
313.476	465.69
313.706	376.69
313.935	317.69
314.165	267.69
314.394	261.69
314.624	263.69
314.853	278.69
315.083	262.69
315.312	267.69
315.542	211.69
315.771	204.69
316.001	202.69
316.23	204.69
316.46	209.69
316.689	203.69
316.919	201.69
317.148	224.69
317.377	209.69
317.607	211.69
317.836	231.69
318.065	261.69
318.295	313.69
318.524	255.69
318.753	232.69
318.983	202.69
319.212	214.69
319.441	214.69
319.67	269.69
319.9	294.69
320.129	249.69
320.358	229.69
320.587	248.69
320.816	233.69
321.046	278.69
321.275	267.69
321.504	255.69
321.733	253.69
321.962	247.69
322.191	225.69
322.42	196.69
322.649	206.69
322.878	182.69
323.108	228.69
323.337	228.69
323.566	238.69
323.795	231.69
324.024	231.69
324.253	191.69
324.482	206.69
324.71	176.69
324.939	199.69
325.168	190.69
325.397	199.69
325.626	201.69
325.855	206.69
326.084	192.69
326.313	198.69
326.542	194.69
326.77	228.69
326.999	221.69
327.228	212.69
327.457	202.69
327.686	190.69
327.914	188.69
328.143	186.69
328.372	196.69
328.6	203.69
328.829	204.69
329.058	208.69
329.287	206.69
329.515	208.69
329.744	209.69
329.972	205.69
330.201	199.69
330.43	220.69
330.658	213.69
330.887	262.69
331.115	265.69
331.344	246.69
331.572	247.69
331.801	216.69
332.03	223.69
332.258	245.69
332.486	246.69
332.715	254.69
332.943	232.69
333.172	228.69
333.4	256.69
333.629	293.69
333.857	300.69
334.085	311.69
334.314	307.69
334.542	282.69
334.771	277.69
334.999	260.69
335.227	255.69
335.455	279.69
335.684	300.69
335.912	353.69
336.14	365.69
336.369	328.69
336.597	349.69
336.825	385.69
337.053	349.69
337.281	275.69
337.51	249.69
337.738	261.69
337.966	269.69
338.194	263.69
338.422	258.69
338.65	229.69
338.878	212.69
339.106	259.69
339.334	248.69
339.562	253.69
339.79	234.69
340.018	243.69
340.246	278.69
340.474	293.69
340.702	296.69
340.93	319.69
341.158	283.69
341.386	224.69
341.614	238.69
341.842	249.69
342.07	305.69
342.298	347.69
342.526	283.69
342.754	236.69
342.981	222.69
343.209	258.69
343.437	281.69
343.665	234.69
343.893	212.69
344.12	208.69
344.348	214.69
344.576	199.69
344.804	205.69
345.031	200.69
345.259	200.69
345.487	220.69
345.714	214.69
345.942	196.69
346.17	185.69
346.397	187.69
346.625	197.69
346.853	202.69
347.08	199.69
347.308	201.69
347.535	197.69
347.763	181.69
347.99	182.69
348.218	196.69
348.445	181.69
348.673	199.69
348.9	195.69
349.128	189.69
349.355	201.69
349.583	186.69
349.81	181.69
350.037	183.69
350.265	183.69
350.492	183.69
350.72	195.69
350.947	169.69
351.174	192.69
351.402	213.69
351.629	165.69
351.856	172.69
352.083	185.69
352.311	183.69
352.538	186.69
352.765	191.69
352.992	192.69
353.22	166.69
353.447	174.69
353.674	183.69
353.901	188.69
354.128	181.69
354.355	172.69
354.583	179.69
354.81	183.69
355.037	183.69
355.264	194.69
355.491	201.69
355.718	206.69
355.945	195.69
356.172	202.69
356.399	197.69
356.626	204.69
356.853	197.69
357.08	211.69
357.307	229.69
357.534	271.69
357.761	301.69
357.988	348.69
358.215	283.69
358.441	244.69
358.668	237.69
358.895	221.69
359.122	246.69
359.349	280.69
359.576	277.69
359.802	216.69
360.029	209.69
360.256	247.69
360.483	273.69
360.709	275.69
360.936	210.69
361.163	217.69
361.39	183.69
361.616	182.69
361.843	189.69
362.07	179.69
362.296	181.69
362.523	181.69
362.749	169.69
362.976	192.69
363.203	219.69
363.429	214.69
363.656	225.69
363.882	220.69
364.109	219.69
364.335	231.69
364.562	206.69
364.788	194.69
365.015	218.69
365.241	192.69
365.468	188.69
365.694	197.69
365.92	195.69
366.147	190.69
366.373	188.69
366.599	198.69
366.826	179.69
367.052	185.69
367.278	184.69
367.505	219.69
367.731	189.69
367.957	208.69
368.184	218.69
368.41	204.69
368.636	196.69
368.862	201.69
369.089	181.69
369.315	182.69
369.541	193.69
369.767	178.69
369.993	177.69
370.219	195.69
370.445	176.69
370.672	168.69
370.898	189.69
371.124	197.69
371.35	196.69
371.576	213.69
371.802	182.69
372.028	181.69
372.254	165.69
372.48	183.69
372.706	190.69
372.932	188.69
373.158	199.69
373.384	178.69
373.61	177.69
373.835	183.69
374.061	194.69
374.287	212.69
374.513	219.69
374.739	231.69
374.965	205.69
375.191	205.69
375.416	221.69
375.642	195.69
375.868	210.69
376.094	181.69
376.319	188.69
376.545	197.69
376.771	205.69
376.997	185.69
377.222	201.69
377.448	168.69
377.674	170.69
377.899	189.69
378.125	193.69
378.35	181.69
378.576	173.69
378.802	184.69
379.027	197.69
379.253	192.69
379.478	197.69
379.704	192.69
379.929	188.69
380.155	199.69
380.38	192.69
380.606	202.69
380.831	220.69
381.057	202.69
381.282	196.69
381.507	193.69
381.733	205.69
381.958	213.69
382.184	217.69
382.409	207.69
382.634	203.69
382.86	202.69
383.085	218.69
383.31	207.69
383.535	203.69
383.761	188.69
383.986	211.69
384.211	221.69
384.436	209.69
384.662	212.69
384.887	229.69
385.112	233.69
385.337	222.69
385.562	215.69
385.787	216.69
386.013	222.69
386.238	223.69
386.463	227.69
386.688	234.69
386.913	215.69
387.138	205.69
387.363	226.69
387.588	225.69
387.813	214.69
388.038	240.69
388.263	222.69
388.488	225.69
388.713	215.69
388.938	198.69
389.163	202.69
389.387	213.69
389.612	201.69
389.837	215.69
390.062	204.69
390.287	221.69
390.512	217.69
390.736	210.69
390.961	233.69
391.186	213.69
391.411	212.69
391.636	240.69
391.86	243.69
392.085	227.69
392.31	219.69
392.534	213.69
392.759	211.69
392.984	230.69
393.208	204.69
393.433	207.69
393.658	192.69
393.882	194.69
394.107	207.69
394.331	207.69
394.556	208.69
394.78	213.69
395.005	205.69
395.229	205.69
395.454	217.69
395.678	214.69
395.903	201.69
396.127	223.69
396.352	230.69
396.576	248.69
396.801	241.69
397.025	270.69
397.249	252.69
397.474	235.69
397.698	261.69
397.922	265.69
398.147	249.69
398.371	252.69
398.595	247.69
398.82	230.69
399.044	260.69
399.268	265.69
399.492	269.69
399.717	254.69
399.941	266.69
400.165	235.69
400.389	246.69
400.613	211.69
400.837	223.69
401.062	212.69
401.286	215.69
401.51	236.69
401.734	220.69
401.958	220.69
402.182	223.69
402.406	226.69
402.63	221.69
402.854	238.69
403.078	218.69
403.302	213.69
403.526	249.69
403.75	239.69
403.974	245.69
404.198	232.69
404.422	233.69
404.645	212.69
404.869	237.69
405.093	233.69
405.317	234.69
405.541	226.69
405.765	233.69
405.988	236.69
406.212	248.69
406.436	224.69
406.66	227.69
406.883	243.69
407.107	238.69
407.331	245.69
407.555	254.69
407.778	244.69
408.002	234.69
408.226	233.69
408.449	251.69
408.673	216.69
408.896	229.69
409.12	225.69
409.344	217.69
409.567	221.69
409.791	215.69
410.014	237.69
410.238	230.69
410.461	226.69
410.685	231.69
410.908	238.69
411.132	236.69
411.355	236.69
411.578	217.69
411.802	234.69
412.025	237.69
412.249	250.69
412.472	229.69
412.695	239.69
412.919	237.69
413.142	237.69
413.365	220.69
413.589	216.69
413.812	217.69
414.035	218.69
414.258	213.69
414.482	227.69
414.705	224.69
414.928	227.69
415.151	225.69
415.374	231.69
415.597	214.69
415.821	194.69
416.044	239.69
416.267	232.69
416.49	216.69
416.713	226.69
416.936	217.69
417.159	222.69
417.382	222.69
417.605	230.69
417.828	221.69
418.051	237.69
418.274	229.69
418.497	211.69
418.72	203.69
418.943	213.69
419.166	222.69
419.389	229.69
419.611	228.69
419.834	241.69
420.057	239.69
420.28	203.69
420.503	225.69
420.726	214.69
420.948	216.69
421.171	198.69
421.394	231.69
421.617	218.69
421.839	217.69
422.062	223.69
422.285	235.69
422.507	238.69
422.73	231.69
422.953	233.69
423.175	215.69
423.398	214.69
423.621	218.69
423.843	206.69
424.066	216.69
424.288	225.69
424.511	214.69
424.733	209.69
424.956	235.69
425.178	271.69
425.401	322.69
425.623	364.69
425.846	243.69
426.068	241.69
426.291	243.69
426.513	239.69
426.735	212.69
426.958	237.69
427.18	244.69
427.402	311.69
427.625	357.69
427.847	291.69
428.069	249.69
428.292	233.69
428.514	220.69
428.736	238.69
428.958	289.69
429.181	310.69
429.403	231.69
429.625	223.69
429.847	225.69
430.069	230.69
430.292	229.69
430.514	211.69
430.736	207.69
430.958	197.69
431.18	201.69
431.402	201.69
431.624	203.69
431.846	217.69
432.068	217.69
432.29	205.69
432.512	206.69
432.734	226.69
432.956	211.69
433.178	207.69
433.4	217.69
433.622	232.69
433.844	254.69
434.066	263.69
434.287	245.69
434.509	249.69
434.731	249.69
434.953	222.69
435.175	262.69
435.397	274.69
435.618	229.69
435.84	233.69
436.062	241.69
436.284	218.69
436.505	203.69
436.727	214.69
436.949	213.69
437.17	206.69
437.392	237.69
437.614	225.69
437.835	216.69
438.057	203.69
438.278	199.69
438.5	199.69
438.721	204.69
438.943	200.69
439.165	186.69
439.386	195.69
439.608	227.69
439.829	201.69
440.05	204.69
440.272	194.69
440.493	191.69
440.715	212.69
440.936	201.69
441.158	213.69
441.379	195.69
441.6	212.69
441.822	222.69
442.043	202.69
442.264	223.69
442.486	230.69
442.707	219.69
442.928	211.69
443.149	226.69
443.371	215.69
443.592	214.69
443.813	216.69
444.034	197.69
444.255	222.69
444.476	221.69
444.698	222.69
444.919	208.69
445.14	283.69
445.361	263.69
445.582	228.69
445.803	221.69
446.024	229.69
446.245	237.69
446.466	202.69
446.687	195.69
446.908	219.69
447.129	203.69
447.35	213.69
447.571	215.69
447.792	197.69
448.013	221.69
448.234	200.69
448.455	211.69
448.675	198.69
448.896	205.69
449.117	227.69
449.338	202.69
449.559	201.69
449.779	217.69
450	236.69
450.221	200.69
450.442	218.69
450.662	171.69
450.883	212.69
451.104	214.69
451.324	204.69
451.545	222.69
451.766	220.69
451.986	214.69
452.207	213.69
452.428	201.69
452.648	231.69
452.869	207.69
453.089	204.69
453.31	210.69
453.53	191.69
453.751	208.69
453.971	222.69
454.192	230.69
454.412	229.69
454.633	234.69
454.853	205.69
455.073	195.69
455.294	196.69
455.514	211.69
455.734	223.69
455.955	226.69
456.175	222.69
456.395	197.69
456.616	199.69
456.836	198.69
457.056	186.69
457.276	206.69
457.497	212.69
457.717	187.69
457.937	202.69
458.157	209.69
458.377	189.69
458.598	216.69
458.818	219.69
459.038	203.69
459.258	222.69
459.478	216.69
459.698	234.69
459.918	221.69
460.138	231.69
460.358	228.69
460.578	220.69
460.798	222.69
461.018	218.69
461.238	241.69
461.458	259.69
461.678	261.69
461.898	254.69
462.118	247.69
462.338	251.69
462.558	249.69
462.777	247.69
462.997	256.69
463.217	249.69
463.437	243.69
463.657	238.69
463.876	252.69
464.096	243.69
464.316	243.69
464.536	248.69
464.755	266.69
464.975	259.69
465.195	266.69
465.414	239.69
465.634	213.69
465.854	225.69
466.073	209.69
466.293	191.69
466.512	195.69
466.732	235.69
466.951	228.69
467.171	211.69
467.391	190.69
467.61	195.69
467.829	210.69
468.049	204.69
468.268	188.69
468.488	184.69
468.707	189.69
468.927	183.69
469.146	196.69
469.365	191.69
469.585	191.69
469.804	216.69
470.023	217.69
470.243	199.69
470.462	207.69
470.681	210.69
470.901	206.69
471.12	220.69
471.339	204.69
471.558	202.69
471.777	206.69
471.997	219.69
472.216	191.69
472.435	198.69
472.654	199.69
472.873	217.69
473.092	219.69
473.311	218.69
473.53	205.69
473.749	207.69
473.968	213.69
474.187	203.69
474.406	209.69
474.625	205.69
474.844	194.69
475.063	190.69
475.282	209.69
475.501	226.69
475.72	245.69
475.939	218.69
476.158	197.69
476.377	207.69
476.596	226.69
476.814	217.69
477.033	222.69
477.252	218.69
477.471	211.69
477.69	213.69
477.908	234.69
478.127	213.69
478.346	207.69
478.564	214.69
478.783	230.69
479.002	251.69
479.22	236.69
479.439	233.69
479.658	245.69
479.876	242.69
480.095	221.69
480.313	227.69
480.532	236.69
480.751	227.69
480.969	205.69
481.188	232.69
481.406	226.69
481.624	226.69
481.843	212.69
482.061	223.69
482.28	216.69
482.498	234.69
482.717	216.69
482.935	226.69
483.153	251.69
483.372	221.69
483.59	220.69
483.808	206.69
484.027	222.69
484.245	215.69
484.463	236.69
484.681	251.69
484.9	249.69
485.118	231.69
485.336	227.69
485.554	240.69
485.772	208.69
485.99	250.69
486.209	242.69
486.427	247.69
486.645	238.69
486.863	224.69
487.081	262.69
487.299	235.69
487.517	229.69
487.735	233.69
487.953	246.69
488.171	236.69
488.389	223.69
488.607	249.69
488.825	270.69
489.043	264.69
489.261	246.69
489.479	237.69
489.696	220.69
489.914	234.69
490.132	238.69
490.35	234.69
490.568	235.69
490.786	232.69
491.003	253.69
491.221	225.69
491.439	233.69
491.657	229.69
491.874	255.69
492.092	241.69
492.31	285.69
492.527	269.69
492.745	250.69
492.963	248.69
493.18	251.69
493.398	237.69
493.615	245.69
493.833	260.69
494.05	259.69
494.268	240.69
494.485	247.69
494.703	238.69
494.92	253.69
495.138	254.69
495.355	249.69
495.573	263.69
495.79	258.69
496.008	250.69
496.225	239.69
496.442	259.69
496.66	259.69
496.877	256.69
497.094	250.69
497.312	251.69
497.529	267.69
497.746	269.69
497.963	271.69
498.181	270.69
498.398	277.69
498.615	264.69
498.832	299.69
499.049	307.69
499.267	315.69
499.484	308.69
499.701	325.69
499.918	340.69
500.135	361.69
500.352	393.69
500.569	393.69
500.786	392.69
501.003	365.69
501.22	348.69
501.437	333.69
501.654	327.69
501.871	325.69
502.088	297.69
502.305	292.69
502.522	290.69
502.739	285.69
502.956	258.69
503.172	281.69
503.389	261.69
503.606	272.69
