Data from StA_HRD10591_079.txt Node
Date: Fri May 16 15:19:23 EDT 2025
User: Yrep
Spectrometer: HR+D1059
Trigger mode: 1
Integration Time (sec): 1.000000E-1
Scans to average: 1
Electric dark correction enabled: true
Nonlinearity correction enabled: false
Boxcar width: 0
XAxis mode: Wavelengths
Number of Pixels in Spectrum: 2048
>>>>>Begin Spectral Data<<<<<
223.165	-31.69
223.4	-31.69
223.635	-31.69
223.869	-11.69
224.104	-21.69
224.338	-1.69
224.573	0.31
224.808	-21.69
225.042	-2.69
225.277	-13.69
225.511	7.31
225.746	0.31
225.98	0.31
226.215	11.31
226.449	33.31
226.683	25.31
226.918	14.31
227.152	12.31
227.387	28.31
227.621	39.31
227.856	43.31
228.09	49.31
228.324	51.31
228.559	52.31
228.793	52.31
229.027	64.31
229.262	64.31
229.496	58.31
229.73	76.31
229.964	70.31
230.199	73.31
230.433	65.31
230.667	78.31
230.901	84.31
231.136	77.31
231.37	72.31
231.604	95.31
231.838	85.31
232.072	87.31
232.306	87.31
232.541	77.31
232.775	81.31
233.009	64.31
233.243	76.31
233.477	78.31
233.711	86.31
233.945	77.31
234.179	87.31
234.413	77.31
234.647	86.31
234.881	66.31
235.115	57.31
235.349	68.31
235.583	76.31
235.817	70.31
236.051	82.31
236.285	81.31
236.519	70.31
236.753	80.31
236.987	83.31
237.221	74.31
237.455	79.31
237.689	65.31
237.922	83.31
238.156	63.31
238.39	83.31
238.624	64.31
238.858	70.31
239.091	75.31
239.325	84.31
239.559	80.31
239.793	74.31
240.027	86.31
240.26	86.31
240.494	101.31
240.728	79.31
240.961	88.31
241.195	78.31
241.429	84.31
241.662	74.31
241.896	76.31
242.13	71.31
242.363	70.31
242.597	71.31
242.83	73.31
243.064	82.31
243.298	84.31
243.531	74.31
243.765	80.31
243.998	86.31
244.232	71.31
244.465	48.31
244.699	72.31
244.932	76.31
245.166	72.31
245.399	89.31
245.633	84.31
245.866	79.31
246.099	72.31
246.333	73.31
246.566	77.31
246.8	79.31
247.033	89.31
247.266	69.31
247.5	88.31
247.733	64.31
247.966	86.31
248.2	84.31
248.433	79.31
248.666	78.31
248.899	83.31
249.133	77.31
249.366	77.31
249.599	74.31
249.832	73.31
250.066	84.31
250.299	74.31
250.532	82.31
250.765	72.31
250.998	78.31
251.231	75.31
251.465	79.31
251.698	82.31
251.931	86.31
252.164	84.31
252.397	89.31
252.63	88.31
252.863	82.31
253.096	83.31
253.329	78.31
253.562	79.31
253.795	76.31
254.028	82.31
254.261	88.31
254.494	86.31
254.727	66.31
254.96	79.31
255.193	91.31
255.426	74.31
255.659	70.31
255.892	77.31
256.124	80.31
256.357	92.31
256.59	78.31
256.823	74.31
257.056	76.31
257.289	82.31
257.521	71.31
257.754	82.31
257.987	81.31
258.22	90.31
258.452	76.31
258.685	79.31
258.918	81.31
259.151	80.31
259.383	98.31
259.616	92.31
259.849	90.31
260.081	84.31
260.314	72.31
260.547	88.31
260.779	77.31
261.012	82.31
261.244	74.31
261.477	87.31
261.71	93.31
261.942	80.31
262.175	74.31
262.407	69.31
262.64	86.31
262.872	76.31
263.105	86.31
263.337	78.31
263.57	88.31
263.802	73.31
264.035	85.31
264.267	77.31
264.499	74.31
264.732	82.31
264.964	89.31
265.197	80.31
265.429	84.31
265.661	85.31
265.894	73.31
266.126	76.31
266.358	69.31
266.591	64.31
266.823	80.31
267.055	92.31
267.287	86.31
267.52	88.31
267.752	84.31
267.984	82.31
268.216	77.31
268.448	74.31
268.681	76.31
268.913	64.31
269.145	79.31
269.377	84.31
269.609	75.31
269.841	78.31
270.073	94.31
270.306	90.31
270.538	82.31
270.77	67.31
271.002	81.31
271.234	69.31
271.466	89.31
271.698	88.31
271.93	94.31
272.162	79.31
272.394	85.31
272.626	85.31
272.858	75.31
273.09	76.31
273.322	84.31
273.553	91.31
273.785	70.31
274.017	79.31
274.249	102.31
274.481	93.31
274.713	79.31
274.945	78.31
275.176	76.31
275.408	90.31
275.64	89.31
275.872	96.31
276.104	88.31
276.335	77.31
276.567	84.31
276.799	84.31
277.031	97.31
277.262	93.31
277.494	84.31
277.726	88.31
277.957	81.31
278.189	89.31
278.421	75.31
278.652	87.31
278.884	85.31
279.115	80.31
279.347	74.31
279.579	73.31
279.81	85.31
280.042	72.31
280.273	78.31
280.505	79.31
280.736	81.31
280.968	92.31
281.199	76.31
281.431	84.31
281.662	84.31
281.894	81.31
282.125	80.31
282.356	82.31
282.588	92.31
282.819	87.31
283.051	78.31
283.282	76.31
283.513	85.31
283.745	75.31
283.976	76.31
284.207	76.31
284.439	93.31
284.67	72.31
284.901	98.31
285.132	83.31
285.364	81.31
285.595	74.31
285.826	78.31
286.057	81.31
286.288	84.31
286.52	78.31
286.751	70.31
286.982	83.31
287.213	78.31
287.444	96.31
287.675	80.31
287.906	89.31
288.138	90.31
288.369	91.31
288.6	88.31
288.831	77.31
289.062	83.31
289.293	92.31
289.524	74.31
289.755	75.31
289.986	100.31
290.217	87.31
290.448	87.31
290.679	95.31
290.91	97.31
291.141	72.31
291.371	91.31
291.602	92.31
291.833	77.31
292.064	97.31
292.295	78.31
292.526	79.31
292.757	82.31
292.987	80.31
293.218	78.31
293.449	86.31
293.68	88.31
293.91	85.31
294.141	90.31
294.372	70.31
294.603	88.31
294.833	102.31
295.064	94.31
295.295	73.31
295.525	90.31
295.756	81.31
295.987	69.31
296.217	81.31
296.448	87.31
296.679	94.31
296.909	69.31
297.14	80.31
297.37	92.31
297.601	86.31
297.831	75.31
298.062	85.31
298.292	81.31
298.523	75.31
298.753	72.31
298.984	88.31
299.214	92.31
299.445	79.31
299.675	82.31
299.905	64.31
300.136	80.31
300.366	87.31
300.597	85.31
300.827	80.31
301.057	80.31
301.288	77.31
301.518	75.31
301.748	73.31
301.979	84.31
302.209	79.31
302.439	77.31
302.669	88.31
302.9	81.31
303.13	87.31
303.36	78.31
303.59	65.31
303.82	81.31
304.051	83.31
304.281	84.31
304.511	82.31
304.741	81.31
304.971	82.31
305.201	74.31
305.431	86.31
305.661	74.31
305.891	89.31
306.121	90.31
306.352	93.31
306.582	93.31
306.812	85.31
307.042	89.31
307.272	90.31
307.502	79.31
307.731	94.31
307.961	86.31
308.191	87.31
308.421	88.31
308.651	83.31
308.881	91.31
309.111	68.31
309.341	77.31
309.571	74.31
309.8	80.31
310.03	75.31
310.26	84.31
310.49	86.31
310.72	78.31
310.949	90.31
311.179	72.31
311.409	83.31
311.639	78.31
311.868	88.31
312.098	69.31
312.328	73.31
312.557	93.31
312.787	90.31
313.017	104.31
313.246	92.31
313.476	89.31
313.706	81.31
313.935	84.31
314.165	86.31
314.394	79.31
314.624	84.31
314.853	89.31
315.083	94.31
315.312	80.31
315.542	77.31
315.771	74.31
316.001	94.31
316.23	86.31
316.46	74.31
316.689	83.31
316.919	80.31
317.148	91.31
317.377	80.31
317.607	72.31
317.836	78.31
318.065	71.31
318.295	70.31
318.524	92.31
318.753	83.31
318.983	81.31
319.212	74.31
319.441	69.31
319.67	86.31
319.9	92.31
320.129	81.31
320.358	85.31
320.587	87.31
320.816	86.31
321.046	76.31
321.275	90.31
321.504	95.31
321.733	86.31
321.962	86.31
322.191	80.31
322.42	88.31
322.649	70.31
322.878	95.31
323.108	91.31
323.337	90.31
323.566	88.31
323.795	97.31
324.024	84.31
324.253	79.31
324.482	81.31
324.71	98.31
324.939	80.31
325.168	92.31
325.397	75.31
325.626	94.31
325.855	89.31
326.084	82.31
326.313	77.31
326.542	89.31
326.77	93.31
326.999	79.31
327.228	79.31
327.457	86.31
327.686	75.31
327.914	87.31
328.143	93.31
328.372	90.31
328.6	70.31
328.829	70.31
329.058	72.31
329.287	80.31
329.515	85.31
329.744	84.31
329.972	81.31
330.201	79.31
330.43	75.31
330.658	75.31
330.887	88.31
331.115	89.31
331.344	79.31
331.572	87.31
331.801	73.31
332.03	75.31
332.258	73.31
332.486	80.31
332.715	78.31
332.943	93.31
333.172	85.31
333.4	81.31
333.629	77.31
333.857	72.31
334.085	88.31
334.314	85.31
334.542	84.31
334.771	65.31
334.999	82.31
335.227	81.31
335.455	87.31
335.684	90.31
335.912	95.31
336.14	82.31
336.369	82.31
336.597	74.31
336.825	85.31
337.053	85.31
337.281	84.31
337.51	90.31
337.738	75.31
337.966	78.31
338.194	85.31
338.422	76.31
338.65	72.31
338.878	92.31
339.106	75.31
339.334	80.31
339.562	74.31
339.79	72.31
340.018	68.31
340.246	74.31
340.474	90.31
340.702	75.31
340.93	96.31
341.158	84.31
341.386	85.31
341.614	87.31
341.842	87.31
342.07	83.31
342.298	79.31
342.526	69.31
342.754	72.31
342.981	84.31
343.209	84.31
343.437	95.31
343.665	77.31
343.893	101.31
344.12	88.31
344.348	87.31
344.576	78.31
344.804	72.31
345.031	89.31
345.259	94.31
345.487	78.31
345.714	76.31
345.942	86.31
346.17	93.31
346.397	76.31
346.625	72.31
346.853	80.31
347.08	72.31
347.308	75.31
347.535	84.31
347.763	88.31
347.99	64.31
348.218	88.31
348.445	82.31
348.673	87.31
348.9	72.31
349.128	84.31
349.355	87.31
349.583	82.31
349.81	88.31
350.037	81.31
350.265	85.31
350.492	80.31
350.72	83.31
350.947	84.31
351.174	92.31
351.402	82.31
351.629	73.31
351.856	77.31
352.083	86.31
352.311	88.31
352.538	95.31
352.765	70.31
352.992	84.31
353.22	80.31
353.447	84.31
353.674	75.31
353.901	89.31
354.128	77.31
354.355	85.31
354.583	70.31
354.81	71.31
355.037	94.31
355.264	93.31
355.491	85.31
355.718	93.31
355.945	81.31
356.172	86.31
356.399	90.31
356.626	94.31
356.853	84.31
357.08	87.31
357.307	88.31
357.534	81.31
357.761	80.31
357.988	76.31
358.215	78.31
358.441	71.31
358.668	84.31
358.895	73.31
359.122	82.31
359.349	86.31
359.576	75.31
359.802	76.31
360.029	91.31
360.256	72.31
360.483	82.31
360.709	81.31
360.936	87.31
361.163	76.31
361.39	76.31
361.616	93.31
361.843	84.31
362.07	76.31
362.296	86.31
362.523	81.31
362.749	82.31
362.976	76.31
363.203	85.31
363.429	79.31
363.656	92.31
363.882	88.31
364.109	70.31
364.335	78.31
364.562	81.31
364.788	79.31
365.015	78.31
365.241	81.31
365.468	90.31
365.694	85.31
365.92	73.31
366.147	83.31
366.373	72.31
366.599	85.31
366.826	85.31
367.052	89.31
367.278	82.31
367.505	84.31
367.731	78.31
367.957	86.31
368.184	79.31
368.41	90.31
368.636	88.31
368.862	70.31
369.089	93.31
369.315	93.31
369.541	94.31
369.767	84.31
369.993	82.31
370.219	74.31
370.445	88.31
370.672	84.31
370.898	88.31
371.124	89.31
371.35	78.31
371.576	94.31
371.802	62.31
372.028	84.31
372.254	107.31
372.48	86.31
372.706	86.31
372.932	85.31
373.158	79.31
373.384	87.31
373.61	90.31
373.835	89.31
374.061	88.31
374.287	81.31
374.513	76.31
374.739	81.31
374.965	88.31
375.191	82.31
375.416	97.31
375.642	87.31
375.868	92.31
376.094	79.31
376.319	74.31
376.545	78.31
376.771	82.31
376.997	89.31
377.222	81.31
377.448	78.31
377.674	84.31
377.899	76.31
378.125	87.31
378.35	88.31
378.576	70.31
378.802	64.31
379.027	92.31
379.253	95.31
379.478	91.31
379.704	87.31
379.929	82.31
380.155	92.31
380.38	70.31
380.606	83.31
380.831	81.31
381.057	91.31
381.282	85.31
381.507	74.31
381.733	91.31
381.958	77.31
382.184	82.31
382.409	94.31
382.634	74.31
382.86	86.31
383.085	81.31
383.31	87.31
383.535	82.31
383.761	78.31
383.986	101.31
384.211	86.31
384.436	65.31
384.662	91.31
384.887	89.31
385.112	81.31
385.337	86.31
385.562	80.31
385.787	76.31
386.013	82.31
386.238	81.31
386.463	78.31
386.688	87.31
386.913	76.31
387.138	81.31
387.363	74.31
387.588	90.31
387.813	79.31
388.038	77.31
388.263	89.31
388.488	85.31
388.713	60.31
388.938	88.31
389.163	83.31
389.387	79.31
389.612	84.31
389.837	78.31
390.062	85.31
390.287	77.31
390.512	82.31
390.736	81.31
390.961	85.31
391.186	79.31
391.411	90.31
391.636	80.31
391.86	65.31
392.085	70.31
392.31	81.31
392.534	76.31
392.759	88.31
392.984	79.31
393.208	76.31
393.433	82.31
393.658	75.31
393.882	76.31
394.107	84.31
394.331	88.31
394.556	84.31
394.78	93.31
395.005	85.31
395.229	81.31
395.454	97.31
395.678	63.31
395.903	91.31
396.127	80.31
396.352	92.31
396.576	94.31
396.801	85.31
397.025	81.31
397.249	96.31
397.474	81.31
397.698	99.31
397.922	84.31
398.147	95.31
398.371	78.31
398.595	96.31
398.82	82.31
399.044	97.31
399.268	88.31
399.492	87.31
399.717	91.31
399.941	84.31
400.165	90.31
400.389	76.31
400.613	84.31
400.837	88.31
401.062	68.31
401.286	86.31
401.51	64.31
401.734	72.31
401.958	78.31
402.182	90.31
402.406	85.31
402.63	77.31
402.854	84.31
403.078	92.31
403.302	78.31
403.526	77.31
403.75	87.31
403.974	81.31
404.198	92.31
404.422	74.31
404.645	75.31
404.869	94.31
405.093	105.31
405.317	74.31
405.541	93.31
405.765	77.31
405.988	79.31
406.212	81.31
406.436	80.31
406.66	83.31
406.883	78.31
407.107	79.31
407.331	78.31
407.555	90.31
407.778	82.31
408.002	101.31
408.226	79.31
408.449	79.31
408.673	92.31
408.896	88.31
409.12	74.31
409.344	76.31
409.567	76.31
409.791	74.31
410.014	100.31
410.238	94.31
410.461	81.31
410.685	77.31
410.908	72.31
411.132	91.31
411.355	90.31
411.578	87.31
411.802	89.31
412.025	87.31
412.249	87.31
412.472	76.31
412.695	80.31
412.919	85.31
413.142	89.31
413.365	87.31
413.589	77.31
413.812	85.31
414.035	89.31
414.258	101.31
414.482	85.31
414.705	86.31
414.928	89.31
415.151	95.31
415.374	77.31
415.597	82.31
415.821	78.31
416.044	83.31
416.267	88.31
416.49	82.31
416.713	80.31
416.936	80.31
417.159	79.31
417.382	88.31
417.605	84.31
417.828	79.31
418.051	83.31
418.274	98.31
418.497	82.31
418.72	78.31
418.943	92.31
419.166	77.31
419.389	79.31
419.611	69.31
419.834	69.31
420.057	79.31
420.28	85.31
420.503	76.31
420.726	77.31
420.948	82.31
421.171	84.31
421.394	74.31
421.617	79.31
421.839	70.31
422.062	89.31
422.285	76.31
422.507	100.31
422.73	83.31
422.953	78.31
423.175	81.31
423.398	72.31
423.621	79.31
423.843	73.31
424.066	78.31
424.288	72.31
424.511	81.31
424.733	98.31
424.956	90.31
425.178	84.31
425.401	83.31
425.623	81.31
425.846	76.31
426.068	80.31
426.291	84.31
426.513	78.31
426.735	96.31
426.958	86.31
427.18	79.31
427.402	96.31
427.625	82.31
427.847	69.31
428.069	76.31
428.292	70.31
428.514	74.31
428.736	71.31
428.958	72.31
429.181	59.31
429.403	73.31
429.625	80.31
429.847	82.31
430.069	90.31
430.292	79.31
430.514	79.31
430.736	90.31
430.958	84.31
431.18	75.31
431.402	78.31
431.624	77.31
431.846	85.31
432.068	86.31
432.29	91.31
432.512	96.31
432.734	99.31
432.956	91.31
433.178	90.31
433.4	88.31
433.622	85.31
433.844	82.31
434.066	79.31
434.287	90.31
434.509	65.31
434.731	90.31
434.953	84.31
435.175	82.31
435.397	86.31
435.618	86.31
435.84	76.31
436.062	79.31
436.284	72.31
436.505	74.31
436.727	71.31
436.949	89.31
437.17	89.31
437.392	92.31
437.614	73.31
437.835	90.31
438.057	88.31
438.278	78.31
438.5	85.31
438.721	80.31
438.943	81.31
439.165	71.31
439.386	73.31
439.608	79.31
439.829	82.31
440.05	70.31
440.272	75.31
440.493	89.31
440.715	81.31
440.936	78.31
441.158	87.31
441.379	86.31
441.6	62.31
441.822	86.31
442.043	85.31
442.264	82.31
442.486	88.31
442.707	88.31
442.928	87.31
443.149	74.31
443.371	97.31
443.592	81.31
443.813	84.31
444.034	98.31
444.255	93.31
444.476	91.31
444.698	81.31
444.919	80.31
445.14	159.31
445.361	113.31
445.582	92.31
445.803	83.31
446.024	70.31
446.245	94.31
446.466	76.31
446.687	69.31
446.908	90.31
447.129	77.31
447.35	90.31
447.571	94.31
447.792	81.31
448.013	68.31
448.234	86.31
448.455	74.31
448.675	83.31
448.896	83.31
449.117	73.31
449.338	81.31
449.559	81.31
449.779	84.31
450	74.31
450.221	76.31
450.442	93.31
450.662	79.31
450.883	67.31
451.104	71.31
451.324	81.31
451.545	72.31
451.766	74.31
451.986	90.31
452.207	89.31
452.428	73.31
452.648	81.31
452.869	99.31
453.089	79.31
453.31	87.31
453.53	81.31
453.751	78.31
453.971	85.31
454.192	73.31
454.412	88.31
454.633	68.31
454.853	75.31
455.073	79.31
455.294	80.31
455.514	90.31
455.734	74.31
455.955	73.31
456.175	84.31
456.395	83.31
456.616	77.31
456.836	81.31
457.056	80.31
457.276	69.31
457.497	71.31
457.717	76.31
457.937	84.31
458.157	82.31
458.377	77.31
458.598	81.31
458.818	89.31
459.038	69.31
459.258	78.31
459.478	89.31
459.698	94.31
459.918	91.31
460.138	82.31
460.358	83.31
460.578	81.31
460.798	84.31
461.018	86.31
461.238	87.31
461.458	86.31
461.678	84.31
461.898	69.31
462.118	80.31
462.338	72.31
462.558	88.31
462.777	82.31
462.997	72.31
463.217	78.31
463.437	71.31
463.657	74.31
463.876	79.31
464.096	72.31
464.316	78.31
464.536	72.31
464.755	77.31
464.975	81.31
465.195	88.31
465.414	86.31
465.634	91.31
465.854	81.31
466.073	89.31
466.293	71.31
466.512	79.31
466.732	81.31
466.951	76.31
467.171	76.31
467.391	82.31
467.61	84.31
467.829	78.31
468.049	89.31
468.268	92.31
468.488	73.31
468.707	80.31
468.927	82.31
469.146	88.31
469.365	74.31
469.585	88.31
469.804	85.31
470.023	81.31
470.243	80.31
470.462	69.31
470.681	85.31
470.901	90.31
471.12	72.31
471.339	70.31
471.558	79.31
471.777	80.31
471.997	86.31
472.216	84.31
472.435	90.31
472.654	78.31
472.873	76.31
473.092	80.31
473.311	87.31
473.53	78.31
473.749	101.31
473.968	92.31
474.187	86.31
474.406	85.31
474.625	88.31
474.844	72.31
475.063	81.31
475.282	78.31
475.501	70.31
475.72	84.31
475.939	81.31
476.158	92.31
476.377	75.31
476.596	75.31
476.814	75.31
477.033	87.31
477.252	79.31
477.471	82.31
477.69	85.31
477.908	86.31
478.127	88.31
478.346	87.31
478.564	60.31
478.783	80.31
479.002	73.31
479.22	78.31
479.439	76.31
479.658	86.31
479.876	79.31
480.095	82.31
480.313	90.31
480.532	90.31
480.751	81.31
480.969	82.31
481.188	67.31
481.406	81.31
481.624	87.31
481.843	80.31
482.061	85.31
482.28	71.31
482.498	89.31
482.717	96.31
482.935	77.31
483.153	72.31
483.372	73.31
483.59	75.31
483.808	89.31
484.027	102.31
484.245	84.31
484.463	62.31
484.681	86.31
484.9	84.31
485.118	87.31
485.336	85.31
485.554	89.31
485.772	74.31
485.99	82.31
486.209	65.31
486.427	66.31
486.645	77.31
486.863	74.31
487.081	79.31
487.299	71.31
487.517	89.31
487.735	97.31
487.953	84.31
488.171	78.31
488.389	85.31
488.607	85.31
488.825	84.31
489.043	80.31
489.261	77.31
489.479	86.31
489.696	83.31
489.914	85.31
490.132	87.31
490.35	96.31
490.568	66.31
490.786	74.31
491.003	87.31
491.221	82.31
491.439	80.31
491.657	88.31
491.874	78.31
492.092	94.31
492.31	95.31
492.527	77.31
492.745	74.31
492.963	92.31
493.18	86.31
493.398	81.31
493.615	82.31
493.833	97.31
494.05	70.31
494.268	77.31
494.485	82.31
494.703	93.31
494.92	60.31
495.138	85.31
495.355	76.31
495.573	78.31
495.79	79.31
496.008	82.31
496.225	73.31
496.442	75.31
496.66	95.31
496.877	82.31
497.094	82.31
497.312	89.31
497.529	74.31
497.746	79.31
497.963	82.31
498.181	89.31
498.398	87.31
498.615	81.31
498.832	78.31
499.049	90.31
499.267	77.31
499.484	78.31
499.701	79.31
499.918	92.31
500.135	72.31
500.352	78.31
500.569	83.31
500.786	87.31
501.003	84.31
501.22	68.31
501.437	76.31
501.654	80.31
501.871	85.31
502.088	102.31
502.305	85.31
502.522	84.31
502.739	88.31
502.956	88.31
503.172	88.31
503.389	82.31
503.606	85.31
503.823	77.31
504.04	69.31
504.256	77.31
504.473	88.31
504.69	67.31
504.907	85.31
505.123	79.31
505.34	92.31
505.557	110.31
505.773	84.31
505.99	87.31
506.207	69.31
506.423	79.31
506.64	77.31
506.856	75.31
507.073	97.31
507.289	77.31
507.506	97.31
507.722	70.31
507.939	88.31
508.155	88.31
508.372	89.31
508.588	92.31
508.805	87.31
509.021	80.31
509.238	82.31
509.454	76.31
509.67	79.31
509.887	76.31
510.103	86.31
510.319	76.31
510.536	87.31
510.752	95.31
510.968	82.31
511.184	79.31
511.401	93.31
511.617	90.31
511.833	85.31
512.049	74.31
512.265	98.31
512.481	87.31
512.698	78.31
512.914	74.31
513.13	73.31
513.346	82.31
513.562	95.31
513.778	100.31
513.994	84.31
514.21	95.31
514.426	78.31
514.642	79.31
514.858	74.31
515.074	77.31
515.29	88.31
515.506	74.31
515.721	89.31
515.937	82.31
516.153	65.31
516.369	89.31
516.585	86.31
516.801	82.31
517.016	84.31
517.232	72.31
517.448	87.31
517.664	93.31
517.879	73.31
518.095	74.31
518.311	87.31
518.527	92.31
518.742	74.31
518.958	85.31
519.173	100.31
519.389	82.31
519.605	82.31
519.82	84.31
520.036	77.31
