Data from StA_HRD10591_089.txt Node
Date: Fri May 16 15:19:27 EDT 2025
User: Yrep
Spectrometer: HR+D1059
Trigger mode: 1
Integration Time (sec): 1.000000E-1
Scans to average: 1
Electric dark correction enabled: true
Nonlinearity correction enabled: false
Boxcar width: 0
XAxis mode: Wavelengths
Number of Pixels in Spectrum: 2048
>>>>>Begin Spectral Data<<<<<
223.165	-10.94
223.4	-10.94
223.635	-10.94
223.869	-20.94
224.104	-18.94
224.338	-17.94
224.573	-21.94
224.808	-18.94
225.042	-16.94
225.277	-2.94
225.511	1.06
225.746	12.06
225.98	7.06
226.215	10.06
226.449	7.06
226.683	25.06
226.918	25.06
227.152	42.06
227.387	35.06
227.621	38.06
227.856	32.06
228.09	37.06
228.324	49.06
228.559	63.06
228.793	51.06
229.027	36.06
229.262	62.06
229.496	71.06
229.73	65.06
229.964	82.06
230.199	68.06
230.433	68.06
230.667	76.06
230.901	84.06
231.136	84.06
231.37	71.06
231.604	85.06
231.838	89.06
232.072	93.06
232.306	83.06
232.541	76.06
232.775	71.06
233.009	81.06
233.243	59.06
233.477	62.06
233.711	88.06
233.945	71.06
234.179	73.06
234.413	74.06
234.647	79.06
234.881	74.06
235.115	85.06
235.349	89.06
235.583	77.06
235.817	77.06
236.051	76.06
236.285	69.06
236.519	72.06
236.753	75.06
236.987	69.06
237.221	59.06
237.455	55.06
237.689	73.06
237.922	61.06
238.156	65.06
238.39	87.06
238.624	75.06
238.858	63.06
239.091	83.06
239.325	62.06
239.559	79.06
239.793	82.06
240.027	77.06
240.26	69.06
240.494	63.06
240.728	91.06
240.961	84.06
241.195	79.06
241.429	67.06
241.662	75.06
241.896	62.06
242.13	84.06
242.363	80.06
242.597	68.06
242.83	90.06
243.064	73.06
243.298	72.06
243.531	58.06
243.765	77.06
243.998	77.06
244.232	76.06
244.465	84.06
244.699	73.06
244.932	69.06
245.166	79.06
245.399	83.06
245.633	81.06
245.866	74.06
246.099	72.06
246.333	79.06
246.566	72.06
246.8	85.06
247.033	79.06
247.266	79.06
247.5	68.06
247.733	71.06
247.966	70.06
248.2	88.06
248.433	76.06
248.666	79.06
248.899	81.06
249.133	79.06
249.366	85.06
249.599	81.06
249.832	87.06
250.066	77.06
250.299	75.06
250.532	85.06
250.765	69.06
250.998	64.06
251.231	71.06
251.465	67.06
251.698	68.06
251.931	65.06
252.164	70.06
252.397	76.06
252.63	83.06
252.863	79.06
253.096	74.06
253.329	82.06
253.562	62.06
253.795	69.06
254.028	69.06
254.261	77.06
254.494	82.06
254.727	74.06
254.96	67.06
255.193	74.06
255.426	103.06
255.659	66.06
255.892	66.06
256.124	86.06
256.357	76.06
256.59	89.06
256.823	76.06
257.056	76.06
257.289	64.06
257.521	78.06
257.754	69.06
257.987	60.06
258.22	78.06
258.452	89.06
258.685	64.06
258.918	83.06
259.151	73.06
259.383	83.06
259.616	78.06
259.849	81.06
260.081	73.06
260.314	87.06
260.547	73.06
260.779	69.06
261.012	64.06
261.244	74.06
261.477	74.06
261.71	77.06
261.942	66.06
262.175	73.06
262.407	85.06
262.64	82.06
262.872	76.06
263.105	84.06
263.337	86.06
263.57	73.06
263.802	69.06
264.035	85.06
264.267	83.06
264.499	78.06
264.732	75.06
264.964	74.06
265.197	72.06
265.429	82.06
265.661	84.06
265.894	76.06
266.126	81.06
266.358	74.06
266.591	77.06
266.823	70.06
267.055	101.06
267.287	77.06
267.52	84.06
267.752	77.06
267.984	68.06
268.216	73.06
268.448	81.06
268.681	74.06
268.913	71.06
269.145	85.06
269.377	81.06
269.609	89.06
269.841	79.06
270.073	91.06
270.306	74.06
270.538	87.06
270.77	97.06
271.002	83.06
271.234	71.06
271.466	84.06
271.698	75.06
271.93	62.06
272.162	81.06
272.394	78.06
272.626	71.06
272.858	79.06
273.09	79.06
273.322	68.06
273.553	75.06
273.785	79.06
274.017	78.06
274.249	79.06
274.481	85.06
274.713	86.06
274.945	81.06
275.176	81.06
275.408	91.06
275.64	76.06
275.872	87.06
276.104	83.06
276.335	87.06
276.567	77.06
276.799	83.06
277.031	77.06
277.262	77.06
277.494	79.06
277.726	89.06
277.957	83.06
278.189	74.06
278.421	76.06
278.652	87.06
278.884	89.06
279.115	73.06
279.347	82.06
279.579	85.06
279.81	75.06
280.042	81.06
280.273	80.06
280.505	87.06
280.736	78.06
280.968	82.06
281.199	73.06
281.431	86.06
281.662	83.06
281.894	73.06
282.125	75.06
282.356	78.06
282.588	68.06
282.819	83.06
283.051	87.06
283.282	85.06
283.513	89.06
283.745	85.06
283.976	82.06
284.207	86.06
284.439	88.06
284.67	101.06
284.901	93.06
285.132	86.06
285.364	84.06
285.595	90.06
285.826	88.06
286.057	90.06
286.288	90.06
286.52	102.06
286.751	84.06
286.982	90.06
287.213	84.06
287.444	81.06
287.675	90.06
287.906	94.06
288.138	66.06
288.369	100.06
288.6	93.06
288.831	93.06
289.062	86.06
289.293	67.06
289.524	64.06
289.755	92.06
289.986	97.06
290.217	85.06
290.448	87.06
290.679	82.06
290.91	81.06
291.141	79.06
291.371	83.06
291.602	67.06
291.833	67.06
292.064	77.06
292.295	76.06
292.526	73.06
292.757	83.06
292.987	80.06
293.218	82.06
293.449	87.06
293.68	82.06
293.91	85.06
294.141	86.06
294.372	87.06
294.603	83.06
294.833	80.06
295.064	67.06
295.295	73.06
295.525	73.06
295.756	76.06
295.987	77.06
296.217	83.06
296.448	79.06
296.679	101.06
296.909	75.06
297.14	75.06
297.37	79.06
297.601	74.06
297.831	89.06
298.062	73.06
298.292	80.06
298.523	94.06
298.753	90.06
298.984	80.06
299.214	67.06
299.445	83.06
299.675	77.06
299.905	90.06
300.136	87.06
300.366	98.06
300.597	84.06
300.827	102.06
301.057	91.06
301.288	82.06
301.518	82.06
301.748	89.06
301.979	86.06
302.209	89.06
302.439	110.06
302.669	76.06
302.9	77.06
303.13	83.06
303.36	63.06
303.59	78.06
303.82	94.06
304.051	97.06
304.281	103.06
304.511	82.06
304.741	86.06
304.971	83.06
305.201	92.06
305.431	84.06
305.661	85.06
305.891	87.06
306.121	86.06
306.352	95.06
306.582	71.06
306.812	75.06
307.042	83.06
307.272	86.06
307.502	84.06
307.731	86.06
307.961	74.06
308.191	87.06
308.421	85.06
308.651	94.06
308.881	71.06
309.111	85.06
309.341	84.06
309.571	77.06
309.8	90.06
310.03	100.06
310.26	81.06
310.49	64.06
310.72	82.06
310.949	81.06
311.179	92.06
311.409	90.06
311.639	80.06
311.868	87.06
312.098	79.06
312.328	95.06
312.557	97.06
312.787	98.06
313.017	78.06
313.246	91.06
313.476	93.06
313.706	80.06
313.935	86.06
314.165	88.06
314.394	79.06
314.624	61.06
314.853	91.06
315.083	88.06
315.312	95.06
315.542	81.06
315.771	73.06
316.001	84.06
316.23	82.06
316.46	78.06
316.689	78.06
316.919	79.06
317.148	63.06
317.377	85.06
317.607	83.06
317.836	85.06
318.065	91.06
318.295	88.06
318.524	74.06
318.753	99.06
318.983	89.06
319.212	72.06
319.441	85.06
319.67	75.06
319.9	71.06
320.129	82.06
320.358	78.06
320.587	93.06
320.816	86.06
321.046	90.06
321.275	74.06
321.504	87.06
321.733	75.06
321.962	64.06
322.191	87.06
322.42	82.06
322.649	69.06
322.878	67.06
323.108	91.06
323.337	89.06
323.566	81.06
323.795	86.06
324.024	85.06
324.253	86.06
324.482	77.06
324.71	86.06
324.939	83.06
325.168	70.06
325.397	93.06
325.626	74.06
325.855	79.06
326.084	79.06
326.313	82.06
326.542	75.06
326.77	78.06
326.999	85.06
327.228	81.06
327.457	82.06
327.686	86.06
327.914	82.06
328.143	92.06
328.372	83.06
328.6	86.06
328.829	85.06
329.058	89.06
329.287	64.06
329.515	91.06
329.744	83.06
329.972	91.06
330.201	76.06
330.43	83.06
330.658	90.06
330.887	82.06
331.115	68.06
331.344	78.06
331.572	86.06
331.801	93.06
332.03	77.06
332.258	83.06
332.486	70.06
332.715	86.06
332.943	97.06
333.172	85.06
333.4	82.06
333.629	74.06
333.857	63.06
334.085	84.06
334.314	77.06
334.542	68.06
334.771	87.06
334.999	86.06
335.227	89.06
335.455	79.06
335.684	103.06
335.912	77.06
336.14	97.06
336.369	76.06
336.597	76.06
336.825	93.06
337.053	82.06
337.281	69.06
337.51	84.06
337.738	102.06
337.966	76.06
338.194	79.06
338.422	74.06
338.65	92.06
338.878	82.06
339.106	82.06
339.334	62.06
339.562	81.06
339.79	74.06
340.018	93.06
340.246	83.06
340.474	78.06
340.702	76.06
340.93	76.06
341.158	87.06
341.386	95.06
341.614	79.06
341.842	89.06
342.07	76.06
342.298	77.06
342.526	92.06
342.754	84.06
342.981	91.06
343.209	86.06
343.437	86.06
343.665	88.06
343.893	83.06
344.12	73.06
344.348	92.06
344.576	73.06
344.804	85.06
345.031	70.06
345.259	97.06
345.487	79.06
345.714	87.06
345.942	79.06
346.17	69.06
346.397	91.06
346.625	93.06
346.853	91.06
347.08	82.06
347.308	83.06
347.535	76.06
347.763	80.06
347.99	67.06
348.218	82.06
348.445	69.06
348.673	74.06
348.9	87.06
349.128	91.06
349.355	100.06
349.583	83.06
349.81	85.06
350.037	92.06
350.265	85.06
350.492	89.06
350.72	91.06
350.947	103.06
351.174	85.06
351.402	91.06
351.629	79.06
351.856	80.06
352.083	93.06
352.311	76.06
352.538	88.06
352.765	79.06
352.992	81.06
353.22	81.06
353.447	78.06
353.674	83.06
353.901	91.06
354.128	75.06
354.355	77.06
354.583	83.06
354.81	97.06
355.037	63.06
355.264	81.06
355.491	78.06
355.718	82.06
355.945	87.06
356.172	92.06
356.399	95.06
356.626	82.06
356.853	94.06
357.08	90.06
357.307	88.06
357.534	90.06
357.761	106.06
357.988	128.06
358.215	91.06
358.441	88.06
358.668	80.06
358.895	95.06
359.122	109.06
359.349	105.06
359.576	106.06
359.802	78.06
360.029	94.06
360.256	92.06
360.483	119.06
360.709	114.06
360.936	87.06
361.163	89.06
361.39	87.06
361.616	89.06
361.843	89.06
362.07	82.06
362.296	85.06
362.523	53.06
362.749	82.06
362.976	79.06
363.203	98.06
363.429	97.06
363.656	90.06
363.882	84.06
364.109	89.06
364.335	81.06
364.562	75.06
364.788	88.06
365.015	97.06
365.241	76.06
365.468	84.06
365.694	81.06
365.92	84.06
366.147	83.06
366.373	79.06
366.599	78.06
366.826	95.06
367.052	79.06
367.278	94.06
367.505	85.06
367.731	103.06
367.957	92.06
368.184	89.06
368.41	63.06
368.636	75.06
368.862	84.06
369.089	86.06
369.315	81.06
369.541	73.06
369.767	76.06
369.993	78.06
370.219	69.06
370.445	92.06
370.672	97.06
370.898	84.06
371.124	87.06
371.35	85.06
371.576	82.06
371.802	73.06
372.028	77.06
372.254	77.06
372.48	73.06
372.706	72.06
372.932	82.06
373.158	82.06
373.384	81.06
373.61	74.06
373.835	84.06
374.061	87.06
374.287	90.06
374.513	93.06
374.739	87.06
374.965	92.06
375.191	76.06
375.416	85.06
375.642	73.06
375.868	85.06
376.094	84.06
376.319	77.06
376.545	83.06
376.771	81.06
376.997	77.06
377.222	76.06
377.448	85.06
377.674	81.06
377.899	86.06
378.125	89.06
378.35	80.06
378.576	76.06
378.802	84.06
379.027	88.06
379.253	74.06
379.478	91.06
379.704	76.06
379.929	83.06
380.155	83.06
380.38	81.06
380.606	68.06
380.831	63.06
381.057	69.06
381.282	91.06
381.507	84.06
381.733	89.06
381.958	79.06
382.184	79.06
382.409	85.06
382.634	94.06
382.86	89.06
383.085	73.06
383.31	90.06
383.535	98.06
383.761	90.06
383.986	87.06
384.211	86.06
384.436	94.06
384.662	94.06
384.887	83.06
385.112	95.06
385.337	86.06
385.562	81.06
385.787	82.06
386.013	89.06
386.238	73.06
386.463	91.06
386.688	102.06
386.913	79.06
387.138	82.06
387.363	74.06
387.588	84.06
387.813	81.06
388.038	83.06
388.263	78.06
388.488	89.06
388.713	85.06
388.938	83.06
389.163	82.06
389.387	92.06
389.612	88.06
389.837	80.06
390.062	70.06
390.287	87.06
390.512	76.06
390.736	83.06
390.961	78.06
391.186	81.06
391.411	87.06
391.636	89.06
391.86	94.06
392.085	102.06
392.31	92.06
392.534	84.06
392.759	87.06
392.984	81.06
393.208	87.06
393.433	89.06
393.658	68.06
393.882	81.06
394.107	86.06
394.331	69.06
394.556	75.06
394.78	83.06
395.005	83.06
395.229	76.06
395.454	85.06
395.678	77.06
395.903	84.06
396.127	100.06
396.352	93.06
396.576	95.06
396.801	91.06
397.025	105.06
397.249	87.06
397.474	86.06
397.698	91.06
397.922	90.06
398.147	96.06
398.371	98.06
398.595	84.06
398.82	81.06
399.044	85.06
399.268	86.06
399.492	86.06
399.717	85.06
399.941	71.06
400.165	80.06
400.389	86.06
400.613	79.06
400.837	84.06
401.062	81.06
401.286	80.06
401.51	78.06
401.734	92.06
401.958	68.06
402.182	81.06
402.406	79.06
402.63	69.06
402.854	90.06
403.078	100.06
403.302	92.06
403.526	71.06
403.75	91.06
403.974	60.06
404.198	91.06
404.422	82.06
404.645	74.06
404.869	81.06
405.093	75.06
405.317	81.06
405.541	88.06
405.765	90.06
405.988	83.06
406.212	81.06
406.436	86.06
406.66	61.06
406.883	83.06
407.107	87.06
407.331	104.06
407.555	87.06
407.778	88.06
408.002	78.06
408.226	67.06
408.449	77.06
408.673	63.06
408.896	64.06
409.12	64.06
409.344	83.06
409.567	79.06
409.791	93.06
410.014	87.06
410.238	72.06
410.461	71.06
410.685	79.06
410.908	85.06
411.132	74.06
411.355	82.06
411.578	75.06
411.802	83.06
412.025	81.06
412.249	78.06
412.472	74.06
412.695	69.06
412.919	87.06
413.142	84.06
413.365	89.06
413.589	76.06
413.812	75.06
414.035	81.06
414.258	57.06
414.482	84.06
414.705	85.06
414.928	98.06
415.151	86.06
415.374	81.06
415.597	73.06
415.821	77.06
416.044	70.06
416.267	69.06
416.49	98.06
416.713	81.06
416.936	76.06
417.159	60.06
417.382	76.06
417.605	69.06
417.828	90.06
418.051	74.06
418.274	71.06
418.497	77.06
418.72	70.06
418.943	80.06
419.166	69.06
419.389	71.06
419.611	64.06
419.834	81.06
420.057	86.06
420.28	66.06
420.503	69.06
420.726	79.06
420.948	74.06
421.171	94.06
421.394	79.06
421.617	75.06
421.839	88.06
422.062	79.06
422.285	72.06
422.507	75.06
422.73	74.06
422.953	99.06
423.175	77.06
423.398	94.06
423.621	75.06
423.843	73.06
424.066	90.06
424.288	86.06
424.511	77.06
424.733	63.06
424.956	78.06
425.178	105.06
425.401	144.06
425.623	149.06
425.846	75.06
426.068	97.06
426.291	78.06
426.513	83.06
426.735	78.06
426.958	92.06
427.18	85.06
427.402	109.06
427.625	131.06
427.847	96.06
428.069	87.06
428.292	79.06
428.514	89.06
428.736	101.06
428.958	126.06
429.181	118.06
429.403	104.06
429.625	78.06
429.847	86.06
430.069	91.06
430.292	82.06
430.514	70.06
430.736	76.06
430.958	74.06
431.18	73.06
431.402	84.06
431.624	81.06
431.846	76.06
432.068	79.06
432.29	68.06
432.512	97.06
432.734	96.06
432.956	91.06
433.178	73.06
433.4	99.06
433.622	89.06
433.844	113.06
434.066	119.06
434.287	98.06
434.509	98.06
434.731	102.06
434.953	98.06
435.175	111.06
435.397	114.06
435.618	86.06
435.84	93.06
436.062	95.06
436.284	92.06
436.505	71.06
436.727	83.06
436.949	101.06
437.17	105.06
437.392	87.06
437.614	88.06
437.835	67.06
438.057	76.06
438.278	89.06
438.5	81.06
438.721	73.06
438.943	92.06
439.165	66.06
439.386	92.06
439.608	67.06
439.829	75.06
440.05	75.06
440.272	78.06
440.493	85.06
440.715	87.06
440.936	71.06
441.158	83.06
441.379	84.06
441.6	102.06
441.822	81.06
442.043	72.06
442.264	68.06
442.486	90.06
442.707	81.06
442.928	77.06
443.149	90.06
443.371	87.06
443.592	79.06
443.813	82.06
444.034	98.06
444.255	87.06
444.476	67.06
444.698	85.06
444.919	77.06
445.14	160.06
445.361	99.06
445.582	88.06
445.803	74.06
446.024	82.06
446.245	83.06
446.466	87.06
446.687	81.06
446.908	94.06
447.129	78.06
447.35	75.06
447.571	92.06
447.792	71.06
448.013	87.06
448.234	97.06
448.455	90.06
448.675	75.06
448.896	86.06
449.117	88.06
449.338	77.06
449.559	79.06
449.779	86.06
450	91.06
450.221	89.06
450.442	77.06
450.662	83.06
450.883	85.06
451.104	83.06
451.324	84.06
451.545	79.06
451.766	65.06
451.986	71.06
452.207	89.06
452.428	82.06
452.648	87.06
452.869	88.06
453.089	88.06
453.31	77.06
453.53	69.06
453.751	87.06
453.971	85.06
454.192	85.06
454.412	90.06
454.633	86.06
454.853	101.06
455.073	81.06
455.294	73.06
455.514	72.06
455.734	57.06
455.955	71.06
456.175	68.06
456.395	80.06
456.616	85.06
456.836	81.06
457.056	78.06
457.276	88.06
457.497	81.06
457.717	84.06
457.937	88.06
458.157	80.06
458.377	102.06
458.598	69.06
458.818	81.06
459.038	73.06
459.258	100.06
459.478	85.06
459.698	85.06
459.918	80.06
460.138	85.06
460.358	90.06
460.578	87.06
460.798	76.06
461.018	90.06
461.238	70.06
461.458	91.06
461.678	95.06
461.898	85.06
462.118	89.06
462.338	81.06
462.558	95.06
462.777	86.06
462.997	87.06
463.217	91.06
463.437	85.06
463.657	74.06
463.876	74.06
464.096	83.06
464.316	77.06
464.536	88.06
464.755	110.06
464.975	81.06
465.195	90.06
465.414	112.06
465.634	91.06
465.854	87.06
466.073	67.06
466.293	74.06
466.512	81.06
466.732	77.06
466.951	83.06
467.171	87.06
467.391	93.06
467.61	74.06
467.829	63.06
468.049	89.06
468.268	101.06
468.488	95.06
468.707	81.06
468.927	75.06
469.146	72.06
469.365	84.06
469.585	74.06
469.804	76.06
470.023	81.06
470.243	81.06
470.462	81.06
470.681	81.06
470.901	94.06
471.12	85.06
471.339	99.06
471.558	75.06
471.777	73.06
471.997	93.06
472.216	88.06
472.435	85.06
472.654	88.06
472.873	96.06
473.092	102.06
473.311	77.06
473.53	72.06
473.749	82.06
473.968	81.06
474.187	82.06
474.406	86.06
474.625	69.06
474.844	79.06
475.063	70.06
475.282	74.06
475.501	106.06
475.72	86.06
475.939	85.06
476.158	91.06
476.377	77.06
476.596	73.06
476.814	87.06
477.033	77.06
477.252	89.06
477.471	94.06
477.69	89.06
477.908	94.06
478.127	83.06
478.346	82.06
478.564	87.06
478.783	85.06
479.002	92.06
479.22	93.06
479.439	87.06
479.658	71.06
479.876	75.06
480.095	71.06
480.313	83.06
480.532	77.06
480.751	84.06
480.969	69.06
481.188	72.06
481.406	88.06
481.624	81.06
481.843	90.06
482.061	81.06
482.28	72.06
482.498	71.06
482.717	77.06
482.935	88.06
483.153	78.06
483.372	81.06
483.59	84.06
483.808	85.06
484.027	83.06
484.245	73.06
484.463	85.06
484.681	83.06
484.9	63.06
485.118	81.06
485.336	82.06
485.554	80.06
485.772	82.06
485.99	73.06
486.209	78.06
486.427	72.06
486.645	80.06
486.863	76.06
487.081	89.06
487.299	87.06
487.517	83.06
487.735	75.06
487.953	89.06
488.171	78.06
488.389	101.06
488.607	88.06
488.825	81.06
489.043	72.06
489.261	64.06
489.479	85.06
489.696	79.06
489.914	89.06
490.132	74.06
490.35	80.06
490.568	76.06
490.786	92.06
491.003	78.06
491.221	79.06
491.439	100.06
491.657	84.06
491.874	84.06
492.092	78.06
492.31	96.06
492.527	101.06
492.745	74.06
492.963	86.06
493.18	74.06
493.398	85.06
493.615	74.06
493.833	83.06
494.05	90.06
494.268	94.06
494.485	90.06
494.703	84.06
494.92	71.06
495.138	80.06
495.355	80.06
495.573	82.06
495.79	78.06
496.008	77.06
496.225	78.06
496.442	89.06
496.66	99.06
496.877	76.06
497.094	78.06
497.312	90.06
497.529	69.06
497.746	83.06
497.963	74.06
498.181	84.06
498.398	73.06
498.615	76.06
498.832	87.06
499.049	73.06
499.267	76.06
499.484	77.06
499.701	67.06
499.918	81.06
500.135	85.06
500.352	83.06
500.569	81.06
500.786	92.06
501.003	85.06
501.22	78.06
501.437	92.06
501.654	83.06
501.871	94.06
502.088	85.06
502.305	76.06
502.522	75.06
502.739	93.06
502.956	98.06
503.172	89.06
503.389	81.06
503.606	88.06
503.823	85.06
504.04	71.06
504.256	86.06
504.473	73.06
504.69	70.06
504.907	71.06
505.123	76.06
505.34	88.06
505.557	83.06
505.773	89.06
505.99	83.06
506.207	88.06
506.423	79.06
506.64	75.06
506.856	90.06
507.073	86.06
507.289	90.06
507.506	86.06
507.722	96.06
507.939	75.06
508.155	81.06
508.372	86.06
508.588	75.06
508.805	84.06
509.021	82.06
509.238	110.06
509.454	87.06
509.67	76.06
509.887	75.06
510.103	97.06
510.319	77.06
510.536	77.06
510.752	88.06
510.968	90.06
511.184	77.06
511.401	68.06
511.617	82.06
511.833	74.06
512.049	71.06
512.265	85.06
512.481	79.06
512.698	76.06
512.914	83.06
513.13	79.06
513.346	95.06
513.562	89.06
513.778	90.06
513.994	78.06
514.21	104.06
514.426	74.06
514.642	70.06
514.858	82.06
515.074	86.06
515.29	79.06
515.506	78.06
515.721	80.06
515.937	88.06
516.153	73.06
516.369	83.06
516.585	87.06
516.801	98.06
517.016	91.06
517.232	73.06
517.448	73.06
517.664	79.06
517.879	74.06
518.095	79.06
518.311	81.06
518.527	78.06
518.742	83.06
518.958	78.06
519.173	79.06
519.389	76.06
519.605	101.06
