Data from StA_HRD10591_081.txt Node
Date: Fri May 16 15:19:23 EDT 2025
User: Yrep
Spectrometer: HR+D1059
Trigger mode: 1
Integration Time (sec): 1.000000E-1
Scans to average: 1
Electric dark correction enabled: true
Nonlinearity correction enabled: false
Boxcar width: 0
XAxis mode: Wavelengths
Number of Pixels in Spectrum: 2048
>>>>>Begin Spectral Data<<<<<
223.165	-9.19
223.4	-9.19
223.635	-9.19
223.869	-5.19
224.104	-35.19
224.338	-19.19
224.573	-12.19
224.808	-11.19
225.042	-4.19
225.277	-11.19
225.511	-18.19
225.746	4.81
225.98	17.81
226.215	-3.19
226.449	19.81
226.683	11.81
226.918	40.81
227.152	33.81
227.387	21.81
227.621	42.81
227.856	54.81
228.09	49.81
228.324	49.81
228.559	56.81
228.793	68.81
229.027	53.81
229.262	66.81
229.496	68.81
229.73	72.81
229.964	64.81
230.199	90.81
230.433	61.81
230.667	79.81
230.901	90.81
231.136	84.81
231.37	74.81
231.604	96.81
231.838	81.81
232.072	87.81
232.306	91.81
232.541	83.81
232.775	84.81
233.009	89.81
233.243	94.81
233.477	78.81
233.711	97.81
233.945	79.81
234.179	97.81
234.413	83.81
234.647	85.81
234.881	85.81
235.115	97.81
235.349	89.81
235.583	82.81
235.817	89.81
236.051	86.81
236.285	83.81
236.519	75.81
236.753	87.81
236.987	78.81
237.221	63.81
237.455	79.81
237.689	80.81
237.922	71.81
238.156	90.81
238.39	73.81
238.624	91.81
238.858	66.81
239.091	77.81
239.325	83.81
239.559	75.81
239.793	74.81
240.027	79.81
240.26	76.81
240.494	91.81
240.728	86.81
240.961	86.81
241.195	78.81
241.429	78.81
241.662	81.81
241.896	73.81
242.13	77.81
242.363	81.81
242.597	83.81
242.83	76.81
243.064	64.81
243.298	79.81
243.531	79.81
243.765	86.81
243.998	79.81
244.232	77.81
244.465	81.81
244.699	78.81
244.932	88.81
245.166	85.81
245.399	73.81
245.633	85.81
245.866	72.81
246.099	83.81
246.333	73.81
246.566	77.81
246.8	81.81
247.033	68.81
247.266	69.81
247.5	84.81
247.733	80.81
247.966	85.81
248.2	63.81
248.433	77.81
248.666	64.81
248.899	69.81
249.133	75.81
249.366	82.81
249.599	88.81
249.832	81.81
250.066	61.81
250.299	88.81
250.532	91.81
250.765	99.81
250.998	81.81
251.231	89.81
251.465	75.81
251.698	83.81
251.931	80.81
252.164	83.81
252.397	74.81
252.63	81.81
252.863	83.81
253.096	90.81
253.329	80.81
253.562	80.81
253.795	89.81
254.028	82.81
254.261	75.81
254.494	78.81
254.727	75.81
254.96	85.81
255.193	68.81
255.426	79.81
255.659	81.81
255.892	77.81
256.124	70.81
256.357	75.81
256.59	97.81
256.823	79.81
257.056	92.81
257.289	77.81
257.521	94.81
257.754	92.81
257.987	79.81
258.22	91.81
258.452	102.81
258.685	85.81
258.918	75.81
259.151	81.81
259.383	66.81
259.616	75.81
259.849	80.81
260.081	89.81
260.314	92.81
260.547	77.81
260.779	83.81
261.012	69.81
261.244	85.81
261.477	82.81
261.71	84.81
261.942	77.81
262.175	93.81
262.407	81.81
262.64	82.81
262.872	91.81
263.105	95.81
263.337	88.81
263.57	79.81
263.802	87.81
264.035	73.81
264.267	85.81
264.499	73.81
264.732	85.81
264.964	87.81
265.197	92.81
265.429	88.81
265.661	94.81
265.894	85.81
266.126	79.81
266.358	98.81
266.591	84.81
266.823	88.81
267.055	79.81
267.287	101.81
267.52	93.81
267.752	80.81
267.984	100.81
268.216	80.81
268.448	80.81
268.681	85.81
268.913	90.81
269.145	89.81
269.377	90.81
269.609	90.81
269.841	94.81
270.073	85.81
270.306	83.81
270.538	76.81
270.77	94.81
271.002	81.81
271.234	83.81
271.466	84.81
271.698	84.81
271.93	84.81
272.162	95.81
272.394	90.81
272.626	81.81
272.858	91.81
273.09	82.81
273.322	85.81
273.553	88.81
273.785	87.81
274.017	84.81
274.249	75.81
274.481	92.81
274.713	95.81
274.945	89.81
275.176	95.81
275.408	76.81
275.64	79.81
275.872	95.81
276.104	79.81
276.335	97.81
276.567	98.81
276.799	97.81
277.031	89.81
277.262	99.81
277.494	89.81
277.726	93.81
277.957	105.81
278.189	81.81
278.421	80.81
278.652	81.81
278.884	79.81
279.115	95.81
279.347	72.81
279.579	97.81
279.81	92.81
280.042	84.81
280.273	96.81
280.505	97.81
280.736	90.81
280.968	95.81
281.199	85.81
281.431	89.81
281.662	83.81
281.894	82.81
282.125	88.81
282.356	94.81
282.588	82.81
282.819	87.81
283.051	89.81
283.282	91.81
283.513	90.81
283.745	91.81
283.976	85.81
284.207	83.81
284.439	87.81
284.67	90.81
284.901	90.81
285.132	91.81
285.364	87.81
285.595	93.81
285.826	104.81
286.057	99.81
286.288	92.81
286.52	79.81
286.751	91.81
286.982	97.81
287.213	81.81
287.444	91.81
287.675	89.81
287.906	93.81
288.138	87.81
288.369	86.81
288.6	86.81
288.831	72.81
289.062	74.81
289.293	91.81
289.524	79.81
289.755	84.81
289.986	83.81
290.217	77.81
290.448	94.81
290.679	92.81
290.91	88.81
291.141	80.81
291.371	98.81
291.602	94.81
291.833	85.81
292.064	98.81
292.295	96.81
292.526	79.81
292.757	94.81
292.987	88.81
293.218	80.81
293.449	95.81
293.68	84.81
293.91	90.81
294.141	82.81
294.372	83.81
294.603	88.81
294.833	76.81
295.064	97.81
295.295	82.81
295.525	90.81
295.756	93.81
295.987	92.81
296.217	97.81
296.448	93.81
296.679	90.81
296.909	109.81
297.14	90.81
297.37	82.81
297.601	92.81
297.831	106.81
298.062	92.81
298.292	96.81
298.523	94.81
298.753	110.81
298.984	87.81
299.214	89.81
299.445	99.81
299.675	95.81
299.905	88.81
300.136	91.81
300.366	88.81
300.597	89.81
300.827	89.81
301.057	89.81
301.288	111.81
301.518	105.81
301.748	93.81
301.979	115.81
302.209	94.81
302.439	110.81
302.669	92.81
302.9	86.81
303.13	104.81
303.36	97.81
303.59	84.81
303.82	100.81
304.051	100.81
304.281	88.81
304.511	77.81
304.741	92.81
304.971	84.81
305.201	95.81
305.431	92.81
305.661	88.81
305.891	80.81
306.121	79.81
306.352	84.81
306.582	83.81
306.812	82.81
307.042	89.81
307.272	95.81
307.502	79.81
307.731	82.81
307.961	99.81
308.191	87.81
308.421	80.81
308.651	77.81
308.881	86.81
309.111	80.81
309.341	84.81
309.571	88.81
309.8	81.81
310.03	101.81
310.26	91.81
310.49	75.81
310.72	92.81
310.949	87.81
311.179	97.81
311.409	91.81
311.639	77.81
311.868	87.81
312.098	100.81
312.328	95.81
312.557	96.81
312.787	101.81
313.017	109.81
313.246	90.81
313.476	85.81
313.706	90.81
313.935	88.81
314.165	81.81
314.394	87.81
314.624	91.81
314.853	80.81
315.083	98.81
315.312	92.81
315.542	106.81
315.771	89.81
316.001	89.81
316.23	95.81
316.46	91.81
316.689	73.81
316.919	89.81
317.148	94.81
317.377	87.81
317.607	91.81
317.836	85.81
318.065	95.81
318.295	88.81
318.524	96.81
318.753	82.81
318.983	92.81
319.212	103.81
319.441	83.81
319.67	80.81
319.9	89.81
320.129	96.81
320.358	89.81
320.587	87.81
320.816	91.81
321.046	86.81
321.275	91.81
321.504	80.81
321.733	92.81
321.962	98.81
322.191	95.81
322.42	84.81
322.649	83.81
322.878	77.81
323.108	75.81
323.337	78.81
323.566	81.81
323.795	84.81
324.024	85.81
324.253	78.81
324.482	84.81
324.71	93.81
324.939	69.81
325.168	63.81
325.397	71.81
325.626	89.81
325.855	88.81
326.084	72.81
326.313	86.81
326.542	87.81
326.77	89.81
326.999	84.81
327.228	94.81
327.457	89.81
327.686	84.81
327.914	97.81
328.143	100.81
328.372	87.81
328.6	93.81
328.829	92.81
329.058	83.81
329.287	90.81
329.515	85.81
329.744	90.81
329.972	79.81
330.201	78.81
330.43	74.81
330.658	85.81
330.887	90.81
331.115	79.81
331.344	83.81
331.572	97.81
331.801	92.81
332.03	90.81
332.258	97.81
332.486	88.81
332.715	102.81
332.943	89.81
333.172	90.81
333.4	85.81
333.629	81.81
333.857	72.81
334.085	96.81
334.314	95.81
334.542	83.81
334.771	83.81
334.999	83.81
335.227	76.81
335.455	77.81
335.684	92.81
335.912	84.81
336.14	95.81
336.369	96.81
336.597	108.81
336.825	84.81
337.053	89.81
337.281	87.81
337.51	104.81
337.738	87.81
337.966	90.81
338.194	95.81
338.422	78.81
338.65	87.81
338.878	96.81
339.106	71.81
339.334	85.81
339.562	95.81
339.79	87.81
340.018	95.81
340.246	89.81
340.474	97.81
340.702	106.81
340.93	89.81
341.158	92.81
341.386	76.81
341.614	89.81
341.842	91.81
342.07	92.81
342.298	87.81
342.526	78.81
342.754	82.81
342.981	83.81
343.209	90.81
343.437	109.81
343.665	79.81
343.893	91.81
344.12	81.81
344.348	103.81
344.576	105.81
344.804	94.81
345.031	89.81
345.259	90.81
345.487	88.81
345.714	84.81
345.942	103.81
346.17	84.81
346.397	96.81
346.625	80.81
346.853	88.81
347.08	93.81
347.308	99.81
347.535	81.81
347.763	65.81
347.99	83.81
348.218	89.81
348.445	95.81
348.673	84.81
348.9	89.81
349.128	92.81
349.355	98.81
349.583	84.81
349.81	54.81
350.037	82.81
350.265	81.81
350.492	84.81
350.72	65.81
350.947	84.81
351.174	86.81
351.402	87.81
351.629	84.81
351.856	90.81
352.083	86.81
352.311	91.81
352.538	90.81
352.765	79.81
352.992	98.81
353.22	76.81
353.447	89.81
353.674	87.81
353.901	87.81
354.128	91.81
354.355	87.81
354.583	105.81
354.81	82.81
355.037	83.81
355.264	88.81
355.491	89.81
355.718	77.81
355.945	80.81
356.172	78.81
356.399	105.81
356.626	108.81
356.853	91.81
357.08	77.81
357.307	90.81
357.534	112.81
357.761	132.81
357.988	135.81
358.215	113.81
358.441	102.81
358.668	87.81
358.895	88.81
359.122	108.81
359.349	123.81
359.576	113.81
359.802	87.81
360.029	84.81
360.256	105.81
360.483	93.81
360.709	111.81
360.936	116.81
361.163	82.81
361.39	84.81
361.616	89.81
361.843	93.81
362.07	83.81
362.296	81.81
362.523	80.81
362.749	84.81
362.976	87.81
363.203	91.81
363.429	81.81
363.656	80.81
363.882	85.81
364.109	100.81
364.335	103.81
364.562	87.81
364.788	87.81
365.015	79.81
365.241	82.81
365.468	100.81
365.694	93.81
365.92	73.81
366.147	88.81
366.373	81.81
366.599	95.81
366.826	77.81
367.052	83.81
367.278	86.81
367.505	77.81
367.731	91.81
367.957	84.81
368.184	81.81
368.41	83.81
368.636	82.81
368.862	95.81
369.089	85.81
369.315	80.81
369.541	87.81
369.767	87.81
369.993	84.81
370.219	70.81
370.445	90.81
370.672	81.81
370.898	89.81
371.124	85.81
371.35	80.81
371.576	83.81
371.802	81.81
372.028	88.81
372.254	84.81
372.48	89.81
372.706	97.81
372.932	83.81
373.158	81.81
373.384	92.81
373.61	86.81
373.835	84.81
374.061	93.81
374.287	94.81
374.513	101.81
374.739	96.81
374.965	98.81
375.191	75.81
375.416	81.81
375.642	86.81
375.868	83.81
376.094	84.81
376.319	92.81
376.545	93.81
376.771	94.81
376.997	90.81
377.222	69.81
377.448	90.81
377.674	73.81
377.899	79.81
378.125	89.81
378.35	88.81
378.576	94.81
378.802	76.81
379.027	95.81
379.253	96.81
379.478	87.81
379.704	80.81
379.929	82.81
380.155	92.81
380.38	86.81
380.606	86.81
380.831	94.81
381.057	89.81
381.282	78.81
381.507	93.81
381.733	96.81
381.958	77.81
382.184	88.81
382.409	84.81
382.634	87.81
382.86	96.81
383.085	91.81
383.31	80.81
383.535	83.81
383.761	61.81
383.986	84.81
384.211	76.81
384.436	100.81
384.662	96.81
384.887	95.81
385.112	102.81
385.337	100.81
385.562	96.81
385.787	85.81
386.013	111.81
386.238	92.81
386.463	85.81
386.688	104.81
386.913	98.81
387.138	87.81
387.363	83.81
387.588	96.81
387.813	88.81
388.038	92.81
388.263	88.81
388.488	93.81
388.713	100.81
388.938	95.81
389.163	94.81
389.387	88.81
389.612	82.81
389.837	91.81
390.062	71.81
390.287	79.81
390.512	90.81
390.736	93.81
390.961	96.81
391.186	98.81
391.411	89.81
391.636	96.81
391.86	108.81
392.085	105.81
392.31	106.81
392.534	82.81
392.759	84.81
392.984	86.81
393.208	96.81
393.433	81.81
393.658	91.81
393.882	89.81
394.107	89.81
394.331	76.81
394.556	81.81
394.78	84.81
395.005	101.81
395.229	96.81
395.454	84.81
395.678	87.81
395.903	83.81
396.127	105.81
396.352	90.81
396.576	97.81
396.801	102.81
397.025	103.81
397.249	98.81
397.474	99.81
397.698	106.81
397.922	100.81
398.147	77.81
398.371	95.81
398.595	96.81
398.82	84.81
399.044	92.81
399.268	108.81
399.492	98.81
399.717	88.81
399.941	73.81
400.165	81.81
400.389	82.81
400.613	90.81
400.837	90.81
401.062	84.81
401.286	78.81
401.51	78.81
401.734	97.81
401.958	96.81
402.182	87.81
402.406	91.81
402.63	93.81
402.854	75.81
403.078	80.81
403.302	83.81
403.526	97.81
403.75	79.81
403.974	80.81
404.198	91.81
404.422	95.81
404.645	79.81
404.869	83.81
405.093	80.81
405.317	80.81
405.541	73.81
405.765	90.81
405.988	83.81
406.212	82.81
406.436	87.81
406.66	93.81
406.883	93.81
407.107	87.81
407.331	85.81
407.555	82.81
407.778	82.81
408.002	90.81
408.226	84.81
408.449	79.81
408.673	87.81
408.896	76.81
409.12	95.81
409.344	87.81
409.567	88.81
409.791	90.81
410.014	82.81
410.238	81.81
410.461	81.81
410.685	94.81
410.908	67.81
411.132	85.81
411.355	84.81
411.578	82.81
411.802	89.81
412.025	83.81
412.249	73.81
412.472	81.81
412.695	87.81
412.919	106.81
413.142	92.81
413.365	85.81
413.589	67.81
413.812	73.81
414.035	83.81
414.258	87.81
414.482	77.81
414.705	81.81
414.928	87.81
415.151	86.81
415.374	72.81
415.597	82.81
415.821	76.81
416.044	75.81
416.267	91.81
416.49	88.81
416.713	73.81
416.936	93.81
417.159	85.81
417.382	83.81
417.605	68.81
417.828	87.81
418.051	87.81
418.274	81.81
418.497	87.81
418.72	83.81
418.943	72.81
419.166	82.81
419.389	86.81
419.611	83.81
419.834	75.81
420.057	93.81
420.28	87.81
420.503	75.81
420.726	83.81
420.948	83.81
421.171	88.81
421.394	83.81
421.617	75.81
421.839	78.81
422.062	83.81
422.285	92.81
422.507	68.81
422.73	91.81
422.953	82.81
423.175	98.81
423.398	96.81
423.621	79.81
423.843	91.81
424.066	87.81
424.288	87.81
424.511	74.81
424.733	104.81
424.956	93.81
425.178	97.81
425.401	130.81
425.623	151.81
425.846	94.81
426.068	98.81
426.291	97.81
426.513	97.81
426.735	81.81
426.958	99.81
427.18	84.81
427.402	116.81
427.625	134.81
427.847	108.81
428.069	93.81
428.292	82.81
428.514	99.81
428.736	101.81
428.958	119.81
429.181	130.81
429.403	97.81
429.625	85.81
429.847	100.81
430.069	99.81
430.292	80.81
430.514	72.81
430.736	79.81
430.958	81.81
431.18	89.81
431.402	91.81
431.624	78.81
431.846	86.81
432.068	84.81
432.29	81.81
432.512	85.81
432.734	75.81
432.956	88.81
433.178	87.81
433.4	93.81
433.622	93.81
433.844	99.81
434.066	127.81
434.287	118.81
434.509	112.81
434.731	97.81
434.953	89.81
435.175	96.81
435.397	110.81
435.618	103.81
435.84	96.81
436.062	104.81
436.284	80.81
436.505	80.81
436.727	80.81
436.949	97.81
437.17	98.81
437.392	95.81
437.614	88.81
437.835	75.81
438.057	86.81
438.278	85.81
438.5	95.81
438.721	94.81
438.943	93.81
439.165	87.81
439.386	77.81
439.608	79.81
439.829	88.81
440.05	90.81
440.272	73.81
440.493	83.81
440.715	85.81
440.936	62.81
441.158	96.81
441.379	100.81
441.6	79.81
441.822	87.81
442.043	80.81
442.264	84.81
442.486	87.81
442.707	101.81
442.928	78.81
443.149	82.81
443.371	86.81
443.592	85.81
443.813	102.81
444.034	81.81
444.255	83.81
444.476	87.81
444.698	73.81
444.919	92.81
445.14	177.81
445.361	118.81
445.582	75.81
445.803	88.81
446.024	105.81
446.245	95.81
446.466	78.81
446.687	84.81
446.908	87.81
447.129	96.81
447.35	92.81
447.571	92.81
447.792	93.81
448.013	77.81
448.234	96.81
448.455	66.81
448.675	83.81
448.896	94.81
449.117	79.81
449.338	85.81
449.559	92.81
449.779	76.81
450	88.81
450.221	103.81
450.442	79.81
450.662	87.81
450.883	85.81
451.104	68.81
451.324	77.81
451.545	77.81
451.766	78.81
451.986	75.81
452.207	94.81
452.428	81.81
452.648	103.81
452.869	98.81
453.089	96.81
453.31	93.81
453.53	82.81
453.751	79.81
453.971	90.81
454.192	96.81
454.412	88.81
454.633	113.81
454.853	96.81
455.073	76.81
455.294	89.81
455.514	97.81
455.734	82.81
455.955	80.81
456.175	82.81
456.395	82.81
456.616	92.81
456.836	80.81
457.056	78.81
457.276	81.81
457.497	89.81
457.717	89.81
457.937	92.81
458.157	99.81
458.377	73.81
458.598	91.81
458.818	99.81
459.038	86.81
459.258	82.81
459.478	81.81
459.698	83.81
459.918	88.81
460.138	101.81
460.358	90.81
460.578	82.81
460.798	90.81
461.018	81.81
461.238	97.81
461.458	98.81
461.678	113.81
461.898	92.81
462.118	95.81
462.338	100.81
462.558	91.81
462.777	104.81
462.997	88.81
463.217	88.81
463.437	69.81
463.657	82.81
463.876	75.81
464.096	78.81
464.316	83.81
464.536	112.81
464.755	106.81
464.975	92.81
465.195	92.81
465.414	117.81
465.634	87.81
465.854	82.81
466.073	83.81
466.293	83.81
466.512	90.81
466.732	88.81
466.951	78.81
467.171	79.81
467.391	79.81
467.61	88.81
467.829	96.81
468.049	74.81
468.268	79.81
468.488	87.81
468.707	89.81
468.927	75.81
469.146	96.81
469.365	86.81
469.585	84.81
469.804	83.81
470.023	90.81
470.243	82.81
470.462	88.81
470.681	79.81
470.901	87.81
471.12	87.81
471.339	88.81
471.558	92.81
471.777	86.81
471.997	96.81
472.216	97.81
472.435	75.81
472.654	94.81
472.873	96.81
473.092	87.81
473.311	96.81
473.53	81.81
473.749	96.81
473.968	88.81
474.187	93.81
474.406	76.81
474.625	91.81
474.844	89.81
475.063	82.81
475.282	88.81
475.501	80.81
475.72	103.81
475.939	102.81
476.158	94.81
476.377	91.81
476.596	79.81
476.814	74.81
477.033	94.81
477.252	81.81
477.471	91.81
477.69	84.81
477.908	93.81
478.127	83.81
478.346	77.81
478.564	92.81
478.783	88.81
479.002	89.81
479.22	98.81
479.439	87.81
479.658	89.81
479.876	92.81
480.095	89.81
480.313	96.81
480.532	86.81
480.751	84.81
480.969	82.81
481.188	87.81
481.406	75.81
481.624	91.81
481.843	84.81
482.061	80.81
482.28	84.81
482.498	82.81
482.717	79.81
482.935	97.81
483.153	89.81
483.372	91.81
483.59	81.81
483.808	88.81
484.027	95.81
484.245	93.81
484.463	90.81
484.681	90.81
484.9	86.81
485.118	96.81
485.336	84.81
485.554	77.81
485.772	81.81
485.99	106.81
486.209	95.81
486.427	93.81
486.645	70.81
486.863	85.81
487.081	101.81
487.299	105.81
487.517	89.81
487.735	78.81
487.953	91.81
488.171	91.81
488.389	93.81
488.607	89.81
488.825	93.81
489.043	103.81
489.261	99.81
489.479	91.81
489.696	99.81
489.914	91.81
490.132	76.81
490.35	77.81
490.568	94.81
490.786	79.81
491.003	70.81
491.221	69.81
491.439	91.81
491.657	88.81
491.874	79.81
492.092	90.81
492.31	108.81
492.527	106.81
492.745	80.81
492.963	96.81
493.18	82.81
493.398	100.81
493.615	88.81
493.833	90.81
494.05	87.81
494.268	93.81
494.485	86.81
494.703	87.81
494.92	84.81
495.138	109.81
495.355	99.81
495.573	99.81
495.79	96.81
496.008	73.81
496.225	75.81
496.442	88.81
496.66	93.81
496.877	90.81
497.094	92.81
497.312	89.81
497.529	84.81
497.746	81.81
497.963	87.81
498.181	83.81
498.398	80.81
498.615	80.81
498.832	86.81
499.049	76.81
499.267	88.81
499.484	80.81
499.701	96.81
499.918	84.81
500.135	90.81
500.352	88.81
500.569	92.81
500.786	88.81
501.003	91.81
501.22	93.81
501.437	82.81
501.654	87.81
501.871	98.81
502.088	84.81
502.305	89.81
502.522	87.81
502.739	96.81
502.956	90.81
503.172	95.81
503.389	89.81
503.606	80.81
503.823	76.81
504.04	90.81
504.256	99.81
504.473	97.81
504.69	93.81
504.907	85.81
505.123	78.81
505.34	97.81
505.557	78.81
505.773	93.81
505.99	87.81
506.207	94.81
506.423	89.81
506.64	100.81
506.856	83.81
507.073	92.81
507.289	92.81
507.506	91.81
507.722	90.81
507.939	97.81
508.155	81.81
508.372	100.81
508.588	75.81
508.805	85.81
509.021	72.81
509.238	83.81
509.454	68.81
509.67	83.81
509.887	101.81
510.103	87.81
510.319	80.81
510.536	91.81
510.752	85.81
510.968	96.81
511.184	92.81
511.401	67.81
511.617	88.81
511.833	89.81
512.049	80.81
512.265	80.81
512.481	100.81
512.698	77.81
512.914	93.81
513.13	85.81
513.346	96.81
513.562	80.81
513.778	92.81
513.994	91.81
514.21	98.81
514.426	94.81
514.642	91.81
514.858	93.81
515.074	95.81
515.29	89.81
515.506	81.81
515.721	83.81
515.937	83.81
516.153	85.81
516.369	95.81
516.585	100.81
516.801	100.81
517.016	94.81
517.232	83.81
517.448	77.81
517.664	75.81
517.879	85.81
518.095	85.81
518.311	87.81
518.527	95.81
518.742	92.81
