Data from StA_HRD10591_057.txt Node
Date: Fri May 16 15:19:12 EDT 2025
User: Yrep
Spectrometer: HR+D1059
Trigger mode: 1
Integration Time (sec): 1.000000E-1
Scans to average: 1
Electric dark correction enabled: true
Nonlinearity correction enabled: false
Boxcar width: 0
XAxis mode: Wavelengths
Number of Pixels in Spectrum: 2048
>>>>>Begin Spectral Data<<<<<
223.165	-22.81
223.4	-22.81
223.635	-22.81
223.869	-11.81
224.104	-21.81
224.338	-7.81
224.573	-25.81
224.808	-19.81
225.042	-9.81
225.277	-13.81
225.511	-0.81
225.746	8.19
225.98	6.19
226.215	9.19
226.449	20.19
226.683	21.19
226.918	30.19
227.152	39.19
227.387	39.19
227.621	38.19
227.856	36.19
228.09	44.19
228.324	61.19
228.559	68.19
228.793	54.19
229.027	74.19
229.262	62.19
229.496	78.19
229.73	71.19
229.964	89.19
230.199	90.19
230.433	88.19
230.667	95.19
230.901	93.19
231.136	91.19
231.37	100.19
231.604	83.19
231.838	90.19
232.072	102.19
232.306	102.19
232.541	96.19
232.775	91.19
233.009	85.19
233.243	100.19
233.477	84.19
233.711	90.19
233.945	80.19
234.179	88.19
234.413	94.19
234.647	89.19
234.881	97.19
235.115	82.19
235.349	79.19
235.583	78.19
235.817	95.19
236.051	91.19
236.285	93.19
236.519	83.19
236.753	86.19
236.987	91.19
237.221	79.19
237.455	63.19
237.689	87.19
237.922	89.19
238.156	90.19
238.39	98.19
238.624	72.19
238.858	83.19
239.091	89.19
239.325	86.19
239.559	90.19
239.793	85.19
240.027	93.19
240.26	92.19
240.494	117.19
240.728	82.19
240.961	82.19
241.195	101.19
241.429	82.19
241.662	99.19
241.896	112.19
242.13	95.19
242.363	95.19
242.597	92.19
242.83	98.19
243.064	87.19
243.298	94.19
243.531	88.19
243.765	89.19
243.998	96.19
244.232	83.19
244.465	104.19
244.699	94.19
244.932	85.19
245.166	101.19
245.399	101.19
245.633	110.19
245.866	102.19
246.099	108.19
246.333	118.19
246.566	102.19
246.8	112.19
247.033	100.19
247.266	110.19
247.5	109.19
247.733	101.19
247.966	114.19
248.2	121.19
248.433	122.19
248.666	124.19
248.899	129.19
249.133	116.19
249.366	125.19
249.599	138.19
249.832	135.19
250.066	127.19
250.299	122.19
250.532	110.19
250.765	107.19
250.998	121.19
251.231	114.19
251.465	128.19
251.698	139.19
251.931	134.19
252.164	137.19
252.397	144.19
252.63	143.19
252.863	143.19
253.096	149.19
253.329	146.19
253.562	131.19
253.795	149.19
254.028	146.19
254.261	153.19
254.494	143.19
254.727	133.19
254.96	157.19
255.193	150.19
255.426	144.19
255.659	143.19
255.892	156.19
256.124	157.19
256.357	166.19
256.59	163.19
256.823	147.19
257.056	163.19
257.289	178.19
257.521	158.19
257.754	169.19
257.987	180.19
258.22	156.19
258.452	161.19
258.685	171.19
258.918	165.19
259.151	159.19
259.383	176.19
259.616	156.19
259.849	168.19
260.081	151.19
260.314	164.19
260.547	164.19
260.779	179.19
261.012	171.19
261.244	191.19
261.477	176.19
261.71	170.19
261.942	181.19
262.175	182.19
262.407	189.19
262.64	195.19
262.872	196.19
263.105	186.19
263.337	186.19
263.57	190.19
263.802	178.19
264.035	176.19
264.267	174.19
264.499	164.19
264.732	157.19
264.964	178.19
265.197	182.19
265.429	209.19
265.661	228.19
265.894	228.19
266.126	269.19
266.358	306.19
266.591	320.19
266.823	324.19
267.055	323.19
267.287	338.19
267.52	335.19
267.752	364.19
267.984	393.19
268.216	292.19
268.448	252.19
268.681	264.19
268.913	298.19
269.145	326.19
269.377	295.19
269.609	281.19
269.841	313.19
270.073	314.19
270.306	295.19
270.538	254.19
270.77	238.19
271.002	266.19
271.234	276.19
271.466	249.19
271.698	229.19
271.93	255.19
272.162	300.19
272.394	267.19
272.626	260.19
272.858	243.19
273.09	215.19
273.322	195.19
273.553	209.19
273.785	221.19
274.017	239.19
274.249	275.19
274.481	316.19
274.713	330.19
274.945	356.19
275.176	406.19
275.408	386.19
275.64	374.19
275.872	406.19
276.104	479.19
276.335	472.19
276.567	482.19
276.799	428.19
277.031	379.19
277.262	284.19
277.494	267.19
277.726	314.19
277.957	324.19
278.189	329.19
278.421	314.19
278.652	282.19
278.884	317.19
279.115	304.19
279.347	283.19
279.579	262.19
279.81	269.19
280.042	274.19
280.273	290.19
280.505	251.19
280.736	241.19
280.968	268.19
281.199	300.19
281.431	321.19
281.662	308.19
281.894	354.19
282.125	398.19
282.356	403.19
282.588	378.19
282.819	361.19
283.051	428.19
283.282	505.19
283.513	546.19
283.745	614.19
283.976	543.19
284.207	542.19
284.439	546.19
284.67	486.19
284.901	510.19
285.132	558.19
285.364	549.19
285.595	550.19
285.826	562.19
286.057	540.19
286.288	565.19
286.52	608.19
286.751	616.19
286.982	532.19
287.213	453.19
287.444	474.19
287.675	502.19
287.906	458.19
288.138	371.19
288.369	328.19
288.6	316.19
288.831	370.19
289.062	434.19
289.293	439.19
289.524	459.19
289.755	471.19
289.986	432.19
290.217	333.19
290.448	272.19
290.679	273.19
290.91	270.19
291.141	270.19
291.371	282.19
291.602	290.19
291.833	287.19
292.064	322.19
292.295	388.19
292.526	404.19
292.757	432.19
292.987	427.19
293.218	394.19
293.449	378.19
293.68	363.19
293.91	328.19
294.141	275.19
294.372	285.19
294.603	265.19
294.833	280.19
295.064	277.19
295.295	273.19
295.525	278.19
295.756	259.19
295.987	256.19
296.217	265.19
296.448	262.19
296.679	278.19
296.909	299.19
297.14	341.19
297.37	367.19
297.601	337.19
297.831	328.19
298.062	371.19
298.292	359.19
298.523	374.19
298.753	389.19
298.984	373.19
299.214	318.19
299.445	263.19
299.675	243.19
299.905	236.19
300.136	215.19
300.366	228.19
300.597	235.19
300.827	219.19
301.057	224.19
301.288	268.19
301.518	299.19
301.748	326.19
301.979	312.19
302.209	291.19
302.439	286.19
302.669	314.19
302.9	312.19
303.13	276.19
303.36	275.19
303.59	264.19
303.82	287.19
304.051	333.19
304.281	349.19
304.511	320.19
304.741	298.19
304.971	322.19
305.201	324.19
305.431	299.19
305.661	256.19
305.891	233.19
306.121	218.19
306.352	216.19
306.582	194.19
306.812	223.19
307.042	200.19
307.272	185.19
307.502	208.19
307.731	198.19
307.961	205.19
308.191	192.19
308.421	216.19
308.651	200.19
308.881	195.19
309.111	200.19
309.341	221.19
309.571	255.19
309.8	233.19
310.03	214.19
310.26	208.19
310.49	238.19
310.72	226.19
310.949	254.19
311.179	271.19
311.409	322.19
311.639	375.19
311.868	514.19
312.098	594.19
312.328	593.19
312.557	554.19
312.787	558.19
313.017	528.19
313.246	587.19
313.476	541.19
313.706	415.19
313.935	355.19
314.165	293.19
314.394	273.19
314.624	285.19
314.853	298.19
315.083	283.19
315.312	262.19
315.542	243.19
315.771	218.19
316.001	208.19
316.23	211.19
316.46	213.19
316.689	210.19
316.919	194.19
317.148	229.19
317.377	217.19
317.607	208.19
317.836	252.19
318.065	306.19
318.295	314.19
318.524	262.19
318.753	226.19
318.983	220.19
319.212	204.19
319.441	240.19
319.67	279.19
319.9	321.19
320.129	262.19
320.358	240.19
320.587	239.19
320.816	270.19
321.046	291.19
321.275	275.19
321.504	257.19
321.733	258.19
321.962	261.19
322.191	241.19
322.42	183.19
322.649	193.19
322.878	196.19
323.108	214.19
323.337	247.19
323.566	250.19
323.795	218.19
324.024	232.19
324.253	228.19
324.482	193.19
324.71	166.19
324.939	203.19
325.168	211.19
325.397	216.19
325.626	199.19
325.855	190.19
326.084	213.19
326.313	205.19
326.542	224.19
326.77	227.19
326.999	210.19
327.228	232.19
327.457	194.19
327.686	185.19
327.914	204.19
328.143	213.19
328.372	201.19
328.6	199.19
328.829	207.19
329.058	195.19
329.287	230.19
329.515	230.19
329.744	216.19
329.972	222.19
330.201	192.19
330.43	233.19
330.658	246.19
330.887	271.19
331.115	288.19
331.344	280.19
331.572	266.19
331.801	206.19
332.03	244.19
332.258	259.19
332.486	266.19
332.715	257.19
332.943	240.19
333.172	249.19
333.4	276.19
333.629	324.19
333.857	314.19
334.085	318.19
334.314	300.19
334.542	306.19
334.771	277.19
334.999	262.19
335.227	250.19
335.455	287.19
335.684	322.19
335.912	382.19
336.14	399.19
336.369	366.19
336.597	370.19
336.825	433.19
337.053	376.19
337.281	278.19
337.51	257.19
337.738	270.19
337.966	327.19
338.194	316.19
338.422	278.19
338.65	234.19
338.878	232.19
339.106	243.19
339.334	276.19
339.562	243.19
339.79	253.19
340.018	254.19
340.246	302.19
340.474	346.19
340.702	329.19
340.93	338.19
341.158	302.19
341.386	228.19
341.614	253.19
341.842	260.19
342.07	312.19
342.298	364.19
342.526	314.19
342.754	223.19
342.981	242.19
343.209	253.19
343.437	300.19
343.665	277.19
343.893	244.19
344.12	236.19
344.348	218.19
344.576	209.19
344.804	212.19
345.031	205.19
345.259	204.19
345.487	221.19
345.714	228.19
345.942	206.19
346.17	195.19
346.397	193.19
346.625	188.19
346.853	203.19
347.08	199.19
347.308	198.19
347.535	193.19
347.763	178.19
347.99	188.19
348.218	194.19
348.445	162.19
348.673	182.19
348.9	181.19
349.128	163.19
349.355	173.19
349.583	188.19
349.81	196.19
350.037	168.19
350.265	169.19
350.492	159.19
350.72	182.19
350.947	190.19
351.174	183.19
351.402	173.19
351.629	184.19
351.856	167.19
352.083	175.19
352.311	182.19
352.538	176.19
352.765	184.19
352.992	180.19
353.22	184.19
353.447	169.19
353.674	177.19
353.901	168.19
354.128	182.19
354.355	182.19
354.583	175.19
354.81	193.19
355.037	201.19
355.264	213.19
355.491	196.19
355.718	203.19
355.945	202.19
356.172	200.19
356.399	207.19
356.626	203.19
356.853	203.19
357.08	214.19
357.307	231.19
357.534	281.19
357.761	320.19
357.988	360.19
358.215	299.19
358.441	254.19
358.668	260.19
358.895	247.19
359.122	267.19
359.349	312.19
359.576	304.19
359.802	230.19
360.029	230.19
360.256	248.19
360.483	290.19
360.709	296.19
360.936	237.19
361.163	216.19
361.39	196.19
361.616	204.19
361.843	189.19
362.07	187.19
362.296	191.19
362.523	186.19
362.749	190.19
362.976	182.19
363.203	201.19
363.429	206.19
363.656	226.19
363.882	234.19
364.109	234.19
364.335	212.19
364.562	190.19
364.788	189.19
365.015	225.19
365.241	189.19
365.468	196.19
365.694	205.19
365.92	187.19
366.147	194.19
366.373	197.19
366.599	189.19
366.826	192.19
367.052	185.19
367.278	191.19
367.505	195.19
367.731	210.19
367.957	213.19
368.184	220.19
368.41	192.19
368.636	206.19
368.862	193.19
369.089	178.19
369.315	189.19
369.541	175.19
369.767	188.19
369.993	170.19
370.219	171.19
370.445	183.19
370.672	167.19
370.898	191.19
371.124	186.19
371.35	202.19
371.576	192.19
371.802	215.19
372.028	190.19
372.254	178.19
372.48	196.19
372.706	197.19
372.932	180.19
373.158	185.19
373.384	197.19
373.61	186.19
373.835	201.19
374.061	206.19
374.287	241.19
374.513	231.19
374.739	225.19
374.965	197.19
375.191	198.19
375.416	183.19
375.642	197.19
375.868	189.19
376.094	191.19
376.319	183.19
376.545	174.19
376.771	189.19
376.997	202.19
377.222	191.19
377.448	166.19
377.674	178.19
377.899	175.19
378.125	192.19
378.35	208.19
378.576	184.19
378.802	185.19
379.027	198.19
379.253	207.19
379.478	208.19
379.704	204.19
379.929	204.19
380.155	192.19
380.38	211.19
380.606	210.19
380.831	190.19
381.057	195.19
381.282	198.19
381.507	206.19
381.733	212.19
381.958	195.19
382.184	207.19
382.409	215.19
382.634	211.19
382.86	208.19
383.085	219.19
383.31	188.19
383.535	210.19
383.761	224.19
383.986	221.19
384.211	206.19
384.436	214.19
384.662	212.19
384.887	226.19
385.112	221.19
385.337	235.19
385.562	237.19
385.787	235.19
386.013	231.19
386.238	216.19
386.463	214.19
386.688	231.19
386.913	217.19
387.138	223.19
387.363	199.19
387.588	215.19
387.813	213.19
388.038	203.19
388.263	223.19
388.488	230.19
388.713	234.19
388.938	202.19
389.163	229.19
389.387	204.19
389.612	207.19
389.837	208.19
390.062	207.19
390.287	194.19
390.512	231.19
390.736	226.19
390.961	220.19
391.186	226.19
391.411	209.19
391.636	227.19
391.86	221.19
392.085	245.19
392.31	220.19
392.534	203.19
392.759	215.19
392.984	195.19
393.208	197.19
393.433	203.19
393.658	200.19
393.882	217.19
394.107	203.19
394.331	211.19
394.556	204.19
394.78	199.19
395.005	197.19
395.229	204.19
395.454	207.19
395.678	210.19
395.903	207.19
396.127	236.19
396.352	240.19
396.576	252.19
396.801	246.19
397.025	248.19
397.249	250.19
397.474	238.19
397.698	237.19
397.922	248.19
398.147	237.19
398.371	237.19
398.595	241.19
398.82	226.19
399.044	259.19
399.268	270.19
399.492	242.19
399.717	254.19
399.941	251.19
400.165	252.19
400.389	243.19
400.613	235.19
400.837	226.19
401.062	228.19
401.286	218.19
401.51	216.19
401.734	206.19
401.958	218.19
402.182	222.19
402.406	211.19
402.63	214.19
402.854	230.19
403.078	234.19
403.302	221.19
403.526	221.19
403.75	218.19
403.974	244.19
404.198	226.19
404.422	219.19
404.645	217.19
404.869	215.19
405.093	237.19
405.317	232.19
405.541	229.19
405.765	233.19
405.988	227.19
406.212	215.19
406.436	224.19
406.66	218.19
406.883	220.19
407.107	234.19
407.331	227.19
407.555	238.19
407.778	239.19
408.002	240.19
408.226	226.19
408.449	231.19
408.673	212.19
408.896	223.19
409.12	233.19
409.344	228.19
409.567	217.19
409.791	230.19
410.014	203.19
410.238	205.19
410.461	221.19
410.685	216.19
410.908	206.19
411.132	221.19
411.355	239.19
411.578	228.19
411.802	233.19
412.025	203.19
412.249	245.19
412.472	235.19
412.695	228.19
412.919	212.19
413.142	217.19
413.365	229.19
413.589	235.19
413.812	215.19
414.035	211.19
414.258	243.19
414.482	211.19
414.705	210.19
414.928	234.19
415.151	218.19
415.374	212.19
415.597	223.19
415.821	196.19
416.044	196.19
416.267	226.19
416.49	214.19
416.713	217.19
416.936	215.19
417.159	223.19
417.382	219.19
417.605	215.19
417.828	220.19
418.051	212.19
418.274	207.19
418.497	214.19
418.72	198.19
418.943	216.19
419.166	229.19
419.389	233.19
419.611	245.19
419.834	238.19
420.057	229.19
420.28	219.19
420.503	203.19
420.726	213.19
420.948	219.19
421.171	219.19
421.394	218.19
421.617	216.19
421.839	214.19
422.062	222.19
422.285	215.19
422.507	214.19
422.73	208.19
422.953	216.19
423.175	218.19
423.398	207.19
423.621	211.19
423.843	226.19
424.066	229.19
424.288	238.19
424.511	235.19
424.733	215.19
424.956	241.19
425.178	250.19
425.401	319.19
425.623	380.19
425.846	276.19
426.068	249.19
426.291	242.19
426.513	245.19
426.735	227.19
426.958	248.19
427.18	266.19
427.402	316.19
427.625	358.19
427.847	274.19
428.069	239.19
428.292	240.19
428.514	233.19
428.736	239.19
428.958	284.19
429.181	312.19
429.403	238.19
429.625	230.19
429.847	225.19
430.069	217.19
430.292	226.19
430.514	203.19
430.736	185.19
430.958	206.19
431.18	196.19
431.402	198.19
431.624	206.19
431.846	194.19
432.068	201.19
432.29	220.19
432.512	221.19
432.734	202.19
432.956	206.19
433.178	212.19
433.4	198.19
433.622	228.19
433.844	264.19
434.066	285.19
434.287	246.19
434.509	266.19
434.731	234.19
434.953	243.19
435.175	254.19
435.397	261.19
435.618	219.19
435.84	228.19
436.062	229.19
436.284	230.19
436.505	207.19
436.727	202.19
436.949	211.19
437.17	216.19
437.392	224.19
437.614	234.19
437.835	209.19
438.057	202.19
438.278	205.19
438.5	209.19
438.721	210.19
438.943	207.19
439.165	196.19
439.386	208.19
439.608	203.19
439.829	218.19
440.05	203.19
440.272	188.19
440.493	199.19
440.715	208.19
440.936	206.19
441.158	216.19
441.379	217.19
441.6	204.19
441.822	199.19
442.043	217.19
442.264	204.19
442.486	238.19
442.707	234.19
442.928	237.19
443.149	227.19
443.371	224.19
443.592	217.19
443.813	210.19
444.034	209.19
444.255	218.19
444.476	223.19
444.698	219.19
444.919	219.19
445.14	300.19
445.361	249.19
445.582	223.19
445.803	224.19
446.024	222.19
446.245	216.19
446.466	219.19
446.687	208.19
446.908	213.19
447.129	214.19
447.35	212.19
447.571	214.19
447.792	206.19
448.013	199.19
448.234	198.19
448.455	202.19
448.675	202.19
448.896	219.19
449.117	224.19
449.338	197.19
449.559	220.19
449.779	223.19
450	213.19
450.221	206.19
450.442	202.19
450.662	190.19
450.883	215.19
451.104	193.19
451.324	211.19
451.545	206.19
451.766	204.19
451.986	204.19
452.207	196.19
452.428	195.19
452.648	216.19
452.869	230.19
453.089	205.19
453.31	198.19
453.53	217.19
453.751	223.19
453.971	231.19
454.192	215.19
454.412	223.19
454.633	222.19
454.853	210.19
455.073	183.19
455.294	198.19
455.514	213.19
455.734	222.19
455.955	239.19
456.175	226.19
456.395	198.19
456.616	200.19
456.836	189.19
457.056	190.19
457.276	180.19
457.497	196.19
457.717	182.19
457.937	210.19
458.157	187.19
458.377	203.19
458.598	203.19
458.818	211.19
459.038	225.19
459.258	232.19
459.478	220.19
459.698	229.19
459.918	220.19
460.138	230.19
460.358	219.19
460.578	216.19
460.798	196.19
461.018	215.19
461.238	221.19
461.458	243.19
461.678	248.19
461.898	256.19
462.118	271.19
462.338	259.19
462.558	245.19
462.777	253.19
462.997	251.19
463.217	249.19
463.437	241.19
463.657	231.19
463.876	244.19
464.096	258.19
464.316	245.19
464.536	254.19
464.755	276.19
464.975	255.19
465.195	275.19
465.414	249.19
465.634	218.19
465.854	198.19
466.073	217.19
466.293	185.19
466.512	215.19
466.732	200.19
466.951	215.19
467.171	212.19
467.391	212.19
467.61	212.19
467.829	201.19
468.049	184.19
468.268	184.19
468.488	193.19
468.707	184.19
468.927	205.19
469.146	209.19
469.365	198.19
469.585	212.19
469.804	216.19
470.023	215.19
470.243	216.19
470.462	210.19
470.681	217.19
470.901	212.19
471.12	218.19
471.339	206.19
471.558	210.19
471.777	188.19
471.997	218.19
472.216	215.19
472.435	218.19
472.654	215.19
472.873	210.19
473.092	202.19
473.311	216.19
473.53	197.19
473.749	198.19
473.968	199.19
474.187	190.19
474.406	189.19
474.625	187.19
474.844	188.19
475.063	196.19
475.282	212.19
475.501	227.19
475.72	230.19
475.939	221.19
476.158	206.19
476.377	205.19
476.596	211.19
476.814	214.19
477.033	208.19
477.252	209.19
477.471	204.19
477.69	210.19
477.908	202.19
478.127	212.19
478.346	218.19
478.564	213.19
478.783	227.19
479.002	251.19
479.22	248.19
479.439	247.19
479.658	244.19
479.876	230.19
480.095	229.19
480.313	247.19
480.532	228.19
480.751	217.19
480.969	226.19
481.188	207.19
481.406	221.19
481.624	227.19
481.843	224.19
482.061	224.19
482.28	215.19
482.498	242.19
482.717	247.19
482.935	236.19
483.153	258.19
483.372	209.19
483.59	221.19
483.808	224.19
484.027	224.19
484.245	233.19
484.463	221.19
484.681	219.19
484.9	242.19
485.118	229.19
485.336	222.19
485.554	214.19
485.772	223.19
485.99	222.19
486.209	247.19
486.427	240.19
486.645	238.19
486.863	230.19
487.081	247.19
487.299	266.19
487.517	244.19
487.735	238.19
487.953	244.19
488.171	228.19
488.389	219.19
488.607	240.19
488.825	274.19
489.043	232.19
489.261	231.19
489.479	234.19
489.696	226.19
489.914	213.19
490.132	235.19
490.35	241.19
490.568	244.19
490.786	239.19
491.003	230.19
491.221	243.19
491.439	234.19
491.657	229.19
491.874	252.19
492.092	257.19
492.31	279.19
492.527	296.19
492.745	254.19
492.963	235.19
493.18	248.19
493.398	231.19
493.615	221.19
493.833	257.19
494.05	238.19
494.268	240.19
494.485	247.19
494.703	256.19
494.92	231.19
495.138	243.19
495.355	257.19
495.573	262.19
495.79	242.19
496.008	234.19
496.225	239.19
496.442	242.19
496.66	253.19
496.877	231.19
497.094	264.19
497.312	243.19
497.529	257.19
497.746	273.19
497.963	269.19
498.181	264.19
498.398	272.19
498.615	288.19
498.832	288.19
499.049	316.19
499.267	298.19
499.484	331.19
499.701	329.19
499.918	347.19
500.135	371.19
500.352	372.19
500.569	368.19
500.786	357.19
501.003	363.19
501.22	343.19
501.437	337.19
501.654	308.19
501.871	299.19
502.088	291.19
502.305	279.19
502.522	280.19
502.739	268.19
502.956	274.19
503.172	278.19
503.389	281.19
503.606	246.19
