Data from StA_HRD10591_068.txt Node
Date: Fri May 16 15:19:17 EDT 2025
User: Yrep
Spectrometer: HR+D1059
Trigger mode: 1
Integration Time (sec): 1.000000E-1
Scans to average: 1
Electric dark correction enabled: true
Nonlinearity correction enabled: false
Boxcar width: 0
XAxis mode: Wavelengths
Number of Pixels in Spectrum: 2048
>>>>>Begin Spectral Data<<<<<
223.165	-14.06
223.4	-14.06
223.635	-14.06
223.869	-20.06
224.104	-24.06
224.338	-20.06
224.573	-6.06
224.808	-3.06
225.042	-9.06
225.277	-0.06
225.511	-0.06
225.746	-7.06
225.98	-8.06
226.215	26.94
226.449	21.94
226.683	9.94
226.918	15.94
227.152	36.94
227.387	28.94
227.621	33.94
227.856	51.94
228.09	51.94
228.324	44.94
228.559	51.94
228.793	71.94
229.027	79.94
229.262	74.94
229.496	82.94
229.73	74.94
229.964	78.94
230.199	89.94
230.433	86.94
230.667	81.94
230.901	77.94
231.136	84.94
231.37	98.94
231.604	79.94
231.838	95.94
232.072	98.94
232.306	96.94
232.541	98.94
232.775	93.94
233.009	102.94
233.243	84.94
233.477	84.94
233.711	83.94
233.945	92.94
234.179	85.94
234.413	86.94
234.647	97.94
234.881	85.94
235.115	82.94
235.349	78.94
235.583	98.94
235.817	94.94
236.051	85.94
236.285	85.94
236.519	91.94
236.753	79.94
236.987	97.94
237.221	94.94
237.455	75.94
237.689	89.94
237.922	78.94
238.156	80.94
238.39	91.94
238.624	100.94
238.858	77.94
239.091	97.94
239.325	102.94
239.559	97.94
239.793	86.94
240.027	97.94
240.26	109.94
240.494	104.94
240.728	100.94
240.961	94.94
241.195	97.94
241.429	103.94
241.662	89.94
241.896	89.94
242.13	97.94
242.363	94.94
242.597	71.94
242.83	97.94
243.064	89.94
243.298	90.94
243.531	94.94
243.765	101.94
243.998	102.94
244.232	99.94
244.465	107.94
244.699	107.94
244.932	102.94
245.166	100.94
245.399	113.94
245.633	102.94
245.866	109.94
246.099	91.94
246.333	103.94
246.566	113.94
246.8	110.94
247.033	121.94
247.266	113.94
247.5	108.94
247.733	124.94
247.966	122.94
248.2	112.94
248.433	126.94
248.666	134.94
248.899	124.94
249.133	121.94
249.366	124.94
249.599	111.94
249.832	124.94
250.066	146.94
250.299	141.94
250.532	140.94
250.765	142.94
250.998	123.94
251.231	133.94
251.465	129.94
251.698	125.94
251.931	139.94
252.164	163.94
252.397	153.94
252.63	153.94
252.863	153.94
253.096	137.94
253.329	174.94
253.562	153.94
253.795	149.94
254.028	156.94
254.261	150.94
254.494	150.94
254.727	155.94
254.96	145.94
255.193	139.94
255.426	156.94
255.659	136.94
255.892	147.94
256.124	158.94
256.357	158.94
256.59	168.94
256.823	161.94
257.056	166.94
257.289	169.94
257.521	170.94
257.754	162.94
257.987	159.94
258.22	169.94
258.452	154.94
258.685	155.94
258.918	177.94
259.151	175.94
259.383	165.94
259.616	167.94
259.849	166.94
260.081	168.94
260.314	171.94
260.547	165.94
260.779	168.94
261.012	188.94
261.244	191.94
261.477	205.94
261.71	173.94
261.942	180.94
262.175	185.94
262.407	193.94
262.64	188.94
262.872	188.94
263.105	198.94
263.337	183.94
263.57	186.94
263.802	184.94
264.035	170.94
264.267	165.94
264.499	179.94
264.732	156.94
264.964	175.94
265.197	179.94
265.429	211.94
265.661	222.94
265.894	229.94
266.126	273.94
266.358	293.94
266.591	317.94
266.823	329.94
267.055	328.94
267.287	322.94
267.52	340.94
267.752	362.94
267.984	372.94
268.216	288.94
268.448	243.94
268.681	247.94
268.913	278.94
269.145	297.94
269.377	288.94
269.609	269.94
269.841	299.94
270.073	317.94
270.306	273.94
270.538	268.94
270.77	242.94
271.002	263.94
271.234	264.94
271.466	241.94
271.698	231.94
271.93	239.94
272.162	267.94
272.394	282.94
272.626	263.94
272.858	233.94
273.09	213.94
273.322	202.94
273.553	201.94
273.785	197.94
274.017	239.94
274.249	268.94
274.481	316.94
274.713	336.94
274.945	355.94
275.176	393.94
275.408	402.94
275.64	364.94
275.872	418.94
276.104	447.94
276.335	444.94
276.567	452.94
276.799	438.94
277.031	371.94
277.262	282.94
277.494	278.94
277.726	274.94
277.957	294.94
278.189	344.94
278.421	312.94
278.652	326.94
278.884	313.94
279.115	305.94
279.347	278.94
279.579	261.94
279.81	244.94
280.042	293.94
280.273	280.94
280.505	237.94
280.736	241.94
280.968	264.94
281.199	298.94
281.431	325.94
281.662	325.94
281.894	326.94
282.125	368.94
282.356	398.94
282.588	372.94
282.819	356.94
283.051	406.94
283.282	481.94
283.513	538.94
283.745	593.94
283.976	545.94
284.207	523.94
284.439	542.94
284.67	521.94
284.901	488.94
285.132	521.94
285.364	539.94
285.595	511.94
285.826	539.94
286.057	537.94
286.288	525.94
286.52	575.94
286.751	581.94
286.982	538.94
287.213	452.94
287.444	467.94
287.675	485.94
287.906	467.94
288.138	358.94
288.369	328.94
288.6	334.94
288.831	357.94
289.062	411.94
289.293	435.94
289.524	415.94
289.755	445.94
289.986	432.94
290.217	324.94
290.448	278.94
290.679	259.94
290.91	253.94
291.141	289.94
291.371	287.94
291.602	267.94
291.833	327.94
292.064	330.94
292.295	373.94
292.526	393.94
292.757	385.94
292.987	430.94
293.218	395.94
293.449	377.94
293.68	363.94
293.91	304.94
294.141	297.94
294.372	284.94
294.603	258.94
294.833	255.94
295.064	266.94
295.295	289.94
295.525	269.94
295.756	233.94
295.987	247.94
296.217	261.94
296.448	259.94
296.679	278.94
296.909	285.94
297.14	324.94
297.37	363.94
297.601	316.94
297.831	325.94
298.062	349.94
298.292	349.94
298.523	366.94
298.753	396.94
298.984	363.94
299.214	292.94
299.445	261.94
299.675	257.94
299.905	234.94
300.136	225.94
300.366	230.94
300.597	216.94
300.827	221.94
301.057	231.94
301.288	260.94
301.518	297.94
301.748	305.94
301.979	289.94
302.209	293.94
302.439	302.94
302.669	305.94
302.9	300.94
303.13	270.94
303.36	248.94
303.59	258.94
303.82	312.94
304.051	313.94
304.281	363.94
304.511	333.94
304.741	305.94
304.971	315.94
305.201	321.94
305.431	268.94
305.661	249.94
305.891	233.94
306.121	210.94
306.352	217.94
306.582	222.94
306.812	197.94
307.042	206.94
307.272	182.94
307.502	207.94
307.731	207.94
307.961	223.94
308.191	214.94
308.421	207.94
308.651	201.94
308.881	210.94
309.111	210.94
309.341	227.94
309.571	245.94
309.8	233.94
310.03	212.94
310.26	212.94
310.49	233.94
310.72	238.94
310.949	245.94
311.179	267.94
311.409	289.94
311.639	390.94
311.868	520.94
312.098	602.94
312.328	575.94
312.557	593.94
312.787	560.94
313.017	525.94
313.246	575.94
313.476	546.94
313.706	433.94
313.935	353.94
314.165	295.94
314.394	271.94
314.624	299.94
314.853	295.94
315.083	280.94
315.312	249.94
315.542	235.94
315.771	197.94
316.001	212.94
316.23	205.94
316.46	196.94
316.689	207.94
316.919	211.94
317.148	218.94
317.377	223.94
317.607	219.94
317.836	254.94
318.065	301.94
318.295	315.94
318.524	257.94
318.753	241.94
318.983	234.94
319.212	207.94
319.441	243.94
319.67	293.94
319.9	299.94
320.129	267.94
320.358	241.94
320.587	239.94
320.816	251.94
321.046	286.94
321.275	268.94
321.504	261.94
321.733	261.94
321.962	263.94
322.191	220.94
322.42	197.94
322.649	207.94
322.878	213.94
323.108	215.94
323.337	234.94
323.566	245.94
323.795	244.94
324.024	234.94
324.253	211.94
324.482	196.94
324.71	191.94
324.939	201.94
325.168	222.94
325.397	205.94
325.626	189.94
325.855	195.94
326.084	209.94
326.313	220.94
326.542	209.94
326.77	218.94
326.999	225.94
327.228	218.94
327.457	206.94
327.686	200.94
327.914	190.94
328.143	171.94
328.372	195.94
328.6	202.94
328.829	215.94
329.058	221.94
329.287	242.94
329.515	218.94
329.744	231.94
329.972	211.94
330.201	197.94
330.43	212.94
330.658	243.94
330.887	282.94
331.115	269.94
331.344	268.94
331.572	252.94
331.801	241.94
332.03	228.94
332.258	241.94
332.486	261.94
332.715	265.94
332.943	236.94
333.172	244.94
333.4	274.94
333.629	328.94
333.857	317.94
334.085	307.94
334.314	307.94
334.542	301.94
334.771	261.94
334.999	248.94
335.227	250.94
335.455	285.94
335.684	330.94
335.912	401.94
336.14	389.94
336.369	358.94
336.597	373.94
336.825	383.94
337.053	380.94
337.281	280.94
337.51	249.94
337.738	272.94
337.966	282.94
338.194	301.94
338.422	270.94
338.65	227.94
338.878	243.94
339.106	244.94
339.334	274.94
339.562	273.94
339.79	259.94
340.018	262.94
340.246	295.94
340.474	315.94
340.702	315.94
340.93	333.94
341.158	293.94
341.386	249.94
341.614	243.94
341.842	267.94
342.07	330.94
342.298	346.94
342.526	303.94
342.754	248.94
342.981	232.94
343.209	252.94
343.437	282.94
343.665	244.94
343.893	229.94
344.12	204.94
344.348	209.94
344.576	209.94
344.804	186.94
345.031	203.94
345.259	213.94
345.487	225.94
345.714	205.94
345.942	196.94
346.17	196.94
346.397	185.94
346.625	169.94
346.853	175.94
347.08	197.94
347.308	190.94
347.535	196.94
347.763	193.94
347.99	168.94
348.218	174.94
348.445	181.94
348.673	189.94
348.9	191.94
349.128	167.94
349.355	171.94
349.583	194.94
349.81	185.94
350.037	169.94
350.265	166.94
350.492	181.94
350.72	191.94
350.947	181.94
351.174	180.94
351.402	203.94
351.629	161.94
351.856	178.94
352.083	185.94
352.311	173.94
352.538	179.94
352.765	173.94
352.992	179.94
353.22	180.94
353.447	173.94
353.674	185.94
353.901	173.94
354.128	181.94
354.355	166.94
354.583	190.94
354.81	201.94
355.037	197.94
355.264	191.94
355.491	201.94
355.718	204.94
355.945	203.94
356.172	206.94
356.399	206.94
356.626	194.94
356.853	209.94
357.08	204.94
357.307	223.94
357.534	269.94
357.761	311.94
357.988	341.94
358.215	274.94
358.441	245.94
358.668	256.94
358.895	251.94
359.122	268.94
359.349	299.94
359.576	282.94
359.802	243.94
360.029	229.94
360.256	250.94
360.483	321.94
360.709	295.94
360.936	247.94
361.163	211.94
361.39	199.94
361.616	188.94
361.843	180.94
362.07	176.94
362.296	181.94
362.523	183.94
362.749	199.94
362.976	210.94
363.203	226.94
363.429	214.94
363.656	217.94
363.882	215.94
364.109	217.94
364.335	221.94
364.562	206.94
364.788	193.94
365.015	180.94
365.241	222.94
365.468	192.94
365.694	209.94
365.92	178.94
366.147	175.94
366.373	207.94
366.599	197.94
366.826	194.94
367.052	199.94
367.278	187.94
367.505	201.94
367.731	213.94
367.957	226.94
368.184	201.94
368.41	192.94
368.636	188.94
368.862	202.94
369.089	197.94
369.315	173.94
369.541	191.94
369.767	195.94
369.993	176.94
370.219	188.94
370.445	183.94
370.672	177.94
370.898	166.94
371.124	176.94
371.35	209.94
371.576	210.94
371.802	201.94
372.028	190.94
372.254	179.94
372.48	193.94
372.706	179.94
372.932	184.94
373.158	215.94
373.384	201.94
373.61	180.94
373.835	194.94
374.061	202.94
374.287	227.94
374.513	225.94
374.739	222.94
374.965	213.94
375.191	201.94
375.416	201.94
375.642	197.94
375.868	179.94
376.094	187.94
376.319	191.94
376.545	186.94
376.771	193.94
376.997	179.94
377.222	183.94
377.448	173.94
377.674	199.94
377.899	178.94
378.125	185.94
378.35	172.94
378.576	169.94
378.802	198.94
379.027	195.94
379.253	212.94
379.478	205.94
379.704	192.94
379.929	194.94
380.155	194.94
380.38	195.94
380.606	211.94
380.831	200.94
381.057	192.94
381.282	203.94
381.507	203.94
381.733	226.94
381.958	201.94
382.184	203.94
382.409	198.94
382.634	204.94
382.86	201.94
383.085	207.94
383.31	202.94
383.535	209.94
383.761	201.94
383.986	209.94
384.211	217.94
384.436	191.94
384.662	202.94
384.887	205.94
385.112	224.94
385.337	236.94
385.562	230.94
385.787	220.94
386.013	208.94
386.238	208.94
386.463	207.94
386.688	221.94
386.913	212.94
387.138	219.94
387.363	219.94
387.588	208.94
387.813	223.94
388.038	217.94
388.263	228.94
388.488	210.94
388.713	227.94
388.938	207.94
389.163	205.94
389.387	205.94
389.612	210.94
389.837	203.94
390.062	202.94
390.287	213.94
390.512	205.94
390.736	190.94
390.961	220.94
391.186	235.94
391.411	229.94
391.636	231.94
391.86	246.94
392.085	231.94
392.31	219.94
392.534	187.94
392.759	202.94
392.984	207.94
393.208	200.94
393.433	195.94
393.658	198.94
393.882	200.94
394.107	192.94
394.331	205.94
394.556	204.94
394.78	189.94
395.005	197.94
395.229	220.94
395.454	218.94
395.678	225.94
395.903	202.94
396.127	219.94
396.352	237.94
396.576	263.94
396.801	249.94
397.025	259.94
397.249	247.94
397.474	218.94
397.698	247.94
397.922	252.94
398.147	237.94
398.371	226.94
398.595	253.94
398.82	246.94
399.044	261.94
399.268	260.94
399.492	239.94
399.717	257.94
399.941	244.94
400.165	243.94
400.389	230.94
400.613	238.94
400.837	223.94
401.062	214.94
401.286	211.94
401.51	218.94
401.734	239.94
401.958	218.94
402.182	202.94
402.406	214.94
402.63	225.94
402.854	216.94
403.078	209.94
403.302	223.94
403.526	235.94
403.75	215.94
403.974	226.94
404.198	225.94
404.422	222.94
404.645	209.94
404.869	206.94
405.093	231.94
405.317	238.94
405.541	231.94
405.765	225.94
405.988	242.94
406.212	211.94
406.436	226.94
406.66	243.94
406.883	215.94
407.107	224.94
407.331	232.94
407.555	243.94
407.778	244.94
408.002	233.94
408.226	230.94
408.449	216.94
408.673	209.94
408.896	222.94
409.12	234.94
409.344	238.94
409.567	227.94
409.791	237.94
410.014	231.94
410.238	205.94
410.461	207.94
410.685	220.94
410.908	211.94
411.132	225.94
411.355	231.94
411.578	243.94
411.802	235.94
412.025	241.94
412.249	229.94
412.472	239.94
412.695	235.94
412.919	240.94
413.142	225.94
413.365	231.94
413.589	226.94
413.812	223.94
414.035	222.94
414.258	206.94
414.482	216.94
414.705	212.94
414.928	220.94
415.151	222.94
415.374	218.94
415.597	223.94
415.821	214.94
416.044	199.94
416.267	216.94
416.49	223.94
416.713	217.94
416.936	225.94
417.159	221.94
417.382	233.94
417.605	213.94
417.828	228.94
418.051	220.94
418.274	224.94
418.497	197.94
418.72	221.94
418.943	226.94
419.166	225.94
419.389	225.94
419.611	245.94
419.834	236.94
420.057	229.94
420.28	219.94
420.503	229.94
420.726	214.94
420.948	204.94
421.171	248.94
421.394	216.94
421.617	210.94
421.839	197.94
422.062	220.94
422.285	215.94
422.507	209.94
422.73	205.94
422.953	222.94
423.175	216.94
423.398	207.94
423.621	214.94
423.843	217.94
424.066	209.94
424.288	232.94
424.511	212.94
424.733	197.94
424.956	226.94
425.178	252.94
425.401	329.94
425.623	355.94
425.846	260.94
426.068	237.94
426.291	242.94
426.513	224.94
426.735	235.94
426.958	243.94
427.18	255.94
427.402	302.94
427.625	361.94
427.847	271.94
428.069	228.94
428.292	232.94
428.514	240.94
428.736	253.94
428.958	275.94
429.181	311.94
429.403	231.94
429.625	213.94
429.847	209.94
430.069	221.94
430.292	209.94
430.514	225.94
430.736	201.94
430.958	212.94
431.18	197.94
431.402	197.94
431.624	196.94
431.846	213.94
432.068	211.94
432.29	199.94
432.512	191.94
432.734	192.94
432.956	214.94
433.178	196.94
433.4	211.94
433.622	228.94
433.844	237.94
434.066	272.94
434.287	244.94
434.509	270.94
434.731	248.94
434.953	211.94
435.175	263.94
435.397	275.94
435.618	214.94
435.84	223.94
436.062	214.94
436.284	221.94
436.505	215.94
436.727	234.94
436.949	206.94
437.17	231.94
437.392	227.94
437.614	214.94
437.835	217.94
438.057	220.94
438.278	213.94
438.5	202.94
438.721	208.94
438.943	209.94
439.165	211.94
439.386	180.94
439.608	190.94
439.829	192.94
440.05	203.94
440.272	201.94
440.493	190.94
440.715	197.94
440.936	216.94
441.158	201.94
441.379	221.94
441.6	206.94
441.822	217.94
442.043	211.94
442.264	216.94
442.486	235.94
442.707	215.94
442.928	215.94
443.149	205.94
443.371	222.94
443.592	219.94
443.813	208.94
444.034	211.94
444.255	226.94
444.476	220.94
444.698	214.94
444.919	206.94
445.14	296.94
445.361	252.94
445.582	213.94
445.803	222.94
446.024	220.94
446.245	209.94
446.466	220.94
446.687	225.94
446.908	185.94
447.129	194.94
447.35	201.94
447.571	210.94
447.792	199.94
448.013	195.94
448.234	189.94
448.455	192.94
448.675	197.94
448.896	218.94
449.117	207.94
449.338	199.94
449.559	205.94
449.779	210.94
450	234.94
450.221	221.94
450.442	207.94
450.662	196.94
450.883	210.94
451.104	206.94
451.324	219.94
451.545	206.94
451.766	210.94
451.986	215.94
452.207	216.94
452.428	211.94
452.648	227.94
452.869	214.94
453.089	226.94
453.31	227.94
453.53	206.94
453.751	212.94
453.971	196.94
454.192	223.94
454.412	207.94
454.633	212.94
454.853	217.94
455.073	189.94
455.294	194.94
455.514	189.94
455.734	217.94
455.955	230.94
456.175	246.94
456.395	194.94
456.616	216.94
456.836	197.94
457.056	183.94
457.276	196.94
457.497	203.94
457.717	171.94
457.937	196.94
458.157	196.94
458.377	182.94
458.598	195.94
458.818	226.94
459.038	219.94
459.258	242.94
459.478	230.94
459.698	232.94
459.918	215.94
460.138	230.94
460.358	239.94
460.578	222.94
460.798	193.94
461.018	210.94
461.238	222.94
461.458	227.94
461.678	257.94
461.898	264.94
462.118	243.94
462.338	238.94
462.558	265.94
462.777	254.94
462.997	247.94
463.217	234.94
463.437	246.94
463.657	250.94
463.876	229.94
464.096	254.94
464.316	230.94
464.536	259.94
464.755	292.94
464.975	261.94
465.195	252.94
465.414	247.94
465.634	208.94
465.854	215.94
466.073	214.94
466.293	213.94
466.512	225.94
466.732	242.94
466.951	213.94
467.171	217.94
467.391	202.94
467.61	198.94
467.829	213.94
468.049	199.94
468.268	189.94
468.488	185.94
468.707	204.94
468.927	197.94
469.146	205.94
469.365	201.94
469.585	197.94
469.804	207.94
470.023	238.94
470.243	214.94
470.462	195.94
470.681	215.94
470.901	208.94
471.12	205.94
471.339	198.94
471.558	209.94
471.777	205.94
471.997	229.94
472.216	207.94
472.435	213.94
472.654	204.94
472.873	213.94
473.092	200.94
473.311	205.94
473.53	211.94
473.749	216.94
473.968	224.94
474.187	195.94
474.406	206.94
474.625	186.94
474.844	195.94
475.063	186.94
475.282	207.94
475.501	213.94
475.72	227.94
475.939	213.94
476.158	206.94
476.377	202.94
476.596	232.94
476.814	205.94
477.033	225.94
477.252	189.94
477.471	220.94
477.69	206.94
477.908	219.94
478.127	222.94
478.346	230.94
478.564	222.94
478.783	222.94
479.002	245.94
479.22	247.94
479.439	229.94
479.658	234.94
479.876	237.94
480.095	226.94
480.313	245.94
480.532	234.94
480.751	222.94
480.969	221.94
481.188	229.94
481.406	226.94
481.624	214.94
481.843	204.94
482.061	209.94
482.28	227.94
482.498	229.94
482.717	232.94
482.935	234.94
483.153	230.94
483.372	239.94
483.59	225.94
483.808	229.94
484.027	230.94
484.245	216.94
484.463	225.94
484.681	217.94
484.9	250.94
485.118	244.94
485.336	241.94
485.554	206.94
485.772	214.94
485.99	223.94
486.209	236.94
486.427	247.94
486.645	236.94
486.863	230.94
487.081	262.94
487.299	258.94
487.517	239.94
487.735	244.94
487.953	231.94
488.171	232.94
488.389	251.94
488.607	249.94
488.825	264.94
489.043	245.94
489.261	235.94
489.479	244.94
489.696	229.94
489.914	241.94
490.132	227.94
490.35	240.94
490.568	237.94
490.786	229.94
491.003	228.94
491.221	238.94
491.439	234.94
491.657	237.94
491.874	225.94
492.092	239.94
492.31	287.94
492.527	285.94
492.745	255.94
492.963	257.94
493.18	246.94
493.398	234.94
493.615	246.94
493.833	261.94
494.05	241.94
494.268	246.94
494.485	243.94
494.703	227.94
494.92	233.94
495.138	234.94
495.355	230.94
495.573	250.94
495.79	245.94
496.008	242.94
496.225	249.94
496.442	243.94
496.66	263.94
496.877	253.94
497.094	274.94
497.312	262.94
497.529	259.94
497.746	270.94
497.963	265.94
498.181	267.94
498.398	273.94
498.615	284.94
498.832	283.94
499.049	296.94
499.267	327.94
499.484	298.94
499.701	328.94
499.918	338.94
500.135	358.94
500.352	361.94
500.569	382.94
500.786	354.94
501.003	363.94
501.22	340.94
501.437	338.94
501.654	320.94
501.871	305.94
502.088	293.94
502.305	267.94
502.522	265.94
502.739	277.94
502.956	243.94
503.172	273.94
503.389	276.94
503.606	258.94
