Data from StA_HRD10591_097.txt Node
Date: Fri May 16 15:19:31 EDT 2025
User: Yrep
Spectrometer: HR+D1059
Trigger mode: 1
Integration Time (sec): 1.000000E-1
Scans to average: 1
Electric dark correction enabled: true
Nonlinearity correction enabled: false
Boxcar width: 0
XAxis mode: Wavelengths
Number of Pixels in Spectrum: 2048
>>>>>Begin Spectral Data<<<<<
223.165	-27.69
223.4	-27.69
223.635	-27.69
223.869	-27.69
224.104	-22.69
224.338	-21.69
224.573	-22.69
224.808	-9.69
225.042	2.31
225.277	-10.69
225.511	1.31
225.746	11.31
225.98	4.31
226.215	20.31
226.449	15.31
226.683	22.31
226.918	34.31
227.152	31.31
227.387	46.31
227.621	52.31
227.856	57.31
228.09	41.31
228.324	38.31
228.559	53.31
228.793	58.31
229.027	65.31
229.262	67.31
229.496	56.31
229.73	62.31
229.964	68.31
230.199	76.31
230.433	71.31
230.667	86.31
230.901	76.31
231.136	79.31
231.37	73.31
231.604	74.31
231.838	95.31
232.072	80.31
232.306	95.31
232.541	75.31
232.775	83.31
233.009	79.31
233.243	73.31
233.477	90.31
233.711	72.31
233.945	79.31
234.179	69.31
234.413	80.31
234.647	84.31
234.881	82.31
235.115	75.31
235.349	79.31
235.583	82.31
235.817	76.31
236.051	81.31
236.285	80.31
236.519	66.31
236.753	76.31
236.987	72.31
237.221	58.31
237.455	72.31
237.689	97.31
237.922	80.31
238.156	84.31
238.39	77.31
238.624	91.31
238.858	78.31
239.091	70.31
239.325	76.31
239.559	86.31
239.793	78.31
240.027	68.31
240.26	75.31
240.494	64.31
240.728	60.31
240.961	76.31
241.195	74.31
241.429	72.31
241.662	73.31
241.896	72.31
242.13	62.31
242.363	72.31
242.597	74.31
242.83	72.31
243.064	73.31
243.298	88.31
243.531	77.31
243.765	81.31
243.998	72.31
244.232	78.31
244.465	74.31
244.699	85.31
244.932	74.31
245.166	73.31
245.399	80.31
245.633	67.31
245.866	89.31
246.099	71.31
246.333	72.31
246.566	71.31
246.8	80.31
247.033	85.31
247.266	68.31
247.5	73.31
247.733	76.31
247.966	85.31
248.2	82.31
248.433	71.31
248.666	76.31
248.899	81.31
249.133	88.31
249.366	78.31
249.599	79.31
249.832	84.31
250.066	84.31
250.299	65.31
250.532	72.31
250.765	78.31
250.998	74.31
251.231	71.31
251.465	81.31
251.698	65.31
251.931	84.31
252.164	79.31
252.397	80.31
252.63	82.31
252.863	93.31
253.096	77.31
253.329	83.31
253.562	58.31
253.795	79.31
254.028	88.31
254.261	88.31
254.494	83.31
254.727	76.31
254.96	77.31
255.193	86.31
255.426	76.31
255.659	80.31
255.892	88.31
256.124	72.31
256.357	89.31
256.59	85.31
256.823	83.31
257.056	94.31
257.289	81.31
257.521	84.31
257.754	74.31
257.987	86.31
258.22	86.31
258.452	78.31
258.685	83.31
258.918	91.31
259.151	80.31
259.383	82.31
259.616	67.31
259.849	63.31
260.081	76.31
260.314	87.31
260.547	96.31
260.779	77.31
261.012	78.31
261.244	86.31
261.477	91.31
261.71	70.31
261.942	88.31
262.175	80.31
262.407	70.31
262.64	92.31
262.872	86.31
263.105	72.31
263.337	85.31
263.57	90.31
263.802	76.31
264.035	69.31
264.267	89.31
264.499	77.31
264.732	84.31
264.964	78.31
265.197	94.31
265.429	72.31
265.661	83.31
265.894	81.31
266.126	83.31
266.358	78.31
266.591	83.31
266.823	94.31
267.055	84.31
267.287	76.31
267.52	93.31
267.752	80.31
267.984	92.31
268.216	88.31
268.448	82.31
268.681	86.31
268.913	88.31
269.145	91.31
269.377	72.31
269.609	78.31
269.841	97.31
270.073	85.31
270.306	90.31
270.538	88.31
270.77	78.31
271.002	91.31
271.234	89.31
271.466	82.31
271.698	80.31
271.93	85.31
272.162	85.31
272.394	82.31
272.626	86.31
272.858	89.31
273.09	71.31
273.322	92.31
273.553	90.31
273.785	82.31
274.017	74.31
274.249	85.31
274.481	71.31
274.713	80.31
274.945	81.31
275.176	86.31
275.408	89.31
275.64	89.31
275.872	96.31
276.104	90.31
276.335	94.31
276.567	85.31
276.799	88.31
277.031	96.31
277.262	68.31
277.494	84.31
277.726	78.31
277.957	81.31
278.189	73.31
278.421	80.31
278.652	93.31
278.884	64.31
279.115	74.31
279.347	72.31
279.579	101.31
279.81	66.31
280.042	80.31
280.273	95.31
280.505	75.31
280.736	102.31
280.968	87.31
281.199	67.31
281.431	78.31
281.662	92.31
281.894	85.31
282.125	75.31
282.356	80.31
282.588	97.31
282.819	80.31
283.051	81.31
283.282	91.31
283.513	89.31
283.745	96.31
283.976	81.31
284.207	95.31
284.439	110.31
284.67	82.31
284.901	80.31
285.132	101.31
285.364	75.31
285.595	76.31
285.826	78.31
286.057	94.31
286.288	103.31
286.52	99.31
286.751	90.31
286.982	101.31
287.213	73.31
287.444	89.31
287.675	82.31
287.906	85.31
288.138	77.31
288.369	83.31
288.6	86.31
288.831	89.31
289.062	105.31
289.293	91.31
289.524	88.31
289.755	89.31
289.986	90.31
290.217	83.31
290.448	94.31
290.679	93.31
290.91	101.31
291.141	81.31
291.371	87.31
291.602	94.31
291.833	76.31
292.064	88.31
292.295	73.31
292.526	87.31
292.757	85.31
292.987	87.31
293.218	90.31
293.449	88.31
293.68	86.31
293.91	84.31
294.141	70.31
294.372	97.31
294.603	80.31
294.833	87.31
295.064	93.31
295.295	85.31
295.525	88.31
295.756	93.31
295.987	89.31
296.217	100.31
296.448	66.31
296.679	73.31
296.909	94.31
297.14	82.31
297.37	104.31
297.601	91.31
297.831	78.31
298.062	87.31
298.292	84.31
298.523	93.31
298.753	93.31
298.984	104.31
299.214	85.31
299.445	78.31
299.675	110.31
299.905	96.31
300.136	81.31
300.366	74.31
300.597	82.31
300.827	85.31
301.057	78.31
301.288	103.31
301.518	106.31
301.748	105.31
301.979	109.31
302.209	100.31
302.439	94.31
302.669	90.31
302.9	80.31
303.13	87.31
303.36	90.31
303.59	75.31
303.82	84.31
304.051	104.31
304.281	72.31
304.511	84.31
304.741	102.31
304.971	86.31
305.201	90.31
305.431	90.31
305.661	84.31
305.891	90.31
306.121	89.31
306.352	85.31
306.582	97.31
306.812	94.31
307.042	88.31
307.272	92.31
307.502	81.31
307.731	74.31
307.961	82.31
308.191	84.31
308.421	81.31
308.651	96.31
308.881	83.31
309.111	74.31
309.341	85.31
309.571	83.31
309.8	78.31
310.03	80.31
310.26	84.31
310.49	86.31
310.72	93.31
310.949	85.31
311.179	71.31
311.409	80.31
311.639	84.31
311.868	95.31
312.098	95.31
312.328	94.31
312.557	92.31
312.787	93.31
313.017	87.31
313.246	76.31
313.476	76.31
313.706	82.31
313.935	95.31
314.165	97.31
314.394	79.31
314.624	79.31
314.853	78.31
315.083	84.31
315.312	84.31
315.542	81.31
315.771	77.31
316.001	78.31
316.23	87.31
316.46	91.31
316.689	89.31
316.919	74.31
317.148	83.31
317.377	75.31
317.607	85.31
317.836	91.31
318.065	88.31
318.295	108.31
318.524	87.31
318.753	78.31
318.983	94.31
319.212	89.31
319.441	85.31
319.67	83.31
319.9	93.31
320.129	91.31
320.358	94.31
320.587	83.31
320.816	87.31
321.046	77.31
321.275	80.31
321.504	85.31
321.733	94.31
321.962	100.31
322.191	90.31
322.42	86.31
322.649	82.31
322.878	92.31
323.108	79.31
323.337	94.31
323.566	88.31
323.795	84.31
324.024	83.31
324.253	83.31
324.482	88.31
324.71	92.31
324.939	83.31
325.168	101.31
325.397	78.31
325.626	77.31
325.855	71.31
326.084	82.31
326.313	79.31
326.542	95.31
326.77	84.31
326.999	76.31
327.228	84.31
327.457	76.31
327.686	84.31
327.914	84.31
328.143	81.31
328.372	84.31
328.6	89.31
328.829	95.31
329.058	87.31
329.287	88.31
329.515	80.31
329.744	86.31
329.972	80.31
330.201	93.31
330.43	93.31
330.658	77.31
330.887	84.31
331.115	95.31
331.344	92.31
331.572	81.31
331.801	86.31
332.03	91.31
332.258	91.31
332.486	80.31
332.715	85.31
332.943	98.31
333.172	79.31
333.4	80.31
333.629	85.31
333.857	93.31
334.085	76.31
334.314	96.31
334.542	86.31
334.771	86.31
334.999	71.31
335.227	93.31
335.455	82.31
335.684	78.31
335.912	84.31
336.14	87.31
336.369	97.31
336.597	90.31
336.825	89.31
337.053	94.31
337.281	85.31
337.51	85.31
337.738	101.31
337.966	80.31
338.194	74.31
338.422	78.31
338.65	78.31
338.878	86.31
339.106	83.31
339.334	80.31
339.562	92.31
339.79	81.31
340.018	86.31
340.246	90.31
340.474	97.31
340.702	84.31
340.93	88.31
341.158	101.31
341.386	82.31
341.614	76.31
341.842	94.31
342.07	97.31
342.298	86.31
342.526	102.31
342.754	87.31
342.981	83.31
343.209	87.31
343.437	88.31
343.665	88.31
343.893	88.31
344.12	92.31
344.348	93.31
344.576	73.31
344.804	72.31
345.031	79.31
345.259	96.31
345.487	88.31
345.714	85.31
345.942	101.31
346.17	104.31
346.397	88.31
346.625	103.31
346.853	81.31
347.08	93.31
347.308	91.31
347.535	85.31
347.763	84.31
347.99	105.31
348.218	88.31
348.445	83.31
348.673	91.31
348.9	98.31
349.128	72.31
349.355	88.31
349.583	100.31
349.81	94.31
350.037	90.31
350.265	84.31
350.492	85.31
350.72	74.31
350.947	77.31
351.174	93.31
351.402	92.31
351.629	82.31
351.856	78.31
352.083	80.31
352.311	71.31
352.538	91.31
352.765	90.31
352.992	78.31
353.22	95.31
353.447	92.31
353.674	86.31
353.901	92.31
354.128	75.31
354.355	85.31
354.583	80.31
354.81	81.31
355.037	83.31
355.264	87.31
355.491	86.31
355.718	87.31
355.945	88.31
356.172	96.31
356.399	81.31
356.626	88.31
356.853	104.31
357.08	94.31
357.307	91.31
357.534	111.31
357.761	98.31
357.988	120.31
358.215	107.31
358.441	98.31
358.668	98.31
358.895	89.31
359.122	109.31
359.349	116.31
359.576	109.31
359.802	85.31
360.029	81.31
360.256	101.31
360.483	97.31
360.709	110.31
360.936	93.31
361.163	98.31
361.39	85.31
361.616	81.31
361.843	68.31
362.07	93.31
362.296	87.31
362.523	65.31
362.749	74.31
362.976	86.31
363.203	93.31
363.429	86.31
363.656	105.31
363.882	98.31
364.109	92.31
364.335	94.31
364.562	76.31
364.788	89.31
365.015	87.31
365.241	84.31
365.468	80.31
365.694	94.31
365.92	90.31
366.147	80.31
366.373	88.31
366.599	74.31
366.826	73.31
367.052	72.31
367.278	95.31
367.505	89.31
367.731	86.31
367.957	88.31
368.184	93.31
368.41	77.31
368.636	93.31
368.862	96.31
369.089	80.31
369.315	75.31
369.541	69.31
369.767	85.31
369.993	85.31
370.219	78.31
370.445	83.31
370.672	71.31
370.898	89.31
371.124	84.31
371.35	86.31
371.576	78.31
371.802	90.31
372.028	65.31
372.254	93.31
372.48	90.31
372.706	87.31
372.932	92.31
373.158	87.31
373.384	76.31
373.61	90.31
373.835	82.31
374.061	82.31
374.287	102.31
374.513	113.31
374.739	88.31
374.965	82.31
375.191	86.31
375.416	84.31
375.642	95.31
375.868	80.31
376.094	86.31
376.319	76.31
376.545	91.31
376.771	76.31
376.997	92.31
377.222	80.31
377.448	81.31
377.674	95.31
377.899	89.31
378.125	86.31
378.35	96.31
378.576	89.31
378.802	92.31
379.027	81.31
379.253	78.31
379.478	91.31
379.704	77.31
379.929	82.31
380.155	79.31
380.38	81.31
380.606	85.31
380.831	88.31
381.057	75.31
381.282	81.31
381.507	87.31
381.733	91.31
381.958	86.31
382.184	86.31
382.409	79.31
382.634	75.31
382.86	90.31
383.085	85.31
383.31	88.31
383.535	92.31
383.761	93.31
383.986	90.31
384.211	93.31
384.436	84.31
384.662	88.31
384.887	85.31
385.112	70.31
385.337	78.31
385.562	104.31
385.787	92.31
386.013	89.31
386.238	73.31
386.463	81.31
386.688	79.31
386.913	76.31
387.138	90.31
387.363	78.31
387.588	79.31
387.813	91.31
388.038	87.31
388.263	94.31
388.488	83.31
388.713	88.31
388.938	97.31
389.163	80.31
389.387	79.31
389.612	80.31
389.837	71.31
390.062	89.31
390.287	89.31
390.512	84.31
390.736	84.31
390.961	85.31
391.186	96.31
391.411	89.31
391.636	93.31
391.86	77.31
392.085	86.31
392.31	92.31
392.534	89.31
392.759	100.31
392.984	97.31
393.208	88.31
393.433	84.31
393.658	88.31
393.882	80.31
394.107	64.31
394.331	87.31
394.556	94.31
394.78	97.31
395.005	84.31
395.229	96.31
395.454	93.31
395.678	84.31
395.903	79.31
396.127	90.31
396.352	105.31
396.576	93.31
396.801	81.31
397.025	97.31
397.249	83.31
397.474	105.31
397.698	111.31
397.922	103.31
398.147	73.31
398.371	86.31
398.595	95.31
398.82	78.31
399.044	79.31
399.268	95.31
399.492	78.31
399.717	77.31
399.941	78.31
400.165	77.31
400.389	64.31
400.613	75.31
400.837	83.31
401.062	78.31
401.286	85.31
401.51	73.31
401.734	80.31
401.958	82.31
402.182	61.31
402.406	62.31
402.63	73.31
402.854	90.31
403.078	88.31
403.302	89.31
403.526	84.31
403.75	73.31
403.974	69.31
404.198	80.31
404.422	73.31
404.645	96.31
404.869	87.31
405.093	87.31
405.317	94.31
405.541	87.31
405.765	76.31
405.988	75.31
406.212	84.31
406.436	81.31
406.66	87.31
406.883	76.31
407.107	76.31
407.331	86.31
407.555	80.31
407.778	96.31
408.002	101.31
408.226	62.31
408.449	89.31
408.673	74.31
408.896	87.31
409.12	72.31
409.344	92.31
409.567	76.31
409.791	79.31
410.014	80.31
410.238	88.31
410.461	82.31
410.685	81.31
410.908	91.31
411.132	87.31
411.355	80.31
411.578	76.31
411.802	90.31
412.025	84.31
412.249	89.31
412.472	85.31
412.695	87.31
412.919	90.31
413.142	78.31
413.365	67.31
413.589	78.31
413.812	83.31
414.035	80.31
414.258	96.31
414.482	81.31
414.705	76.31
414.928	68.31
415.151	73.31
415.374	92.31
415.597	88.31
415.821	87.31
416.044	77.31
416.267	70.31
416.49	90.31
416.713	82.31
416.936	77.31
417.159	76.31
417.382	86.31
417.605	79.31
417.828	93.31
418.051	72.31
418.274	78.31
418.497	90.31
418.72	85.31
418.943	92.31
419.166	82.31
419.389	84.31
419.611	74.31
419.834	71.31
420.057	90.31
420.28	80.31
420.503	93.31
420.726	89.31
420.948	79.31
421.171	78.31
421.394	78.31
421.617	84.31
421.839	86.31
422.062	66.31
422.285	80.31
422.507	76.31
422.73	84.31
422.953	68.31
423.175	79.31
423.398	78.31
423.621	98.31
423.843	71.31
424.066	74.31
424.288	77.31
424.511	85.31
424.733	80.31
424.956	80.31
425.178	88.31
425.401	127.31
425.623	142.31
425.846	104.31
426.068	86.31
426.291	82.31
426.513	77.31
426.735	74.31
426.958	91.31
427.18	76.31
427.402	116.31
427.625	133.31
427.847	105.31
428.069	84.31
428.292	88.31
428.514	88.31
428.736	96.31
428.958	112.31
429.181	120.31
429.403	96.31
429.625	99.31
429.847	88.31
430.069	72.31
430.292	105.31
430.514	81.31
430.736	86.31
430.958	80.31
431.18	84.31
431.402	80.31
431.624	66.31
431.846	78.31
432.068	75.31
432.29	92.31
432.512	77.31
432.734	77.31
432.956	102.31
433.178	79.31
433.4	79.31
433.622	95.31
433.844	101.31
434.066	112.31
434.287	94.31
434.509	100.31
434.731	94.31
434.953	89.31
435.175	105.31
435.397	112.31
435.618	79.31
435.84	73.31
436.062	80.31
436.284	82.31
436.505	86.31
436.727	73.31
436.949	86.31
437.17	95.31
437.392	89.31
437.614	73.31
437.835	76.31
438.057	74.31
438.278	69.31
438.5	93.31
438.721	95.31
438.943	84.31
439.165	75.31
439.386	89.31
439.608	87.31
439.829	75.31
440.05	77.31
440.272	72.31
440.493	95.31
440.715	79.31
440.936	82.31
441.158	70.31
441.379	84.31
441.6	86.31
441.822	67.31
442.043	82.31
442.264	81.31
442.486	74.31
442.707	88.31
442.928	81.31
443.149	84.31
443.371	84.31
443.592	82.31
443.813	77.31
444.034	72.31
444.255	69.31
444.476	84.31
444.698	85.31
444.919	77.31
445.14	169.31
445.361	120.31
445.582	76.31
445.803	67.31
446.024	84.31
446.245	88.31
446.466	85.31
446.687	74.31
446.908	80.31
447.129	76.31
447.35	79.31
447.571	77.31
447.792	73.31
448.013	77.31
448.234	77.31
448.455	71.31
448.675	77.31
448.896	74.31
449.117	74.31
449.338	89.31
449.559	97.31
449.779	105.31
450	80.31
450.221	84.31
450.442	70.31
450.662	78.31
450.883	84.31
451.104	86.31
451.324	77.31
451.545	90.31
451.766	79.31
451.986	85.31
452.207	92.31
452.428	85.31
452.648	79.31
452.869	97.31
453.089	87.31
453.31	72.31
453.53	85.31
453.751	88.31
453.971	87.31
454.192	82.31
454.412	89.31
454.633	91.31
454.853	110.31
455.073	91.31
455.294	81.31
455.514	72.31
455.734	79.31
455.955	76.31
456.175	82.31
456.395	93.31
456.616	78.31
456.836	102.31
457.056	75.31
457.276	80.31
457.497	73.31
457.717	78.31
457.937	76.31
458.157	79.31
458.377	91.31
458.598	77.31
458.818	92.31
459.038	89.31
459.258	88.31
459.478	91.31
459.698	71.31
459.918	97.31
460.138	88.31
460.358	85.31
460.578	89.31
460.798	84.31
461.018	85.31
461.238	86.31
461.458	94.31
461.678	85.31
461.898	94.31
462.118	84.31
462.338	91.31
462.558	82.31
462.777	98.31
462.997	88.31
463.217	73.31
463.437	70.31
463.657	89.31
463.876	79.31
464.096	93.31
464.316	103.31
464.536	78.31
464.755	111.31
464.975	97.31
465.195	90.31
465.414	121.31
465.634	98.31
465.854	78.31
466.073	89.31
466.293	86.31
466.512	80.31
466.732	85.31
466.951	84.31
467.171	56.31
467.391	88.31
467.61	67.31
467.829	84.31
468.049	95.31
468.268	77.31
468.488	77.31
468.707	77.31
468.927	81.31
469.146	75.31
469.365	80.31
469.585	71.31
469.804	80.31
470.023	86.31
470.243	76.31
470.462	82.31
470.681	94.31
470.901	89.31
471.12	68.31
471.339	86.31
471.558	75.31
471.777	85.31
471.997	95.31
472.216	87.31
472.435	82.31
472.654	86.31
472.873	76.31
473.092	73.31
473.311	81.31
473.53	83.31
473.749	94.31
473.968	100.31
474.187	85.31
474.406	77.31
474.625	86.31
474.844	86.31
475.063	90.31
475.282	83.31
475.501	88.31
475.72	94.31
475.939	95.31
476.158	84.31
476.377	81.31
476.596	83.31
476.814	92.31
477.033	71.31
477.252	93.31
477.471	78.31
477.69	72.31
477.908	82.31
478.127	97.31
478.346	67.31
478.564	76.31
478.783	87.31
479.002	82.31
479.22	76.31
479.439	95.31
479.658	94.31
479.876	86.31
480.095	84.31
480.313	82.31
480.532	87.31
480.751	88.31
480.969	73.31
481.188	88.31
481.406	69.31
481.624	85.31
481.843	92.31
482.061	92.31
482.28	81.31
482.498	93.31
482.717	82.31
482.935	93.31
483.153	91.31
483.372	91.31
483.59	69.31
483.808	84.31
484.027	95.31
484.245	91.31
484.463	89.31
484.681	84.31
484.9	87.31
485.118	86.31
485.336	83.31
485.554	81.31
485.772	87.31
485.99	102.31
486.209	79.31
486.427	84.31
486.645	78.31
486.863	84.31
487.081	84.31
487.299	95.31
487.517	89.31
487.735	84.31
487.953	81.31
488.171	72.31
488.389	78.31
488.607	73.31
488.825	88.31
489.043	95.31
489.261	92.31
489.479	82.31
489.696	89.31
489.914	89.31
490.132	78.31
490.35	74.31
490.568	76.31
490.786	78.31
491.003	94.31
491.221	87.31
491.439	80.31
491.657	90.31
491.874	93.31
492.092	90.31
492.31	109.31
492.527	96.31
492.745	78.31
492.963	89.31
493.18	86.31
493.398	86.31
493.615	85.31
493.833	85.31
494.05	78.31
494.268	84.31
494.485	98.31
494.703	68.31
494.92	84.31
495.138	79.31
495.355	85.31
495.573	81.31
495.79	93.31
496.008	81.31
496.225	73.31
496.442	88.31
496.66	94.31
496.877	95.31
497.094	88.31
497.312	84.31
497.529	82.31
497.746	88.31
497.963	104.31
498.181	80.31
498.398	78.31
498.615	77.31
498.832	77.31
499.049	80.31
499.267	89.31
499.484	75.31
499.701	80.31
499.918	80.31
500.135	87.31
500.352	78.31
500.569	94.31
500.786	94.31
501.003	89.31
501.22	83.31
501.437	87.31
501.654	90.31
501.871	79.31
502.088	72.31
502.305	85.31
502.522	67.31
502.739	84.31
502.956	95.31
503.172	80.31
503.389	77.31
503.606	76.31
503.823	69.31
504.04	94.31
504.256	86.31
504.473	76.31
504.69	80.31
504.907	95.31
505.123	87.31
505.34	96.31
505.557	85.31
505.773	94.31
505.99	74.31
506.207	96.31
506.423	71.31
506.64	75.31
506.856	92.31
507.073	92.31
507.289	79.31
507.506	86.31
507.722	88.31
507.939	89.31
508.155	81.31
508.372	82.31
508.588	77.31
508.805	94.31
509.021	76.31
509.238	92.31
509.454	87.31
509.67	89.31
509.887	86.31
510.103	96.31
510.319	71.31
510.536	90.31
510.752	75.31
510.968	68.31
511.184	94.31
511.401	91.31
511.617	101.31
511.833	78.31
512.049	90.31
512.265	72.31
512.481	69.31
512.698	90.31
512.914	69.31
513.13	76.31
513.346	84.31
513.562	88.31
513.778	72.31
513.994	90.31
514.21	76.31
514.426	86.31
514.642	78.31
514.858	83.31
515.074	72.31
515.29	94.31
515.506	81.31
515.721	82.31
515.937	89.31
516.153	72.31
516.369	79.31
516.585	81.31
516.801	87.31
517.016	84.31
517.232	88.31
517.448	98.31
517.664	85.31
517.879	106.31
518.095	85.31
518.311	88.31
518.527	72.31
518.742	94.31
518.958	88.31
519.173	81.31
