Data from StA_HRD10591_096.txt Node
Date: Fri May 16 15:19:31 EDT 2025
User: Yrep
Spectrometer: HR+D1059
Trigger mode: 1
Integration Time (sec): 1.000000E-1
Scans to average: 1
Electric dark correction enabled: true
Nonlinearity correction enabled: false
Boxcar width: 0
XAxis mode: Wavelengths
Number of Pixels in Spectrum: 2048
>>>>>Begin Spectral Data<<<<<
223.165	-16.94
223.4	-16.94
223.635	-16.94
223.869	-4.94
224.104	-14.94
224.338	-15.94
224.573	-14.94
224.808	-6.94
225.042	6.06
225.277	-7.94
225.511	-3.94
225.746	-1.94
225.98	12.06
226.215	6.06
226.449	3.06
226.683	13.06
226.918	23.06
227.152	25.06
227.387	37.06
227.621	39.06
227.856	51.06
228.09	37.06
228.324	57.06
228.559	57.06
228.793	59.06
229.027	43.06
229.262	73.06
229.496	60.06
229.73	80.06
229.964	87.06
230.199	59.06
230.433	68.06
230.667	73.06
230.901	68.06
231.136	89.06
231.37	61.06
231.604	81.06
231.838	72.06
232.072	73.06
232.306	88.06
232.541	96.06
232.775	67.06
233.009	83.06
233.243	78.06
233.477	89.06
233.711	82.06
233.945	59.06
234.179	75.06
234.413	92.06
234.647	90.06
234.881	89.06
235.115	77.06
235.349	92.06
235.583	78.06
235.817	70.06
236.051	70.06
236.285	72.06
236.519	76.06
236.753	80.06
236.987	72.06
237.221	82.06
237.455	76.06
237.689	89.06
237.922	89.06
238.156	70.06
238.39	80.06
238.624	72.06
238.858	70.06
239.091	65.06
239.325	83.06
239.559	75.06
239.793	72.06
240.027	83.06
240.26	75.06
240.494	84.06
240.728	83.06
240.961	77.06
241.195	76.06
241.429	74.06
241.662	78.06
241.896	79.06
242.13	68.06
242.363	77.06
242.597	76.06
242.83	71.06
243.064	85.06
243.298	87.06
243.531	62.06
243.765	72.06
243.998	76.06
244.232	97.06
244.465	75.06
244.699	79.06
244.932	80.06
245.166	80.06
245.399	77.06
245.633	82.06
245.866	77.06
246.099	76.06
246.333	79.06
246.566	79.06
246.8	84.06
247.033	69.06
247.266	71.06
247.5	76.06
247.733	74.06
247.966	82.06
248.2	73.06
248.433	80.06
248.666	76.06
248.899	81.06
249.133	69.06
249.366	79.06
249.599	70.06
249.832	79.06
250.066	71.06
250.299	63.06
250.532	80.06
250.765	80.06
250.998	74.06
251.231	90.06
251.465	93.06
251.698	88.06
251.931	75.06
252.164	80.06
252.397	83.06
252.63	79.06
252.863	77.06
253.096	73.06
253.329	78.06
253.562	76.06
253.795	83.06
254.028	86.06
254.261	88.06
254.494	80.06
254.727	73.06
254.96	83.06
255.193	91.06
255.426	65.06
255.659	69.06
255.892	96.06
256.124	90.06
256.357	86.06
256.59	85.06
256.823	78.06
257.056	75.06
257.289	82.06
257.521	87.06
257.754	68.06
257.987	85.06
258.22	84.06
258.452	65.06
258.685	71.06
258.918	82.06
259.151	79.06
259.383	67.06
259.616	86.06
259.849	73.06
260.081	71.06
260.314	71.06
260.547	84.06
260.779	76.06
261.012	85.06
261.244	80.06
261.477	78.06
261.71	85.06
261.942	85.06
262.175	73.06
262.407	79.06
262.64	89.06
262.872	93.06
263.105	83.06
263.337	83.06
263.57	69.06
263.802	86.06
264.035	86.06
264.267	75.06
264.499	73.06
264.732	78.06
264.964	85.06
265.197	75.06
265.429	78.06
265.661	79.06
265.894	65.06
266.126	75.06
266.358	80.06
266.591	87.06
266.823	71.06
267.055	82.06
267.287	87.06
267.52	91.06
267.752	83.06
267.984	79.06
268.216	96.06
268.448	75.06
268.681	84.06
268.913	91.06
269.145	72.06
269.377	82.06
269.609	72.06
269.841	72.06
270.073	92.06
270.306	75.06
270.538	71.06
270.77	83.06
271.002	87.06
271.234	72.06
271.466	86.06
271.698	67.06
271.93	81.06
272.162	88.06
272.394	85.06
272.626	77.06
272.858	85.06
273.09	75.06
273.322	77.06
273.553	76.06
273.785	93.06
274.017	93.06
274.249	69.06
274.481	70.06
274.713	72.06
274.945	89.06
275.176	90.06
275.408	87.06
275.64	81.06
275.872	94.06
276.104	82.06
276.335	102.06
276.567	77.06
276.799	83.06
277.031	86.06
277.262	87.06
277.494	83.06
277.726	81.06
277.957	93.06
278.189	92.06
278.421	99.06
278.652	79.06
278.884	87.06
279.115	92.06
279.347	69.06
279.579	77.06
279.81	75.06
280.042	78.06
280.273	82.06
280.505	94.06
280.736	87.06
280.968	89.06
281.199	91.06
281.431	77.06
281.662	94.06
281.894	74.06
282.125	90.06
282.356	85.06
282.588	95.06
282.819	83.06
283.051	103.06
283.282	82.06
283.513	94.06
283.745	91.06
283.976	92.06
284.207	92.06
284.439	83.06
284.67	87.06
284.901	94.06
285.132	100.06
285.364	83.06
285.595	71.06
285.826	99.06
286.057	91.06
286.288	99.06
286.52	99.06
286.751	86.06
286.982	69.06
287.213	73.06
287.444	99.06
287.675	83.06
287.906	103.06
288.138	80.06
288.369	75.06
288.6	86.06
288.831	88.06
289.062	94.06
289.293	89.06
289.524	102.06
289.755	75.06
289.986	87.06
290.217	74.06
290.448	99.06
290.679	87.06
290.91	88.06
291.141	81.06
291.371	103.06
291.602	73.06
291.833	91.06
292.064	87.06
292.295	90.06
292.526	93.06
292.757	93.06
292.987	88.06
293.218	86.06
293.449	94.06
293.68	93.06
293.91	71.06
294.141	72.06
294.372	76.06
294.603	95.06
294.833	88.06
295.064	97.06
295.295	88.06
295.525	80.06
295.756	95.06
295.987	89.06
296.217	80.06
296.448	83.06
296.679	89.06
296.909	86.06
297.14	103.06
297.37	97.06
297.601	99.06
297.831	95.06
298.062	90.06
298.292	93.06
298.523	92.06
298.753	102.06
298.984	90.06
299.214	99.06
299.445	103.06
299.675	101.06
299.905	88.06
300.136	83.06
300.366	80.06
300.597	79.06
300.827	76.06
301.057	74.06
301.288	82.06
301.518	103.06
301.748	92.06
301.979	101.06
302.209	91.06
302.439	84.06
302.669	93.06
302.9	91.06
303.13	90.06
303.36	94.06
303.59	96.06
303.82	84.06
304.051	88.06
304.281	88.06
304.511	86.06
304.741	82.06
304.971	102.06
305.201	96.06
305.431	89.06
305.661	82.06
305.891	87.06
306.121	80.06
306.352	77.06
306.582	91.06
306.812	91.06
307.042	73.06
307.272	85.06
307.502	86.06
307.731	69.06
307.961	95.06
308.191	94.06
308.421	82.06
308.651	88.06
308.881	83.06
309.111	76.06
309.341	78.06
309.571	86.06
309.8	88.06
310.03	79.06
310.26	81.06
310.49	81.06
310.72	84.06
310.949	74.06
311.179	82.06
311.409	91.06
311.639	95.06
311.868	104.06
312.098	93.06
312.328	81.06
312.557	86.06
312.787	78.06
313.017	97.06
313.246	99.06
313.476	87.06
313.706	76.06
313.935	85.06
314.165	76.06
314.394	75.06
314.624	87.06
314.853	97.06
315.083	87.06
315.312	99.06
315.542	93.06
315.771	74.06
316.001	66.06
316.23	71.06
316.46	85.06
316.689	85.06
316.919	81.06
317.148	69.06
317.377	89.06
317.607	86.06
317.836	84.06
318.065	89.06
318.295	100.06
318.524	87.06
318.753	75.06
318.983	85.06
319.212	87.06
319.441	88.06
319.67	94.06
319.9	95.06
320.129	90.06
320.358	80.06
320.587	96.06
320.816	77.06
321.046	84.06
321.275	89.06
321.504	97.06
321.733	80.06
321.962	97.06
322.191	97.06
322.42	91.06
322.649	85.06
322.878	95.06
323.108	88.06
323.337	87.06
323.566	71.06
323.795	89.06
324.024	89.06
324.253	79.06
324.482	83.06
324.71	92.06
324.939	95.06
325.168	96.06
325.397	93.06
325.626	91.06
325.855	80.06
326.084	79.06
326.313	87.06
326.542	91.06
326.77	91.06
326.999	80.06
327.228	80.06
327.457	77.06
327.686	80.06
327.914	73.06
328.143	76.06
328.372	83.06
328.6	73.06
328.829	93.06
329.058	82.06
329.287	87.06
329.515	81.06
329.744	85.06
329.972	99.06
330.201	90.06
330.43	84.06
330.658	78.06
330.887	67.06
331.115	86.06
331.344	85.06
331.572	89.06
331.801	86.06
332.03	88.06
332.258	89.06
332.486	86.06
332.715	73.06
332.943	76.06
333.172	84.06
333.4	89.06
333.629	82.06
333.857	91.06
334.085	70.06
334.314	79.06
334.542	100.06
334.771	102.06
334.999	97.06
335.227	77.06
335.455	88.06
335.684	87.06
335.912	89.06
336.14	92.06
336.369	79.06
336.597	71.06
336.825	94.06
337.053	87.06
337.281	86.06
337.51	79.06
337.738	84.06
337.966	79.06
338.194	84.06
338.422	85.06
338.65	92.06
338.878	73.06
339.106	74.06
339.334	95.06
339.562	92.06
339.79	96.06
340.018	84.06
340.246	85.06
340.474	71.06
340.702	85.06
340.93	80.06
341.158	94.06
341.386	84.06
341.614	87.06
341.842	82.06
342.07	95.06
342.298	90.06
342.526	83.06
342.754	86.06
342.981	82.06
343.209	89.06
343.437	104.06
343.665	90.06
343.893	84.06
344.12	89.06
344.348	87.06
344.576	96.06
344.804	83.06
345.031	77.06
345.259	86.06
345.487	91.06
345.714	87.06
345.942	83.06
346.17	84.06
346.397	102.06
346.625	77.06
346.853	77.06
347.08	96.06
347.308	77.06
347.535	93.06
347.763	71.06
347.99	80.06
348.218	77.06
348.445	101.06
348.673	91.06
348.9	99.06
349.128	77.06
349.355	84.06
349.583	81.06
349.81	93.06
350.037	74.06
350.265	85.06
350.492	83.06
350.72	84.06
350.947	89.06
351.174	71.06
351.402	81.06
351.629	79.06
351.856	80.06
352.083	84.06
352.311	80.06
352.538	94.06
352.765	85.06
352.992	89.06
353.22	83.06
353.447	81.06
353.674	81.06
353.901	78.06
354.128	78.06
354.355	81.06
354.583	76.06
354.81	71.06
355.037	78.06
355.264	90.06
355.491	94.06
355.718	80.06
355.945	79.06
356.172	75.06
356.399	89.06
356.626	97.06
356.853	91.06
357.08	90.06
357.307	107.06
357.534	108.06
357.761	114.06
357.988	126.06
358.215	94.06
358.441	109.06
358.668	90.06
358.895	85.06
359.122	89.06
359.349	112.06
359.576	119.06
359.802	95.06
360.029	85.06
360.256	83.06
360.483	119.06
360.709	108.06
360.936	103.06
361.163	85.06
361.39	81.06
361.616	105.06
361.843	77.06
362.07	96.06
362.296	91.06
362.523	68.06
362.749	71.06
362.976	85.06
363.203	84.06
363.429	96.06
363.656	81.06
363.882	92.06
364.109	92.06
364.335	90.06
364.562	95.06
364.788	91.06
365.015	95.06
365.241	88.06
365.468	95.06
365.694	92.06
365.92	77.06
366.147	87.06
366.373	86.06
366.599	84.06
366.826	75.06
367.052	74.06
367.278	81.06
367.505	75.06
367.731	87.06
367.957	86.06
368.184	94.06
368.41	90.06
368.636	80.06
368.862	75.06
369.089	83.06
369.315	87.06
369.541	105.06
369.767	84.06
369.993	86.06
370.219	101.06
370.445	81.06
370.672	81.06
370.898	85.06
371.124	79.06
371.35	72.06
371.576	84.06
371.802	89.06
372.028	83.06
372.254	75.06
372.48	90.06
372.706	83.06
372.932	85.06
373.158	82.06
373.384	82.06
373.61	78.06
373.835	76.06
374.061	91.06
374.287	101.06
374.513	92.06
374.739	95.06
374.965	90.06
375.191	84.06
375.416	88.06
375.642	94.06
375.868	91.06
376.094	66.06
376.319	87.06
376.545	80.06
376.771	77.06
376.997	80.06
377.222	67.06
377.448	91.06
377.674	75.06
377.899	92.06
378.125	79.06
378.35	66.06
378.576	91.06
378.802	74.06
379.027	81.06
379.253	72.06
379.478	69.06
379.704	91.06
379.929	105.06
380.155	72.06
380.38	87.06
380.606	86.06
380.831	90.06
381.057	92.06
381.282	89.06
381.507	85.06
381.733	76.06
381.958	82.06
382.184	87.06
382.409	92.06
382.634	85.06
382.86	80.06
383.085	90.06
383.31	79.06
383.535	88.06
383.761	78.06
383.986	85.06
384.211	90.06
384.436	84.06
384.662	75.06
384.887	83.06
385.112	79.06
385.337	89.06
385.562	85.06
385.787	93.06
386.013	78.06
386.238	91.06
386.463	71.06
386.688	87.06
386.913	100.06
387.138	91.06
387.363	79.06
387.588	92.06
387.813	99.06
388.038	85.06
388.263	85.06
388.488	92.06
388.713	80.06
388.938	78.06
389.163	81.06
389.387	85.06
389.612	85.06
389.837	81.06
390.062	85.06
390.287	83.06
390.512	93.06
390.736	92.06
390.961	91.06
391.186	88.06
391.411	87.06
391.636	92.06
391.86	105.06
392.085	99.06
392.31	77.06
392.534	85.06
392.759	82.06
392.984	81.06
393.208	90.06
393.433	84.06
393.658	80.06
393.882	77.06
394.107	83.06
394.331	95.06
394.556	83.06
394.78	85.06
395.005	73.06
395.229	82.06
395.454	81.06
395.678	79.06
395.903	75.06
396.127	84.06
396.352	84.06
396.576	91.06
396.801	85.06
397.025	89.06
397.249	102.06
397.474	86.06
397.698	95.06
397.922	92.06
398.147	80.06
398.371	101.06
398.595	95.06
398.82	80.06
399.044	84.06
399.268	80.06
399.492	83.06
399.717	75.06
399.941	85.06
400.165	83.06
400.389	97.06
400.613	89.06
400.837	82.06
401.062	87.06
401.286	91.06
401.51	84.06
401.734	83.06
401.958	75.06
402.182	90.06
402.406	73.06
402.63	80.06
402.854	92.06
403.078	92.06
403.302	90.06
403.526	87.06
403.75	84.06
403.974	94.06
404.198	94.06
404.422	84.06
404.645	89.06
404.869	72.06
405.093	95.06
405.317	61.06
405.541	76.06
405.765	83.06
405.988	83.06
406.212	68.06
406.436	92.06
406.66	92.06
406.883	83.06
407.107	88.06
407.331	85.06
407.555	87.06
407.778	83.06
408.002	78.06
408.226	85.06
408.449	88.06
408.673	76.06
408.896	103.06
409.12	73.06
409.344	92.06
409.567	94.06
409.791	87.06
410.014	73.06
410.238	84.06
410.461	81.06
410.685	70.06
410.908	90.06
411.132	84.06
411.355	85.06
411.578	88.06
411.802	81.06
412.025	85.06
412.249	87.06
412.472	75.06
412.695	93.06
412.919	96.06
413.142	79.06
413.365	76.06
413.589	81.06
413.812	76.06
414.035	84.06
414.258	78.06
414.482	72.06
414.705	85.06
414.928	103.06
415.151	95.06
415.374	86.06
415.597	83.06
415.821	79.06
416.044	78.06
416.267	85.06
416.49	99.06
416.713	85.06
416.936	84.06
417.159	85.06
417.382	76.06
417.605	90.06
417.828	81.06
418.051	76.06
418.274	75.06
418.497	66.06
418.72	74.06
418.943	79.06
419.166	86.06
419.389	89.06
419.611	83.06
419.834	71.06
420.057	73.06
420.28	100.06
420.503	89.06
420.726	79.06
420.948	81.06
421.171	72.06
421.394	87.06
421.617	84.06
421.839	81.06
422.062	75.06
422.285	72.06
422.507	71.06
422.73	94.06
422.953	73.06
423.175	64.06
423.398	73.06
423.621	86.06
423.843	75.06
424.066	70.06
424.288	85.06
424.511	93.06
424.733	94.06
424.956	101.06
425.178	103.06
425.401	122.06
425.623	136.06
425.846	101.06
426.068	85.06
426.291	85.06
426.513	91.06
426.735	77.06
426.958	58.06
427.18	85.06
427.402	119.06
427.625	135.06
427.847	99.06
428.069	85.06
428.292	82.06
428.514	85.06
428.736	93.06
428.958	101.06
429.181	122.06
429.403	83.06
429.625	85.06
429.847	93.06
430.069	73.06
430.292	75.06
430.514	75.06
430.736	92.06
430.958	82.06
431.18	89.06
431.402	85.06
431.624	82.06
431.846	79.06
432.068	80.06
432.29	92.06
432.512	78.06
432.734	79.06
432.956	102.06
433.178	84.06
433.4	87.06
433.622	98.06
433.844	99.06
434.066	116.06
434.287	90.06
434.509	91.06
434.731	80.06
434.953	89.06
435.175	119.06
435.397	107.06
435.618	104.06
435.84	99.06
436.062	82.06
436.284	86.06
436.505	83.06
436.727	84.06
436.949	93.06
437.17	64.06
437.392	86.06
437.614	80.06
437.835	81.06
438.057	88.06
438.278	91.06
438.5	72.06
438.721	88.06
438.943	83.06
439.165	85.06
439.386	80.06
439.608	89.06
439.829	74.06
440.05	83.06
440.272	80.06
440.493	76.06
440.715	79.06
440.936	85.06
441.158	81.06
441.379	89.06
441.6	87.06
441.822	84.06
442.043	80.06
442.264	81.06
442.486	82.06
442.707	63.06
442.928	97.06
443.149	65.06
443.371	95.06
443.592	103.06
443.813	86.06
444.034	85.06
444.255	84.06
444.476	85.06
444.698	78.06
444.919	94.06
445.14	172.06
445.361	135.06
445.582	103.06
445.803	79.06
446.024	90.06
446.245	90.06
446.466	72.06
446.687	73.06
446.908	73.06
447.129	70.06
447.35	87.06
447.571	81.06
447.792	81.06
448.013	78.06
448.234	83.06
448.455	90.06
448.675	81.06
448.896	84.06
449.117	87.06
449.338	93.06
449.559	84.06
449.779	97.06
450	78.06
450.221	75.06
450.442	80.06
450.662	82.06
450.883	79.06
451.104	86.06
451.324	90.06
451.545	77.06
451.766	85.06
451.986	90.06
452.207	92.06
452.428	81.06
452.648	89.06
452.869	90.06
453.089	89.06
453.31	83.06
453.53	99.06
453.751	91.06
453.971	88.06
454.192	90.06
454.412	83.06
454.633	79.06
454.853	79.06
455.073	72.06
455.294	88.06
455.514	101.06
455.734	95.06
455.955	68.06
456.175	71.06
456.395	99.06
456.616	86.06
456.836	83.06
457.056	86.06
457.276	83.06
457.497	83.06
457.717	85.06
457.937	90.06
458.157	94.06
458.377	78.06
458.598	88.06
458.818	84.06
459.038	81.06
459.258	91.06
459.478	87.06
459.698	86.06
459.918	78.06
460.138	93.06
460.358	108.06
460.578	86.06
460.798	85.06
461.018	94.06
461.238	67.06
461.458	85.06
461.678	83.06
461.898	104.06
462.118	75.06
462.338	71.06
462.558	80.06
462.777	93.06
462.997	75.06
463.217	86.06
463.437	99.06
463.657	94.06
463.876	97.06
464.096	84.06
464.316	103.06
464.536	96.06
464.755	105.06
464.975	95.06
465.195	105.06
465.414	117.06
465.634	87.06
465.854	71.06
466.073	80.06
466.293	82.06
466.512	91.06
466.732	92.06
466.951	79.06
467.171	84.06
467.391	82.06
467.61	76.06
467.829	79.06
468.049	73.06
468.268	79.06
468.488	96.06
468.707	73.06
468.927	81.06
469.146	81.06
469.365	79.06
469.585	96.06
469.804	87.06
470.023	83.06
470.243	87.06
470.462	78.06
470.681	85.06
470.901	91.06
471.12	71.06
471.339	75.06
471.558	91.06
471.777	81.06
471.997	90.06
472.216	77.06
472.435	84.06
472.654	95.06
472.873	89.06
473.092	85.06
473.311	83.06
473.53	93.06
473.749	89.06
473.968	95.06
474.187	77.06
474.406	69.06
474.625	93.06
474.844	82.06
475.063	72.06
475.282	83.06
475.501	87.06
475.72	97.06
475.939	82.06
476.158	81.06
476.377	95.06
476.596	99.06
476.814	91.06
477.033	84.06
477.252	74.06
477.471	91.06
477.69	87.06
477.908	69.06
478.127	77.06
478.346	94.06
478.564	77.06
478.783	81.06
479.002	91.06
479.22	82.06
479.439	95.06
479.658	97.06
479.876	78.06
480.095	86.06
480.313	90.06
480.532	85.06
480.751	85.06
480.969	96.06
481.188	84.06
481.406	88.06
481.624	79.06
481.843	81.06
482.061	79.06
482.28	75.06
482.498	70.06
482.717	94.06
482.935	86.06
483.153	102.06
483.372	88.06
483.59	81.06
483.808	90.06
484.027	84.06
484.245	84.06
484.463	76.06
484.681	83.06
484.9	84.06
485.118	87.06
485.336	67.06
485.554	81.06
485.772	84.06
485.99	87.06
486.209	77.06
486.427	84.06
486.645	79.06
486.863	85.06
487.081	73.06
487.299	89.06
487.517	99.06
487.735	73.06
487.953	87.06
488.171	78.06
488.389	84.06
488.607	70.06
488.825	103.06
489.043	84.06
489.261	89.06
489.479	75.06
489.696	71.06
489.914	81.06
490.132	80.06
490.35	83.06
490.568	72.06
490.786	87.06
491.003	85.06
491.221	80.06
491.439	91.06
491.657	72.06
491.874	87.06
492.092	73.06
492.31	97.06
492.527	105.06
492.745	96.06
492.963	87.06
493.18	84.06
493.398	96.06
493.615	85.06
493.833	97.06
494.05	94.06
494.268	95.06
494.485	84.06
494.703	83.06
494.92	92.06
495.138	92.06
495.355	89.06
495.573	82.06
495.79	83.06
496.008	86.06
496.225	82.06
496.442	81.06
496.66	90.06
496.877	96.06
497.094	91.06
497.312	83.06
497.529	77.06
497.746	91.06
497.963	99.06
498.181	90.06
498.398	77.06
498.615	86.06
498.832	75.06
499.049	81.06
499.267	79.06
499.484	89.06
499.701	91.06
499.918	86.06
500.135	84.06
500.352	89.06
500.569	88.06
500.786	86.06
501.003	86.06
501.22	92.06
501.437	88.06
501.654	86.06
501.871	74.06
502.088	88.06
502.305	96.06
502.522	84.06
502.739	95.06
502.956	71.06
503.172	73.06
503.389	99.06
503.606	76.06
503.823	73.06
504.04	92.06
504.256	83.06
504.473	83.06
504.69	79.06
504.907	87.06
505.123	83.06
505.34	86.06
505.557	92.06
505.773	84.06
505.99	81.06
506.207	61.06
506.423	73.06
506.64	85.06
506.856	91.06
507.073	97.06
507.289	83.06
507.506	76.06
507.722	92.06
507.939	83.06
508.155	88.06
508.372	91.06
508.588	78.06
508.805	96.06
509.021	71.06
509.238	84.06
509.454	80.06
509.67	79.06
509.887	91.06
510.103	86.06
510.319	84.06
510.536	93.06
510.752	91.06
510.968	74.06
511.184	79.06
511.401	94.06
511.617	82.06
511.833	85.06
512.049	94.06
512.265	94.06
512.481	79.06
512.698	71.06
512.914	71.06
513.13	80.06
513.346	77.06
513.562	104.06
513.778	90.06
513.994	83.06
514.21	87.06
514.426	78.06
514.642	73.06
514.858	81.06
515.074	96.06
515.29	89.06
515.506	95.06
515.721	79.06
515.937	84.06
516.153	75.06
516.369	81.06
516.585	87.06
516.801	89.06
517.016	105.06
517.232	105.06
517.448	90.06
517.664	75.06
517.879	79.06
518.095	84.06
518.311	79.06
518.527	79.06
518.742	80.06
518.958	89.06
519.173	87.06
519.389	103.06
