Data from StA_HRD10591_071.txt Node
Date: Fri May 16 15:19:19 EDT 2025
User: Yrep
Spectrometer: HR+D1059
Trigger mode: 1
Integration Time (sec): 1.000000E-1
Scans to average: 1
Electric dark correction enabled: true
Nonlinearity correction enabled: false
Boxcar width: 0
XAxis mode: Wavelengths
Number of Pixels in Spectrum: 2048
>>>>>Begin Spectral Data<<<<<
223.165	-17.25
223.4	-17.25
223.635	-17.25
223.869	-26.25
224.104	-14.25
224.338	-4.25
224.573	-20.25
224.808	-8.25
225.042	-12.25
225.277	-5.25
225.511	4.75
225.746	16.75
225.98	9.75
226.215	0.75
226.449	18.75
226.683	14.75
226.918	18.75
227.152	23.75
227.387	30.75
227.621	50.75
227.856	50.75
228.09	56.75
228.324	53.75
228.559	50.75
228.793	59.75
229.027	51.75
229.262	71.75
229.496	86.75
229.73	78.75
229.964	72.75
230.199	85.75
230.433	74.75
230.667	90.75
230.901	81.75
231.136	82.75
231.37	81.75
231.604	98.75
231.838	92.75
232.072	96.75
232.306	104.75
232.541	79.75
232.775	79.75
233.009	91.75
233.243	91.75
233.477	87.75
233.711	109.75
233.945	88.75
234.179	85.75
234.413	80.75
234.647	99.75
234.881	96.75
235.115	100.75
235.349	88.75
235.583	96.75
235.817	94.75
236.051	90.75
236.285	91.75
236.519	90.75
236.753	90.75
236.987	83.75
237.221	78.75
237.455	74.75
237.689	70.75
237.922	83.75
238.156	86.75
238.39	100.75
238.624	82.75
238.858	87.75
239.091	87.75
239.325	74.75
239.559	88.75
239.793	97.75
240.027	89.75
240.26	87.75
240.494	94.75
240.728	102.75
240.961	90.75
241.195	101.75
241.429	99.75
241.662	96.75
241.896	94.75
242.13	90.75
242.363	87.75
242.597	117.75
242.83	104.75
243.064	102.75
243.298	103.75
243.531	84.75
243.765	87.75
243.998	91.75
244.232	108.75
244.465	89.75
244.699	98.75
244.932	103.75
245.166	114.75
245.399	112.75
245.633	113.75
245.866	98.75
246.099	105.75
246.333	113.75
246.566	130.75
246.8	100.75
247.033	114.75
247.266	94.75
247.5	101.75
247.733	105.75
247.966	110.75
248.2	127.75
248.433	117.75
248.666	114.75
248.899	128.75
249.133	140.75
249.366	149.75
249.599	125.75
249.832	116.75
250.066	139.75
250.299	128.75
250.532	134.75
250.765	137.75
250.998	132.75
251.231	142.75
251.465	124.75
251.698	112.75
251.931	147.75
252.164	151.75
252.397	154.75
252.63	149.75
252.863	152.75
253.096	156.75
253.329	147.75
253.562	138.75
253.795	154.75
254.028	155.75
254.261	168.75
254.494	161.75
254.727	156.75
254.96	149.75
255.193	154.75
255.426	151.75
255.659	133.75
255.892	140.75
256.124	150.75
256.357	157.75
256.59	183.75
256.823	182.75
257.056	159.75
257.289	175.75
257.521	165.75
257.754	178.75
257.987	180.75
258.22	166.75
258.452	165.75
258.685	162.75
258.918	185.75
259.151	171.75
259.383	167.75
259.616	174.75
259.849	166.75
260.081	170.75
260.314	162.75
260.547	175.75
260.779	178.75
261.012	190.75
261.244	208.75
261.477	194.75
261.71	175.75
261.942	182.75
262.175	184.75
262.407	199.75
262.64	184.75
262.872	210.75
263.105	190.75
263.337	174.75
263.57	187.75
263.802	183.75
264.035	185.75
264.267	171.75
264.499	184.75
264.732	198.75
264.964	168.75
265.197	199.75
265.429	200.75
265.661	219.75
265.894	218.75
266.126	263.75
266.358	299.75
266.591	345.75
266.823	344.75
267.055	335.75
267.287	338.75
267.52	366.75
267.752	397.75
267.984	388.75
268.216	318.75
268.448	252.75
268.681	285.75
268.913	302.75
269.145	314.75
269.377	297.75
269.609	284.75
269.841	310.75
270.073	340.75
270.306	299.75
270.538	261.75
270.77	255.75
271.002	247.75
271.234	264.75
271.466	268.75
271.698	227.75
271.93	254.75
272.162	276.75
272.394	301.75
272.626	269.75
272.858	251.75
273.09	204.75
273.322	195.75
273.553	209.75
273.785	221.75
274.017	245.75
274.249	287.75
274.481	339.75
274.713	338.75
274.945	361.75
275.176	403.75
275.408	384.75
275.64	390.75
275.872	419.75
276.104	464.75
276.335	493.75
276.567	484.75
276.799	457.75
277.031	378.75
277.262	294.75
277.494	265.75
277.726	293.75
277.957	326.75
278.189	352.75
278.421	336.75
278.652	313.75
278.884	332.75
279.115	328.75
279.347	286.75
279.579	267.75
279.81	280.75
280.042	310.75
280.273	307.75
280.505	280.75
280.736	221.75
280.968	263.75
281.199	320.75
281.431	329.75
281.662	318.75
281.894	378.75
282.125	399.75
282.356	419.75
282.588	389.75
282.819	370.75
283.051	440.75
283.282	507.75
283.513	578.75
283.745	630.75
283.976	593.75
284.207	558.75
284.439	554.75
284.67	520.75
284.901	530.75
285.132	596.75
285.364	597.75
285.595	555.75
285.826	590.75
286.057	588.75
286.288	592.75
286.52	623.75
286.751	608.75
286.982	572.75
287.213	499.75
287.444	502.75
287.675	517.75
287.906	479.75
288.138	382.75
288.369	327.75
288.6	334.75
288.831	371.75
289.062	444.75
289.293	442.75
289.524	451.75
289.755	470.75
289.986	459.75
290.217	346.75
290.448	292.75
290.679	267.75
290.91	274.75
291.141	270.75
291.371	298.75
291.602	294.75
291.833	298.75
292.064	338.75
292.295	392.75
292.526	420.75
292.757	438.75
292.987	442.75
293.218	411.75
293.449	381.75
293.68	390.75
293.91	320.75
294.141	295.75
294.372	281.75
294.603	279.75
294.833	262.75
295.064	278.75
295.295	287.75
295.525	270.75
295.756	253.75
295.987	265.75
296.217	266.75
296.448	256.75
296.679	258.75
296.909	309.75
297.14	344.75
297.37	385.75
297.601	346.75
297.831	346.75
298.062	381.75
298.292	385.75
298.523	369.75
298.753	406.75
298.984	363.75
299.214	326.75
299.445	287.75
299.675	229.75
299.905	244.75
300.136	222.75
300.366	230.75
300.597	214.75
300.827	230.75
301.057	243.75
301.288	253.75
301.518	290.75
301.748	344.75
301.979	316.75
302.209	306.75
302.439	307.75
302.669	332.75
302.9	325.75
303.13	263.75
303.36	270.75
303.59	263.75
303.82	287.75
304.051	337.75
304.281	374.75
304.511	341.75
304.741	307.75
304.971	350.75
305.201	359.75
305.431	294.75
305.661	249.75
305.891	226.75
306.121	233.75
306.352	221.75
306.582	199.75
306.812	202.75
307.042	206.75
307.272	210.75
307.502	216.75
307.731	219.75
307.961	225.75
308.191	210.75
308.421	209.75
308.651	214.75
308.881	199.75
309.111	217.75
309.341	237.75
309.571	253.75
309.8	234.75
310.03	227.75
310.26	210.75
310.49	220.75
310.72	247.75
310.949	258.75
311.179	270.75
311.409	322.75
311.639	383.75
311.868	525.75
312.098	630.75
312.328	629.75
312.557	624.75
312.787	578.75
313.017	550.75
313.246	598.75
313.476	551.75
313.706	440.75
313.935	354.75
314.165	302.75
314.394	284.75
314.624	313.75
314.853	321.75
315.083	310.75
315.312	269.75
315.542	235.75
315.771	226.75
316.001	212.75
316.23	221.75
316.46	216.75
316.689	219.75
316.919	212.75
317.148	207.75
317.377	244.75
317.607	234.75
317.836	265.75
318.065	321.75
318.295	345.75
318.524	268.75
318.753	245.75
318.983	217.75
319.212	218.75
319.441	240.75
319.67	304.75
319.9	304.75
320.129	267.75
320.358	258.75
320.587	265.75
320.816	270.75
321.046	314.75
321.275	294.75
321.504	269.75
321.733	282.75
321.962	281.75
322.191	216.75
322.42	217.75
322.649	219.75
322.878	214.75
323.108	234.75
323.337	233.75
323.566	244.75
323.795	261.75
324.024	236.75
324.253	208.75
324.482	186.75
324.71	192.75
324.939	201.75
325.168	206.75
325.397	217.75
325.626	196.75
325.855	188.75
326.084	214.75
326.313	218.75
326.542	191.75
326.77	208.75
326.999	235.75
327.228	232.75
327.457	180.75
327.686	188.75
327.914	185.75
328.143	203.75
328.372	197.75
328.6	189.75
328.829	198.75
329.058	222.75
329.287	236.75
329.515	228.75
329.744	227.75
329.972	214.75
330.201	215.75
330.43	230.75
330.658	253.75
330.887	270.75
331.115	273.75
331.344	285.75
331.572	260.75
331.801	224.75
332.03	244.75
332.258	244.75
332.486	279.75
332.715	280.75
332.943	246.75
333.172	232.75
333.4	268.75
333.629	319.75
333.857	350.75
334.085	330.75
334.314	315.75
334.542	304.75
334.771	280.75
334.999	246.75
335.227	264.75
335.455	290.75
335.684	332.75
335.912	400.75
336.14	411.75
336.369	385.75
336.597	393.75
336.825	435.75
337.053	392.75
337.281	289.75
337.51	264.75
337.738	290.75
337.966	314.75
338.194	307.75
338.422	275.75
338.65	236.75
338.878	238.75
339.106	245.75
339.334	266.75
339.562	278.75
339.79	244.75
340.018	278.75
340.246	307.75
340.474	331.75
340.702	349.75
340.93	338.75
341.158	317.75
341.386	240.75
341.614	252.75
341.842	276.75
342.07	343.75
342.298	366.75
342.526	323.75
342.754	244.75
342.981	228.75
343.209	295.75
343.437	296.75
343.665	263.75
343.893	226.75
344.12	209.75
344.348	224.75
344.576	216.75
344.804	220.75
345.031	200.75
345.259	206.75
345.487	224.75
345.714	237.75
345.942	210.75
346.17	185.75
346.397	202.75
346.625	205.75
346.853	213.75
347.08	196.75
347.308	189.75
347.535	188.75
347.763	195.75
347.99	194.75
348.218	185.75
348.445	192.75
348.673	180.75
348.9	186.75
349.128	186.75
349.355	180.75
349.583	174.75
349.81	203.75
350.037	176.75
350.265	186.75
350.492	156.75
350.72	171.75
350.947	194.75
351.174	202.75
351.402	190.75
351.629	175.75
351.856	170.75
352.083	189.75
352.311	174.75
352.538	180.75
352.765	195.75
352.992	186.75
353.22	188.75
353.447	166.75
353.674	178.75
353.901	183.75
354.128	177.75
354.355	186.75
354.583	184.75
354.81	191.75
355.037	203.75
355.264	211.75
355.491	215.75
355.718	195.75
355.945	191.75
356.172	187.75
356.399	213.75
356.626	210.75
356.853	211.75
357.08	204.75
357.307	232.75
357.534	271.75
357.761	332.75
357.988	354.75
358.215	315.75
358.441	270.75
358.668	276.75
358.895	241.75
359.122	287.75
359.349	313.75
359.576	303.75
359.802	223.75
360.029	239.75
360.256	258.75
360.483	300.75
360.709	312.75
360.936	233.75
361.163	199.75
361.39	190.75
361.616	194.75
361.843	188.75
362.07	175.75
362.296	188.75
362.523	182.75
362.749	205.75
362.976	201.75
363.203	229.75
363.429	207.75
363.656	218.75
363.882	223.75
364.109	252.75
364.335	214.75
364.562	198.75
364.788	195.75
365.015	198.75
365.241	223.75
365.468	204.75
365.694	202.75
365.92	196.75
366.147	197.75
366.373	196.75
366.599	204.75
366.826	216.75
367.052	183.75
367.278	197.75
367.505	213.75
367.731	208.75
367.957	208.75
368.184	214.75
368.41	220.75
368.636	216.75
368.862	222.75
369.089	192.75
369.315	182.75
369.541	184.75
369.767	186.75
369.993	184.75
370.219	178.75
370.445	199.75
370.672	189.75
370.898	198.75
371.124	206.75
371.35	217.75
371.576	206.75
371.802	209.75
372.028	177.75
372.254	193.75
372.48	196.75
372.706	188.75
372.932	202.75
373.158	196.75
373.384	175.75
373.61	198.75
373.835	186.75
374.061	212.75
374.287	224.75
374.513	230.75
374.739	237.75
374.965	213.75
375.191	217.75
375.416	198.75
375.642	200.75
375.868	204.75
376.094	186.75
376.319	186.75
376.545	195.75
376.771	193.75
376.997	189.75
377.222	198.75
377.448	182.75
377.674	186.75
377.899	178.75
378.125	187.75
378.35	176.75
378.576	186.75
378.802	190.75
379.027	180.75
379.253	208.75
379.478	206.75
379.704	205.75
379.929	188.75
380.155	190.75
380.38	208.75
380.606	214.75
380.831	216.75
381.057	215.75
381.282	221.75
381.507	197.75
381.733	219.75
381.958	223.75
382.184	205.75
382.409	203.75
382.634	198.75
382.86	233.75
383.085	221.75
383.31	216.75
383.535	206.75
383.761	201.75
383.986	213.75
384.211	222.75
384.436	231.75
384.662	195.75
384.887	226.75
385.112	240.75
385.337	238.75
385.562	219.75
385.787	228.75
386.013	248.75
386.238	239.75
386.463	228.75
386.688	228.75
386.913	218.75
387.138	207.75
387.363	214.75
387.588	220.75
387.813	196.75
388.038	226.75
388.263	227.75
388.488	230.75
388.713	222.75
388.938	210.75
389.163	210.75
389.387	221.75
389.612	213.75
389.837	217.75
390.062	212.75
390.287	234.75
390.512	220.75
390.736	231.75
390.961	232.75
391.186	221.75
391.411	223.75
391.636	222.75
391.86	246.75
392.085	230.75
392.31	210.75
392.534	211.75
392.759	218.75
392.984	204.75
393.208	219.75
393.433	189.75
393.658	194.75
393.882	200.75
394.107	215.75
394.331	215.75
394.556	198.75
394.78	200.75
395.005	202.75
395.229	194.75
395.454	207.75
395.678	205.75
395.903	202.75
396.127	230.75
396.352	253.75
396.576	250.75
396.801	246.75
397.025	264.75
397.249	257.75
397.474	254.75
397.698	270.75
397.922	250.75
398.147	223.75
398.371	244.75
398.595	269.75
398.82	233.75
399.044	255.75
399.268	279.75
399.492	267.75
399.717	246.75
399.941	252.75
400.165	259.75
400.389	244.75
400.613	227.75
400.837	221.75
401.062	240.75
401.286	228.75
401.51	227.75
401.734	227.75
401.958	217.75
402.182	219.75
402.406	218.75
402.63	228.75
402.854	210.75
403.078	222.75
403.302	228.75
403.526	229.75
403.75	235.75
403.974	230.75
404.198	255.75
404.422	238.75
404.645	246.75
404.869	234.75
405.093	237.75
405.317	226.75
405.541	245.75
405.765	240.75
405.988	228.75
406.212	229.75
406.436	210.75
406.66	250.75
406.883	234.75
407.107	228.75
407.331	240.75
407.555	256.75
407.778	245.75
408.002	240.75
408.226	236.75
408.449	245.75
408.673	219.75
408.896	230.75
409.12	208.75
409.344	229.75
409.567	221.75
409.791	213.75
410.014	212.75
410.238	203.75
410.461	241.75
410.685	227.75
410.908	222.75
411.132	245.75
411.355	226.75
411.578	239.75
411.802	241.75
412.025	214.75
412.249	231.75
412.472	248.75
412.695	245.75
412.919	247.75
413.142	248.75
413.365	222.75
413.589	226.75
413.812	223.75
414.035	216.75
414.258	223.75
414.482	210.75
414.705	216.75
414.928	211.75
415.151	214.75
415.374	229.75
415.597	228.75
415.821	216.75
416.044	214.75
416.267	231.75
416.49	207.75
416.713	228.75
416.936	207.75
417.159	223.75
417.382	221.75
417.605	209.75
417.828	220.75
418.051	223.75
418.274	215.75
418.497	195.75
418.72	210.75
418.943	210.75
419.166	238.75
419.389	239.75
419.611	244.75
419.834	238.75
420.057	213.75
420.28	214.75
420.503	205.75
420.726	220.75
420.948	213.75
421.171	200.75
421.394	230.75
421.617	210.75
421.839	219.75
422.062	211.75
422.285	222.75
422.507	232.75
422.73	214.75
422.953	205.75
423.175	204.75
423.398	228.75
423.621	229.75
423.843	217.75
424.066	227.75
424.288	217.75
424.511	231.75
424.733	229.75
424.956	238.75
425.178	260.75
425.401	342.75
425.623	375.75
425.846	255.75
426.068	221.75
426.291	235.75
426.513	238.75
426.735	247.75
426.958	274.75
427.18	271.75
427.402	319.75
427.625	363.75
427.847	279.75
428.069	240.75
428.292	224.75
428.514	226.75
428.736	246.75
428.958	303.75
429.181	330.75
429.403	248.75
429.625	234.75
429.847	213.75
430.069	223.75
430.292	218.75
430.514	215.75
430.736	218.75
430.958	219.75
431.18	218.75
431.402	211.75
431.624	192.75
431.846	213.75
432.068	189.75
432.29	201.75
432.512	208.75
432.734	195.75
432.956	206.75
433.178	206.75
433.4	207.75
433.622	228.75
433.844	268.75
434.066	298.75
434.287	264.75
434.509	268.75
434.731	263.75
434.953	256.75
435.175	275.75
435.397	283.75
435.618	222.75
435.84	206.75
436.062	212.75
436.284	220.75
436.505	204.75
436.727	215.75
436.949	221.75
437.17	228.75
437.392	230.75
437.614	224.75
437.835	208.75
438.057	216.75
438.278	214.75
438.5	206.75
438.721	222.75
438.943	195.75
439.165	202.75
439.386	207.75
439.608	192.75
439.829	199.75
440.05	204.75
440.272	192.75
440.493	215.75
440.715	204.75
440.936	195.75
441.158	202.75
441.379	218.75
441.6	199.75
441.822	218.75
442.043	238.75
442.264	224.75
442.486	238.75
442.707	229.75
442.928	219.75
443.149	226.75
443.371	246.75
443.592	199.75
443.813	219.75
444.034	212.75
444.255	222.75
444.476	224.75
444.698	223.75
444.919	222.75
445.14	286.75
445.361	255.75
445.582	231.75
445.803	215.75
446.024	233.75
446.245	219.75
446.466	218.75
446.687	208.75
446.908	213.75
447.129	214.75
447.35	203.75
447.571	208.75
447.792	209.75
448.013	190.75
448.234	191.75
448.455	206.75
448.675	210.75
448.896	217.75
449.117	205.75
449.338	210.75
449.559	222.75
449.779	230.75
450	238.75
450.221	221.75
450.442	185.75
450.662	207.75
450.883	198.75
451.104	193.75
451.324	229.75
451.545	192.75
451.766	198.75
451.986	213.75
452.207	204.75
452.428	203.75
452.648	217.75
452.869	220.75
453.089	197.75
453.31	226.75
453.53	220.75
453.751	204.75
453.971	206.75
454.192	227.75
454.412	228.75
454.633	238.75
454.853	224.75
455.073	223.75
455.294	207.75
455.514	191.75
455.734	211.75
455.955	250.75
456.175	238.75
456.395	221.75
456.616	213.75
456.836	209.75
457.056	208.75
457.276	205.75
457.497	208.75
457.717	188.75
457.937	202.75
458.157	195.75
458.377	183.75
458.598	232.75
458.818	219.75
459.038	234.75
459.258	245.75
459.478	213.75
459.698	215.75
459.918	226.75
460.138	232.75
460.358	221.75
460.578	215.75
460.798	214.75
461.018	217.75
461.238	208.75
461.458	232.75
461.678	259.75
461.898	273.75
462.118	268.75
462.338	253.75
462.558	253.75
462.777	264.75
462.997	258.75
463.217	255.75
463.437	243.75
463.657	223.75
463.876	246.75
464.096	263.75
464.316	229.75
464.536	250.75
464.755	284.75
464.975	272.75
465.195	279.75
465.414	275.75
465.634	221.75
465.854	212.75
466.073	211.75
466.293	222.75
466.512	216.75
466.732	225.75
466.951	228.75
467.171	204.75
467.391	210.75
467.61	204.75
467.829	205.75
468.049	218.75
468.268	196.75
468.488	203.75
468.707	192.75
468.927	208.75
469.146	202.75
469.365	210.75
469.585	211.75
469.804	211.75
470.023	202.75
470.243	210.75
470.462	210.75
470.681	209.75
470.901	215.75
471.12	230.75
471.339	197.75
471.558	200.75
471.777	218.75
471.997	223.75
472.216	208.75
472.435	209.75
472.654	215.75
472.873	213.75
473.092	218.75
473.311	215.75
473.53	206.75
473.749	203.75
473.968	216.75
474.187	187.75
474.406	221.75
474.625	204.75
474.844	196.75
475.063	205.75
475.282	222.75
475.501	234.75
475.72	242.75
475.939	219.75
476.158	214.75
476.377	202.75
476.596	227.75
476.814	224.75
477.033	201.75
477.252	195.75
477.471	208.75
477.69	229.75
477.908	210.75
478.127	204.75
478.346	223.75
478.564	222.75
478.783	211.75
479.002	246.75
479.22	236.75
479.439	240.75
479.658	237.75
479.876	243.75
480.095	240.75
480.313	250.75
480.532	241.75
480.751	233.75
480.969	219.75
481.188	220.75
481.406	236.75
481.624	221.75
481.843	223.75
482.061	230.75
482.28	245.75
482.498	255.75
482.717	241.75
482.935	230.75
483.153	240.75
483.372	231.75
483.59	225.75
483.808	238.75
484.027	221.75
484.245	227.75
484.463	227.75
484.681	233.75
484.9	252.75
485.118	237.75
485.336	224.75
485.554	233.75
485.772	227.75
485.99	226.75
486.209	238.75
486.427	251.75
486.645	237.75
486.863	223.75
487.081	231.75
487.299	254.75
487.517	244.75
487.735	219.75
487.953	215.75
488.171	231.75
488.389	238.75
488.607	251.75
488.825	280.75
489.043	253.75
489.261	234.75
489.479	237.75
489.696	233.75
489.914	230.75
490.132	214.75
490.35	246.75
490.568	253.75
490.786	238.75
491.003	237.75
491.221	256.75
491.439	246.75
491.657	235.75
491.874	231.75
492.092	271.75
492.31	284.75
492.527	287.75
492.745	248.75
492.963	242.75
493.18	240.75
493.398	242.75
493.615	248.75
493.833	256.75
494.05	259.75
494.268	240.75
494.485	252.75
494.703	237.75
494.92	260.75
495.138	226.75
495.355	235.75
495.573	269.75
495.79	256.75
496.008	237.75
496.225	242.75
496.442	247.75
496.66	250.75
496.877	255.75
497.094	256.75
497.312	269.75
497.529	285.75
497.746	256.75
497.963	273.75
498.181	268.75
498.398	288.75
498.615	297.75
498.832	293.75
499.049	295.75
499.267	304.75
499.484	307.75
499.701	336.75
499.918	352.75
500.135	358.75
500.352	386.75
500.569	376.75
500.786	375.75
501.003	350.75
501.22	328.75
501.437	338.75
501.654	334.75
501.871	299.75
502.088	304.75
502.305	274.75
502.522	282.75
502.739	284.75
502.956	258.75
503.172	255.75
503.389	277.75
503.606	260.75
