Data from StA_HRD10591_021.txt Node
Date: Fri May 16 15:18:55 EDT 2025
User: Yrep
Spectrometer: HR+D1059
Trigger mode: 1
Integration Time (sec): 1.000000E-1
Scans to average: 1
Electric dark correction enabled: true
Nonlinearity correction enabled: false
Boxcar width: 0
XAxis mode: Wavelengths
Number of Pixels in Spectrum: 2048
>>>>>Begin Spectral Data<<<<<
223.165	-8.25
223.4	-8.25
223.635	-8.25
223.869	-23.25
224.104	-7.25
224.338	-8.25
224.573	-25.25
224.808	-29.25
225.042	-11.25
225.277	-9.25
225.511	7.75
225.746	16.75
225.98	5.75
226.215	14.75
226.449	13.75
226.683	23.75
226.918	19.75
227.152	19.75
227.387	28.75
227.621	38.75
227.856	31.75
228.09	43.75
228.324	51.75
228.559	63.75
228.793	41.75
229.027	71.75
229.262	71.75
229.496	82.75
229.73	79.75
229.964	76.75
230.199	71.75
230.433	83.75
230.667	63.75
230.901	85.75
231.136	98.75
231.37	76.75
231.604	90.75
231.838	93.75
232.072	101.75
232.306	96.75
232.541	91.75
232.775	89.75
233.009	98.75
233.243	86.75
233.477	106.75
233.711	87.75
233.945	96.75
234.179	87.75
234.413	91.75
234.647	90.75
234.881	107.75
235.115	80.75
235.349	86.75
235.583	82.75
235.817	93.75
236.051	82.75
236.285	86.75
236.519	82.75
236.753	77.75
236.987	93.75
237.221	88.75
237.455	87.75
237.689	86.75
237.922	95.75
238.156	83.75
238.39	93.75
238.624	84.75
238.858	74.75
239.091	83.75
239.325	85.75
239.559	93.75
239.793	88.75
240.027	85.75
240.26	94.75
240.494	94.75
240.728	105.75
240.961	83.75
241.195	90.75
241.429	82.75
241.662	102.75
241.896	95.75
242.13	98.75
242.363	99.75
242.597	87.75
242.83	98.75
243.064	99.75
243.298	102.75
243.531	85.75
243.765	88.75
243.998	98.75
244.232	102.75
244.465	93.75
244.699	90.75
244.932	96.75
245.166	112.75
245.399	105.75
245.633	116.75
245.866	102.75
246.099	96.75
246.333	102.75
246.566	109.75
246.8	108.75
247.033	108.75
247.266	114.75
247.5	108.75
247.733	115.75
247.966	111.75
248.2	110.75
248.433	124.75
248.666	110.75
248.899	118.75
249.133	129.75
249.366	137.75
249.599	122.75
249.832	123.75
250.066	114.75
250.299	130.75
250.532	110.75
250.765	124.75
250.998	119.75
251.231	119.75
251.465	116.75
251.698	134.75
251.931	130.75
252.164	133.75
252.397	151.75
252.63	151.75
252.863	151.75
253.096	138.75
253.329	138.75
253.562	131.75
253.795	148.75
254.028	153.75
254.261	146.75
254.494	135.75
254.727	142.75
254.96	145.75
255.193	140.75
255.426	138.75
255.659	133.75
255.892	140.75
256.124	133.75
256.357	150.75
256.59	144.75
256.823	142.75
257.056	166.75
257.289	159.75
257.521	158.75
257.754	151.75
257.987	155.75
258.22	162.75
258.452	149.75
258.685	151.75
258.918	157.75
259.151	183.75
259.383	167.75
259.616	144.75
259.849	160.75
260.081	159.75
260.314	144.75
260.547	155.75
260.779	183.75
261.012	184.75
261.244	172.75
261.477	174.75
261.71	186.75
261.942	171.75
262.175	182.75
262.407	178.75
262.64	196.75
262.872	182.75
263.105	190.75
263.337	193.75
263.57	183.75
263.802	176.75
264.035	169.75
264.267	171.75
264.499	166.75
264.732	169.75
264.964	164.75
265.197	184.75
265.429	166.75
265.661	207.75
265.894	219.75
266.126	256.75
266.358	267.75
266.591	293.75
266.823	319.75
267.055	296.75
267.287	314.75
267.52	318.75
267.752	325.75
267.984	342.75
268.216	279.75
268.448	222.75
268.681	237.75
268.913	277.75
269.145	302.75
269.377	285.75
269.609	250.75
269.841	274.75
270.073	304.75
270.306	273.75
270.538	250.75
270.77	231.75
271.002	231.75
271.234	254.75
271.466	232.75
271.698	226.75
271.93	224.75
272.162	240.75
272.394	247.75
272.626	255.75
272.858	232.75
273.09	196.75
273.322	201.75
273.553	185.75
273.785	198.75
274.017	210.75
274.249	254.75
274.481	301.75
274.713	286.75
274.945	333.75
275.176	366.75
275.408	360.75
275.64	347.75
275.872	371.75
276.104	404.75
276.335	433.75
276.567	415.75
276.799	405.75
277.031	344.75
277.262	268.75
277.494	258.75
277.726	268.75
277.957	295.75
278.189	307.75
278.421	295.75
278.652	284.75
278.884	296.75
279.115	274.75
279.347	246.75
279.579	242.75
279.81	254.75
280.042	268.75
280.273	271.75
280.505	251.75
280.736	227.75
280.968	259.75
281.199	290.75
281.431	310.75
281.662	300.75
281.894	312.75
282.125	360.75
282.356	355.75
282.588	340.75
282.819	325.75
283.051	378.75
283.282	462.75
283.513	535.75
283.745	552.75
283.976	518.75
284.207	504.75
284.439	512.75
284.67	477.75
284.901	459.75
285.132	490.75
285.364	491.75
285.595	469.75
285.826	496.75
286.057	502.75
286.288	500.75
286.52	523.75
286.751	534.75
286.982	473.75
287.213	436.75
287.444	422.75
287.675	457.75
287.906	424.75
288.138	368.75
288.369	298.75
288.6	273.75
288.831	315.75
289.062	380.75
289.293	390.75
289.524	408.75
289.755	410.75
289.986	414.75
290.217	329.75
290.448	269.75
290.679	250.75
290.91	255.75
291.141	280.75
291.371	270.75
291.602	278.75
291.833	281.75
292.064	298.75
292.295	348.75
292.526	359.75
292.757	370.75
292.987	390.75
293.218	357.75
293.449	334.75
293.68	323.75
293.91	299.75
294.141	282.75
294.372	275.75
294.603	266.75
294.833	277.75
295.064	274.75
295.295	255.75
295.525	263.75
295.756	239.75
295.987	234.75
296.217	241.75
296.448	228.75
296.679	230.75
296.909	272.75
297.14	319.75
297.37	335.75
297.601	319.75
297.831	287.75
298.062	335.75
298.292	324.75
298.523	341.75
298.753	368.75
298.984	329.75
299.214	305.75
299.445	252.75
299.675	224.75
299.905	226.75
300.136	223.75
300.366	215.75
300.597	207.75
300.827	211.75
301.057	218.75
301.288	242.75
301.518	272.75
301.748	287.75
301.979	296.75
302.209	260.75
302.439	266.75
302.669	278.75
302.9	291.75
303.13	266.75
303.36	247.75
303.59	257.75
303.82	274.75
304.051	304.75
304.281	334.75
304.511	302.75
304.741	289.75
304.971	295.75
305.201	316.75
305.431	276.75
305.661	237.75
305.891	228.75
306.121	230.75
306.352	211.75
306.582	198.75
306.812	193.75
307.042	181.75
307.272	188.75
307.502	200.75
307.731	192.75
307.961	189.75
308.191	189.75
308.421	194.75
308.651	201.75
308.881	199.75
309.111	216.75
309.341	220.75
309.571	244.75
309.8	228.75
310.03	214.75
310.26	211.75
310.49	231.75
310.72	233.75
310.949	242.75
311.179	248.75
311.409	268.75
311.639	366.75
311.868	445.75
312.098	540.75
312.328	532.75
312.557	518.75
312.787	508.75
313.017	500.75
313.246	531.75
313.476	500.75
313.706	388.75
313.935	311.75
314.165	272.75
314.394	275.75
314.624	280.75
314.853	277.75
315.083	268.75
315.312	235.75
315.542	222.75
315.771	212.75
316.001	204.75
316.23	193.75
316.46	208.75
316.689	229.75
316.919	222.75
317.148	214.75
317.377	214.75
317.607	228.75
317.836	258.75
318.065	273.75
318.295	304.75
318.524	258.75
318.753	218.75
318.983	210.75
319.212	199.75
319.441	220.75
319.67	237.75
319.9	282.75
320.129	249.75
320.358	244.75
320.587	235.75
320.816	242.75
321.046	274.75
321.275	254.75
321.504	245.75
321.733	256.75
321.962	259.75
322.191	224.75
322.42	190.75
322.649	191.75
322.878	190.75
323.108	207.75
323.337	219.75
323.566	238.75
323.795	238.75
324.024	210.75
324.253	220.75
324.482	186.75
324.71	184.75
324.939	194.75
325.168	190.75
325.397	200.75
325.626	199.75
325.855	188.75
326.084	191.75
326.313	198.75
326.542	194.75
326.77	210.75
326.999	210.75
327.228	210.75
327.457	189.75
327.686	189.75
327.914	189.75
328.143	189.75
328.372	183.75
328.6	183.75
328.829	197.75
329.058	206.75
329.287	209.75
329.515	220.75
329.744	223.75
329.972	209.75
330.201	203.75
330.43	210.75
330.658	236.75
330.887	246.75
331.115	268.75
331.344	258.75
331.572	217.75
331.801	234.75
332.03	221.75
332.258	220.75
332.486	250.75
332.715	250.75
332.943	232.75
333.172	228.75
333.4	271.75
333.629	285.75
333.857	297.75
334.085	290.75
334.314	284.75
334.542	269.75
334.771	271.75
334.999	240.75
335.227	252.75
335.455	286.75
335.684	321.75
335.912	363.75
336.14	353.75
336.369	339.75
336.597	344.75
336.825	382.75
337.053	330.75
337.281	260.75
337.51	244.75
337.738	264.75
337.966	280.75
338.194	307.75
338.422	250.75
338.65	236.75
338.878	218.75
339.106	243.75
339.334	262.75
339.562	249.75
339.79	247.75
340.018	253.75
340.246	284.75
340.474	314.75
340.702	297.75
340.93	303.75
341.158	268.75
341.386	223.75
341.614	238.75
341.842	269.75
342.07	310.75
342.298	342.75
342.526	281.75
342.754	226.75
342.981	245.75
343.209	249.75
343.437	255.75
343.665	246.75
343.893	217.75
344.12	206.75
344.348	200.75
344.576	209.75
344.804	197.75
345.031	197.75
345.259	198.75
345.487	213.75
345.714	199.75
345.942	196.75
346.17	200.75
346.397	189.75
346.625	196.75
346.853	188.75
347.08	170.75
347.308	187.75
347.535	194.75
347.763	186.75
347.99	176.75
348.218	197.75
348.445	177.75
348.673	172.75
348.9	182.75
349.128	172.75
349.355	181.75
349.583	196.75
349.81	174.75
350.037	183.75
350.265	168.75
350.492	157.75
350.72	173.75
350.947	180.75
351.174	203.75
351.402	188.75
351.629	177.75
351.856	178.75
352.083	186.75
352.311	185.75
352.538	166.75
352.765	177.75
352.992	178.75
353.22	180.75
353.447	179.75
353.674	192.75
353.901	188.75
354.128	166.75
354.355	179.75
354.583	178.75
354.81	193.75
355.037	188.75
355.264	202.75
355.491	200.75
355.718	191.75
355.945	191.75
356.172	184.75
356.399	198.75
356.626	187.75
356.853	196.75
357.08	211.75
357.307	212.75
357.534	255.75
357.761	287.75
357.988	314.75
358.215	271.75
358.441	250.75
358.668	243.75
358.895	235.75
359.122	261.75
359.349	305.75
359.576	269.75
359.802	215.75
360.029	228.75
360.256	243.75
360.483	266.75
360.709	285.75
360.936	220.75
361.163	185.75
361.39	183.75
361.616	200.75
361.843	190.75
362.07	186.75
362.296	182.75
362.523	174.75
362.749	191.75
362.976	194.75
363.203	198.75
363.429	196.75
363.656	196.75
363.882	219.75
364.109	231.75
364.335	213.75
364.562	194.75
364.788	204.75
365.015	211.75
365.241	210.75
365.468	200.75
365.694	202.75
365.92	180.75
366.147	192.75
366.373	190.75
366.599	201.75
366.826	182.75
367.052	174.75
367.278	190.75
367.505	185.75
367.731	199.75
367.957	192.75
368.184	195.75
368.41	186.75
368.636	191.75
368.862	188.75
369.089	198.75
369.315	183.75
369.541	180.75
369.767	202.75
369.993	167.75
370.219	188.75
370.445	182.75
370.672	192.75
370.898	198.75
371.124	200.75
371.35	204.75
371.576	190.75
371.802	196.75
372.028	190.75
372.254	197.75
372.48	182.75
372.706	192.75
372.932	190.75
373.158	182.75
373.384	186.75
373.61	170.75
373.835	204.75
374.061	196.75
374.287	204.75
374.513	240.75
374.739	201.75
374.965	212.75
375.191	210.75
375.416	203.75
375.642	192.75
375.868	205.75
376.094	173.75
376.319	187.75
376.545	170.75
376.771	205.75
376.997	190.75
377.222	188.75
377.448	177.75
377.674	179.75
377.899	168.75
378.125	165.75
378.35	178.75
378.576	190.75
378.802	190.75
379.027	186.75
379.253	204.75
379.478	194.75
379.704	191.75
379.929	177.75
380.155	183.75
380.38	195.75
380.606	198.75
380.831	199.75
381.057	205.75
381.282	206.75
381.507	196.75
381.733	219.75
381.958	206.75
382.184	203.75
382.409	193.75
382.634	203.75
382.86	192.75
383.085	217.75
383.31	202.75
383.535	205.75
383.761	200.75
383.986	201.75
384.211	200.75
384.436	197.75
384.662	211.75
384.887	229.75
385.112	235.75
385.337	252.75
385.562	235.75
385.787	222.75
386.013	210.75
386.238	204.75
386.463	214.75
386.688	238.75
386.913	216.75
387.138	214.75
387.363	218.75
387.588	206.75
387.813	187.75
388.038	209.75
388.263	212.75
388.488	223.75
388.713	216.75
388.938	218.75
389.163	209.75
389.387	216.75
389.612	201.75
389.837	200.75
390.062	223.75
390.287	214.75
390.512	213.75
390.736	218.75
390.961	222.75
391.186	217.75
391.411	234.75
391.636	226.75
391.86	223.75
392.085	233.75
392.31	218.75
392.534	199.75
392.759	194.75
392.984	211.75
393.208	208.75
393.433	210.75
393.658	197.75
393.882	213.75
394.107	203.75
394.331	210.75
394.556	197.75
394.78	204.75
395.005	212.75
395.229	199.75
395.454	200.75
395.678	212.75
395.903	199.75
396.127	217.75
396.352	238.75
396.576	242.75
396.801	244.75
397.025	244.75
397.249	240.75
397.474	245.75
397.698	236.75
397.922	254.75
398.147	241.75
398.371	246.75
398.595	236.75
398.82	236.75
399.044	255.75
399.268	271.75
399.492	260.75
399.717	266.75
399.941	254.75
400.165	240.75
400.389	242.75
400.613	237.75
400.837	230.75
401.062	228.75
401.286	231.75
401.51	223.75
401.734	194.75
401.958	215.75
402.182	219.75
402.406	206.75
402.63	215.75
402.854	223.75
403.078	214.75
403.302	222.75
403.526	239.75
403.75	232.75
403.974	249.75
404.198	215.75
404.422	210.75
404.645	217.75
404.869	231.75
405.093	236.75
405.317	245.75
405.541	226.75
405.765	236.75
405.988	233.75
406.212	222.75
406.436	222.75
406.66	247.75
406.883	234.75
407.107	234.75
407.331	223.75
407.555	235.75
407.778	252.75
408.002	232.75
408.226	249.75
408.449	234.75
408.673	217.75
408.896	207.75
409.12	198.75
409.344	212.75
409.567	227.75
409.791	215.75
410.014	212.75
410.238	231.75
410.461	231.75
410.685	222.75
410.908	220.75
411.132	234.75
411.355	237.75
411.578	232.75
411.802	208.75
412.025	221.75
412.249	241.75
412.472	224.75
412.695	224.75
412.919	229.75
413.142	227.75
413.365	229.75
413.589	227.75
413.812	212.75
414.035	211.75
414.258	220.75
414.482	213.75
414.705	228.75
414.928	221.75
415.151	219.75
415.374	223.75
415.597	216.75
415.821	214.75
416.044	222.75
416.267	212.75
416.49	211.75
416.713	215.75
416.936	226.75
417.159	220.75
417.382	220.75
417.605	234.75
417.828	214.75
418.051	228.75
418.274	213.75
418.497	219.75
418.72	215.75
418.943	216.75
419.166	223.75
419.389	227.75
419.611	220.75
419.834	233.75
420.057	225.75
420.28	210.75
420.503	209.75
420.726	218.75
420.948	223.75
421.171	218.75
421.394	222.75
421.617	223.75
421.839	213.75
422.062	221.75
422.285	217.75
422.507	235.75
422.73	242.75
422.953	233.75
423.175	222.75
423.398	214.75
423.621	207.75
423.843	212.75
424.066	241.75
424.288	232.75
424.511	223.75
424.733	222.75
424.956	252.75
425.178	240.75
425.401	298.75
425.623	346.75
425.846	252.75
426.068	243.75
426.291	232.75
426.513	227.75
426.735	244.75
426.958	246.75
427.18	240.75
427.402	302.75
427.625	358.75
427.847	271.75
428.069	241.75
428.292	231.75
428.514	251.75
428.736	228.75
428.958	281.75
429.181	289.75
429.403	260.75
429.625	222.75
429.847	215.75
430.069	214.75
430.292	213.75
430.514	188.75
430.736	210.75
430.958	211.75
431.18	196.75
431.402	208.75
431.624	215.75
431.846	195.75
432.068	204.75
432.29	198.75
432.512	190.75
432.734	207.75
432.956	206.75
433.178	204.75
433.4	209.75
433.622	216.75
433.844	258.75
434.066	262.75
434.287	262.75
434.509	261.75
434.731	241.75
434.953	221.75
435.175	262.75
435.397	266.75
435.618	198.75
435.84	212.75
436.062	223.75
436.284	212.75
436.505	181.75
436.727	204.75
436.949	213.75
437.17	214.75
437.392	217.75
437.614	216.75
437.835	211.75
438.057	208.75
438.278	205.75
438.5	212.75
438.721	206.75
438.943	213.75
439.165	203.75
439.386	189.75
439.608	207.75
439.829	205.75
440.05	187.75
440.272	201.75
440.493	205.75
440.715	195.75
440.936	207.75
441.158	211.75
441.379	223.75
441.6	208.75
441.822	220.75
442.043	218.75
442.264	215.75
442.486	221.75
442.707	214.75
442.928	235.75
443.149	223.75
443.371	218.75
443.592	224.75
443.813	212.75
444.034	218.75
444.255	213.75
444.476	234.75
444.698	235.75
444.919	224.75
445.14	310.75
445.361	258.75
445.582	222.75
445.803	222.75
446.024	214.75
446.245	212.75
446.466	206.75
446.687	217.75
446.908	207.75
447.129	184.75
447.35	204.75
447.571	214.75
447.792	206.75
448.013	211.75
448.234	206.75
448.455	200.75
448.675	191.75
448.896	208.75
449.117	213.75
449.338	200.75
449.559	208.75
449.779	234.75
450	214.75
450.221	215.75
450.442	205.75
450.662	208.75
450.883	198.75
451.104	208.75
451.324	220.75
451.545	211.75
451.766	214.75
451.986	199.75
452.207	207.75
452.428	209.75
452.648	198.75
452.869	206.75
453.089	216.75
453.31	207.75
453.53	213.75
453.751	202.75
453.971	211.75
454.192	226.75
454.412	216.75
454.633	212.75
454.853	212.75
455.073	192.75
455.294	196.75
455.514	204.75
455.734	210.75
455.955	205.75
456.175	230.75
456.395	187.75
456.616	196.75
456.836	189.75
457.056	191.75
457.276	212.75
457.497	193.75
457.717	197.75
457.937	189.75
458.157	198.75
458.377	207.75
458.598	193.75
458.818	219.75
459.038	228.75
459.258	214.75
459.478	240.75
459.698	212.75
459.918	203.75
460.138	233.75
460.358	236.75
460.578	216.75
460.798	220.75
461.018	217.75
461.238	223.75
461.458	230.75
461.678	246.75
461.898	260.75
462.118	249.75
462.338	263.75
462.558	254.75
462.777	231.75
462.997	259.75
463.217	238.75
463.437	234.75
463.657	243.75
463.876	243.75
464.096	259.75
464.316	259.75
464.536	254.75
464.755	291.75
464.975	243.75
465.195	252.75
465.414	250.75
465.634	207.75
465.854	207.75
466.073	198.75
466.293	214.75
466.512	198.75
466.732	221.75
466.951	214.75
467.171	208.75
467.391	207.75
467.61	186.75
467.829	188.75
468.049	202.75
468.268	191.75
468.488	204.75
468.707	195.75
468.927	215.75
469.146	196.75
469.365	196.75
469.585	198.75
469.804	211.75
470.023	204.75
470.243	200.75
470.462	220.75
470.681	219.75
470.901	220.75
471.12	216.75
471.339	187.75
471.558	186.75
471.777	191.75
471.997	196.75
472.216	201.75
472.435	198.75
472.654	199.75
472.873	209.75
473.092	208.75
473.311	226.75
473.53	194.75
473.749	189.75
473.968	202.75
474.187	194.75
474.406	219.75
474.625	187.75
474.844	207.75
475.063	216.75
475.282	211.75
475.501	215.75
475.72	224.75
475.939	220.75
476.158	212.75
476.377	223.75
476.596	214.75
476.814	218.75
477.033	227.75
477.252	200.75
477.471	202.75
477.69	215.75
477.908	214.75
478.127	198.75
478.346	235.75
478.564	223.75
478.783	210.75
479.002	245.75
479.22	235.75
479.439	243.75
479.658	215.75
479.876	230.75
480.095	235.75
480.313	244.75
480.532	220.75
480.751	221.75
480.969	221.75
481.188	220.75
481.406	223.75
481.624	221.75
481.843	224.75
482.061	212.75
482.28	219.75
482.498	249.75
482.717	228.75
482.935	215.75
483.153	244.75
483.372	210.75
483.59	222.75
483.808	219.75
484.027	238.75
484.245	213.75
484.463	212.75
484.681	229.75
484.9	248.75
485.118	231.75
485.336	217.75
485.554	234.75
485.772	229.75
485.99	231.75
486.209	235.75
486.427	246.75
486.645	218.75
486.863	228.75
487.081	251.75
487.299	257.75
487.517	239.75
487.735	228.75
487.953	230.75
488.171	212.75
488.389	221.75
488.607	240.75
488.825	260.75
489.043	256.75
489.261	242.75
489.479	227.75
489.696	233.75
489.914	218.75
490.132	230.75
490.35	230.75
490.568	246.75
490.786	236.75
491.003	230.75
491.221	237.75
491.439	249.75
491.657	235.75
491.874	243.75
492.092	265.75
492.31	294.75
492.527	270.75
492.745	250.75
492.963	240.75
493.18	242.75
493.398	246.75
493.615	244.75
493.833	249.75
494.05	245.75
494.268	259.75
494.485	245.75
494.703	243.75
494.92	252.75
495.138	245.75
495.355	248.75
495.573	263.75
495.79	269.75
496.008	252.75
496.225	248.75
496.442	264.75
496.66	261.75
496.877	261.75
497.094	260.75
497.312	261.75
497.529	283.75
497.746	254.75
497.963	279.75
498.181	276.75
498.398	264.75
498.615	287.75
498.832	286.75
499.049	314.75
499.267	310.75
499.484	331.75
499.701	341.75
499.918	358.75
500.135	365.75
500.352	374.75
500.569	366.75
500.786	398.75
501.003	371.75
501.22	351.75
501.437	348.75
501.654	315.75
501.871	304.75
502.088	295.75
502.305	291.75
502.522	285.75
502.739	277.75
502.956	264.75
503.172	275.75
503.389	284.75
503.606	262.75
