Data from StA_HRD10591_077.txt Node
Date: Fri May 16 15:19:22 EDT 2025
User: Yrep
Spectrometer: HR+D1059
Trigger mode: 1
Integration Time (sec): 1.000000E-1
Scans to average: 1
Electric dark correction enabled: true
Nonlinearity correction enabled: false
Boxcar width: 0
XAxis mode: Wavelengths
Number of Pixels in Spectrum: 2048
>>>>>Begin Spectral Data<<<<<
223.165	-29.25
223.4	-29.25
223.635	-29.25
223.869	-8.25
224.104	-11.25
224.338	-21.25
224.573	-17.25
224.808	-19.25
225.042	-13.25
225.277	-11.25
225.511	2.75
225.746	5.75
225.98	4.75
226.215	2.75
226.449	22.75
226.683	34.75
226.918	22.75
227.152	34.75
227.387	42.75
227.621	30.75
227.856	44.75
228.09	46.75
228.324	42.75
228.559	55.75
228.793	54.75
229.027	60.75
229.262	71.75
229.496	64.75
229.73	66.75
229.964	73.75
230.199	71.75
230.433	62.75
230.667	81.75
230.901	77.75
231.136	84.75
231.37	84.75
231.604	84.75
231.838	73.75
232.072	79.75
232.306	87.75
232.541	88.75
232.775	91.75
233.009	86.75
233.243	77.75
233.477	88.75
233.711	81.75
233.945	73.75
234.179	89.75
234.413	78.75
234.647	77.75
234.881	78.75
235.115	86.75
235.349	85.75
235.583	74.75
235.817	63.75
236.051	67.75
236.285	84.75
236.519	77.75
236.753	73.75
236.987	74.75
237.221	79.75
237.455	73.75
237.689	69.75
237.922	89.75
238.156	78.75
238.39	80.75
238.624	91.75
238.858	87.75
239.091	76.75
239.325	86.75
239.559	62.75
239.793	63.75
240.027	69.75
240.26	62.75
240.494	76.75
240.728	80.75
240.961	79.75
241.195	79.75
241.429	77.75
241.662	65.75
241.896	84.75
242.13	85.75
242.363	73.75
242.597	80.75
242.83	87.75
243.064	65.75
243.298	75.75
243.531	61.75
243.765	82.75
243.998	78.75
244.232	66.75
244.465	65.75
244.699	83.75
244.932	74.75
245.166	74.75
245.399	66.75
245.633	65.75
245.866	59.75
246.099	75.75
246.333	88.75
246.566	76.75
246.8	76.75
247.033	66.75
247.266	81.75
247.5	84.75
247.733	84.75
247.966	81.75
248.2	72.75
248.433	78.75
248.666	89.75
248.899	78.75
249.133	79.75
249.366	80.75
249.599	85.75
249.832	83.75
250.066	98.75
250.299	73.75
250.532	69.75
250.765	75.75
250.998	72.75
251.231	83.75
251.465	84.75
251.698	73.75
251.931	75.75
252.164	76.75
252.397	86.75
252.63	80.75
252.863	87.75
253.096	82.75
253.329	63.75
253.562	80.75
253.795	78.75
254.028	93.75
254.261	72.75
254.494	86.75
254.727	82.75
254.96	66.75
255.193	86.75
255.426	80.75
255.659	74.75
255.892	73.75
256.124	82.75
256.357	92.75
256.59	78.75
256.823	84.75
257.056	87.75
257.289	81.75
257.521	84.75
257.754	72.75
257.987	70.75
258.22	86.75
258.452	81.75
258.685	78.75
258.918	72.75
259.151	75.75
259.383	83.75
259.616	80.75
259.849	75.75
260.081	87.75
260.314	79.75
260.547	77.75
260.779	61.75
261.012	96.75
261.244	89.75
261.477	93.75
261.71	78.75
261.942	66.75
262.175	74.75
262.407	79.75
262.64	62.75
262.872	80.75
263.105	86.75
263.337	102.75
263.57	86.75
263.802	77.75
264.035	97.75
264.267	96.75
264.499	81.75
264.732	72.75
264.964	71.75
265.197	83.75
265.429	70.75
265.661	73.75
265.894	77.75
266.126	88.75
266.358	80.75
266.591	101.75
266.823	81.75
267.055	77.75
267.287	84.75
267.52	85.75
267.752	96.75
267.984	81.75
268.216	81.75
268.448	89.75
268.681	80.75
268.913	88.75
269.145	80.75
269.377	76.75
269.609	88.75
269.841	91.75
270.073	82.75
270.306	93.75
270.538	78.75
270.77	102.75
271.002	84.75
271.234	78.75
271.466	84.75
271.698	84.75
271.93	78.75
272.162	87.75
272.394	92.75
272.626	76.75
272.858	88.75
273.09	85.75
273.322	102.75
273.553	85.75
273.785	84.75
274.017	87.75
274.249	97.75
274.481	89.75
274.713	82.75
274.945	88.75
275.176	94.75
275.408	89.75
275.64	90.75
275.872	81.75
276.104	82.75
276.335	95.75
276.567	90.75
276.799	88.75
277.031	73.75
277.262	80.75
277.494	86.75
277.726	88.75
277.957	87.75
278.189	82.75
278.421	89.75
278.652	95.75
278.884	87.75
279.115	96.75
279.347	84.75
279.579	73.75
279.81	90.75
280.042	83.75
280.273	82.75
280.505	86.75
280.736	73.75
280.968	97.75
281.199	82.75
281.431	82.75
281.662	78.75
281.894	94.75
282.125	84.75
282.356	95.75
282.588	85.75
282.819	89.75
283.051	85.75
283.282	88.75
283.513	95.75
283.745	87.75
283.976	98.75
284.207	80.75
284.439	92.75
284.67	82.75
284.901	93.75
285.132	92.75
285.364	86.75
285.595	81.75
285.826	93.75
286.057	92.75
286.288	77.75
286.52	74.75
286.751	82.75
286.982	89.75
287.213	84.75
287.444	94.75
287.675	90.75
287.906	81.75
288.138	93.75
288.369	73.75
288.6	75.75
288.831	95.75
289.062	89.75
289.293	93.75
289.524	85.75
289.755	102.75
289.986	84.75
290.217	75.75
290.448	84.75
290.679	83.75
290.91	74.75
291.141	81.75
291.371	90.75
291.602	74.75
291.833	89.75
292.064	74.75
292.295	83.75
292.526	86.75
292.757	91.75
292.987	83.75
293.218	90.75
293.449	81.75
293.68	86.75
293.91	90.75
294.141	79.75
294.372	85.75
294.603	88.75
294.833	91.75
295.064	90.75
295.295	90.75
295.525	87.75
295.756	85.75
295.987	96.75
296.217	101.75
296.448	84.75
296.679	85.75
296.909	89.75
297.14	92.75
297.37	91.75
297.601	85.75
297.831	96.75
298.062	98.75
298.292	84.75
298.523	90.75
298.753	89.75
298.984	77.75
299.214	92.75
299.445	82.75
299.675	101.75
299.905	92.75
300.136	89.75
300.366	84.75
300.597	67.75
300.827	84.75
301.057	103.75
301.288	94.75
301.518	100.75
301.748	106.75
301.979	98.75
302.209	98.75
302.439	92.75
302.669	90.75
302.9	85.75
303.13	87.75
303.36	82.75
303.59	92.75
303.82	93.75
304.051	97.75
304.281	92.75
304.511	92.75
304.741	79.75
304.971	89.75
305.201	103.75
305.431	83.75
305.661	88.75
305.891	78.75
306.121	81.75
306.352	84.75
306.582	87.75
306.812	102.75
307.042	79.75
307.272	82.75
307.502	90.75
307.731	89.75
307.961	92.75
308.191	78.75
308.421	84.75
308.651	78.75
308.881	73.75
309.111	66.75
309.341	85.75
309.571	71.75
309.8	83.75
310.03	95.75
310.26	81.75
310.49	84.75
310.72	87.75
310.949	66.75
311.179	90.75
311.409	94.75
311.639	76.75
311.868	72.75
312.098	100.75
312.328	99.75
312.557	90.75
312.787	86.75
313.017	82.75
313.246	105.75
313.476	92.75
313.706	79.75
313.935	96.75
314.165	86.75
314.394	88.75
314.624	78.75
314.853	95.75
315.083	85.75
315.312	84.75
315.542	81.75
315.771	76.75
316.001	82.75
316.23	83.75
316.46	97.75
316.689	76.75
316.919	81.75
317.148	89.75
317.377	78.75
317.607	84.75
317.836	86.75
318.065	78.75
318.295	78.75
318.524	78.75
318.753	77.75
318.983	88.75
319.212	81.75
319.441	72.75
319.67	91.75
319.9	92.75
320.129	88.75
320.358	96.75
320.587	79.75
320.816	82.75
321.046	96.75
321.275	84.75
321.504	82.75
321.733	88.75
321.962	66.75
322.191	89.75
322.42	94.75
322.649	72.75
322.878	81.75
323.108	75.75
323.337	75.75
323.566	63.75
323.795	104.75
324.024	80.75
324.253	85.75
324.482	80.75
324.71	82.75
324.939	82.75
325.168	84.75
325.397	95.75
325.626	96.75
325.855	97.75
326.084	92.75
326.313	84.75
326.542	101.75
326.77	85.75
326.999	88.75
327.228	90.75
327.457	75.75
327.686	90.75
327.914	92.75
328.143	90.75
328.372	72.75
328.6	73.75
328.829	80.75
329.058	84.75
329.287	92.75
329.515	85.75
329.744	88.75
329.972	99.75
330.201	85.75
330.43	73.75
330.658	80.75
330.887	78.75
331.115	93.75
331.344	93.75
331.572	86.75
331.801	86.75
332.03	80.75
332.258	78.75
332.486	79.75
332.715	91.75
332.943	82.75
333.172	87.75
333.4	72.75
333.629	84.75
333.857	93.75
334.085	78.75
334.314	79.75
334.542	92.75
334.771	89.75
334.999	82.75
335.227	95.75
335.455	81.75
335.684	89.75
335.912	95.75
336.14	75.75
336.369	81.75
336.597	83.75
336.825	79.75
337.053	89.75
337.281	86.75
337.51	75.75
337.738	74.75
337.966	85.75
338.194	89.75
338.422	84.75
338.65	81.75
338.878	104.75
339.106	102.75
339.334	91.75
339.562	80.75
339.79	74.75
340.018	81.75
340.246	77.75
340.474	93.75
340.702	95.75
340.93	90.75
341.158	84.75
341.386	87.75
341.614	84.75
341.842	95.75
342.07	72.75
342.298	89.75
342.526	89.75
342.754	86.75
342.981	89.75
343.209	90.75
343.437	102.75
343.665	100.75
343.893	81.75
344.12	72.75
344.348	93.75
344.576	88.75
344.804	69.75
345.031	89.75
345.259	92.75
345.487	98.75
345.714	88.75
345.942	84.75
346.17	102.75
346.397	84.75
346.625	85.75
346.853	86.75
347.08	83.75
347.308	86.75
347.535	80.75
347.763	99.75
347.99	92.75
348.218	84.75
348.445	92.75
348.673	87.75
348.9	72.75
349.128	80.75
349.355	89.75
349.583	78.75
349.81	73.75
350.037	80.75
350.265	81.75
350.492	91.75
350.72	102.75
350.947	78.75
351.174	87.75
351.402	88.75
351.629	87.75
351.856	105.75
352.083	100.75
352.311	92.75
352.538	74.75
352.765	82.75
352.992	88.75
353.22	84.75
353.447	79.75
353.674	81.75
353.901	84.75
354.128	85.75
354.355	78.75
354.583	81.75
354.81	87.75
355.037	78.75
355.264	87.75
355.491	76.75
355.718	80.75
355.945	94.75
356.172	90.75
356.399	88.75
356.626	92.75
356.853	95.75
357.08	88.75
357.307	82.75
357.534	95.75
357.761	109.75
357.988	136.75
358.215	104.75
358.441	83.75
358.668	102.75
358.895	95.75
359.122	100.75
359.349	123.75
359.576	118.75
359.802	86.75
360.029	96.75
360.256	92.75
360.483	100.75
360.709	120.75
360.936	99.75
361.163	79.75
361.39	88.75
361.616	86.75
361.843	72.75
362.07	87.75
362.296	77.75
362.523	70.75
362.749	79.75
362.976	77.75
363.203	88.75
363.429	86.75
363.656	97.75
363.882	77.75
364.109	88.75
364.335	89.75
364.562	87.75
364.788	84.75
365.015	95.75
365.241	80.75
365.468	90.75
365.694	83.75
365.92	89.75
366.147	82.75
366.373	92.75
366.599	80.75
366.826	100.75
367.052	72.75
367.278	84.75
367.505	80.75
367.731	86.75
367.957	79.75
368.184	82.75
368.41	82.75
368.636	93.75
368.862	84.75
369.089	81.75
369.315	79.75
369.541	96.75
369.767	88.75
369.993	71.75
370.219	79.75
370.445	76.75
370.672	83.75
370.898	90.75
371.124	86.75
371.35	76.75
371.576	83.75
371.802	91.75
372.028	78.75
372.254	80.75
372.48	78.75
372.706	95.75
372.932	85.75
373.158	78.75
373.384	73.75
373.61	88.75
373.835	76.75
374.061	81.75
374.287	74.75
374.513	102.75
374.739	84.75
374.965	92.75
375.191	86.75
375.416	92.75
375.642	86.75
375.868	87.75
376.094	80.75
376.319	92.75
376.545	72.75
376.771	89.75
376.997	81.75
377.222	85.75
377.448	85.75
377.674	81.75
377.899	86.75
378.125	80.75
378.35	97.75
378.576	84.75
378.802	87.75
379.027	90.75
379.253	89.75
379.478	81.75
379.704	97.75
379.929	103.75
380.155	97.75
380.38	89.75
380.606	97.75
380.831	90.75
381.057	90.75
381.282	79.75
381.507	78.75
381.733	93.75
381.958	77.75
382.184	75.75
382.409	84.75
382.634	90.75
382.86	88.75
383.085	92.75
383.31	90.75
383.535	88.75
383.761	85.75
383.986	87.75
384.211	88.75
384.436	88.75
384.662	101.75
384.887	86.75
385.112	98.75
385.337	91.75
385.562	96.75
385.787	82.75
386.013	86.75
386.238	90.75
386.463	82.75
386.688	88.75
386.913	93.75
387.138	80.75
387.363	89.75
387.588	92.75
387.813	103.75
388.038	86.75
388.263	95.75
388.488	91.75
388.713	103.75
388.938	81.75
389.163	92.75
389.387	85.75
389.612	88.75
389.837	70.75
390.062	83.75
390.287	88.75
390.512	75.75
390.736	87.75
390.961	97.75
391.186	89.75
391.411	91.75
391.636	90.75
391.86	95.75
392.085	96.75
392.31	65.75
392.534	87.75
392.759	78.75
392.984	90.75
393.208	85.75
393.433	85.75
393.658	81.75
393.882	81.75
394.107	74.75
394.331	91.75
394.556	92.75
394.78	93.75
395.005	93.75
395.229	86.75
395.454	72.75
395.678	75.75
395.903	90.75
396.127	97.75
396.352	105.75
396.576	102.75
396.801	97.75
397.025	81.75
397.249	94.75
397.474	85.75
397.698	88.75
397.922	88.75
398.147	84.75
398.371	92.75
398.595	91.75
398.82	82.75
399.044	85.75
399.268	81.75
399.492	85.75
399.717	80.75
399.941	84.75
400.165	85.75
400.389	79.75
400.613	76.75
400.837	99.75
401.062	76.75
401.286	81.75
401.51	80.75
401.734	80.75
401.958	76.75
402.182	82.75
402.406	85.75
402.63	71.75
402.854	89.75
403.078	86.75
403.302	78.75
403.526	78.75
403.75	86.75
403.974	80.75
404.198	86.75
404.422	78.75
404.645	85.75
404.869	76.75
405.093	84.75
405.317	67.75
405.541	70.75
405.765	85.75
405.988	80.75
406.212	81.75
406.436	84.75
406.66	91.75
406.883	97.75
407.107	79.75
407.331	68.75
407.555	73.75
407.778	81.75
408.002	84.75
408.226	78.75
408.449	103.75
408.673	84.75
408.896	90.75
409.12	82.75
409.344	71.75
409.567	86.75
409.791	76.75
410.014	73.75
410.238	83.75
410.461	81.75
410.685	86.75
410.908	72.75
411.132	82.75
411.355	74.75
411.578	83.75
411.802	92.75
412.025	95.75
412.249	83.75
412.472	90.75
412.695	79.75
412.919	92.75
413.142	86.75
413.365	79.75
413.589	80.75
413.812	77.75
414.035	88.75
414.258	91.75
414.482	89.75
414.705	69.75
414.928	90.75
415.151	84.75
415.374	87.75
415.597	88.75
415.821	80.75
416.044	73.75
416.267	76.75
416.49	86.75
416.713	84.75
416.936	93.75
417.159	91.75
417.382	77.75
417.605	64.75
417.828	79.75
418.051	70.75
418.274	81.75
418.497	86.75
418.72	94.75
418.943	85.75
419.166	89.75
419.389	79.75
419.611	86.75
419.834	89.75
420.057	92.75
420.28	88.75
420.503	84.75
420.726	79.75
420.948	81.75
421.171	82.75
421.394	70.75
421.617	85.75
421.839	80.75
422.062	77.75
422.285	74.75
422.507	88.75
422.73	87.75
422.953	72.75
423.175	88.75
423.398	81.75
423.621	73.75
423.843	87.75
424.066	89.75
424.288	83.75
424.511	90.75
424.733	88.75
424.956	97.75
425.178	108.75
425.401	131.75
425.623	151.75
425.846	94.75
426.068	94.75
426.291	90.75
426.513	94.75
426.735	81.75
426.958	74.75
427.18	93.75
427.402	99.75
427.625	147.75
427.847	109.75
428.069	86.75
428.292	84.75
428.514	90.75
428.736	101.75
428.958	120.75
429.181	145.75
429.403	88.75
429.625	83.75
429.847	87.75
430.069	85.75
430.292	84.75
430.514	82.75
430.736	85.75
430.958	89.75
431.18	90.75
431.402	76.75
431.624	80.75
431.846	79.75
432.068	85.75
432.29	79.75
432.512	84.75
432.734	83.75
432.956	87.75
433.178	89.75
433.4	76.75
433.622	100.75
433.844	102.75
434.066	122.75
434.287	104.75
434.509	107.75
434.731	88.75
434.953	91.75
435.175	109.75
435.397	106.75
435.618	87.75
435.84	107.75
436.062	112.75
436.284	78.75
436.505	81.75
436.727	78.75
436.949	87.75
437.17	90.75
437.392	73.75
437.614	82.75
437.835	84.75
438.057	90.75
438.278	85.75
438.5	79.75
438.721	103.75
438.943	78.75
439.165	89.75
439.386	91.75
439.608	85.75
439.829	100.75
440.05	88.75
440.272	88.75
440.493	79.75
440.715	80.75
440.936	84.75
441.158	86.75
441.379	85.75
441.6	78.75
441.822	79.75
442.043	88.75
442.264	79.75
442.486	76.75
442.707	89.75
442.928	89.75
443.149	84.75
443.371	94.75
443.592	79.75
443.813	72.75
444.034	81.75
444.255	90.75
444.476	87.75
444.698	91.75
444.919	96.75
445.14	172.75
445.361	128.75
445.582	81.75
445.803	77.75
446.024	87.75
446.245	82.75
446.466	78.75
446.687	80.75
446.908	81.75
447.129	87.75
447.35	73.75
447.571	84.75
447.792	102.75
448.013	81.75
448.234	92.75
448.455	73.75
448.675	80.75
448.896	89.75
449.117	85.75
449.338	70.75
449.559	99.75
449.779	97.75
450	95.75
450.221	86.75
450.442	87.75
450.662	91.75
450.883	76.75
451.104	63.75
451.324	79.75
451.545	74.75
451.766	79.75
451.986	78.75
452.207	88.75
452.428	66.75
452.648	80.75
452.869	94.75
453.089	88.75
453.31	91.75
453.53	88.75
453.751	93.75
453.971	80.75
454.192	88.75
454.412	97.75
454.633	114.75
454.853	92.75
455.073	82.75
455.294	71.75
455.514	98.75
455.734	81.75
455.955	73.75
456.175	85.75
456.395	82.75
456.616	94.75
456.836	80.75
457.056	90.75
457.276	80.75
457.497	88.75
457.717	82.75
457.937	84.75
458.157	80.75
458.377	81.75
458.598	78.75
458.818	88.75
459.038	76.75
459.258	76.75
459.478	81.75
459.698	77.75
459.918	96.75
460.138	89.75
460.358	91.75
460.578	91.75
460.798	85.75
461.018	84.75
461.238	74.75
461.458	102.75
461.678	117.75
461.898	95.75
462.118	98.75
462.338	86.75
462.558	110.75
462.777	78.75
462.997	81.75
463.217	80.75
463.437	93.75
463.657	92.75
463.876	90.75
464.096	87.75
464.316	79.75
464.536	95.75
464.755	135.75
464.975	121.75
465.195	113.75
465.414	109.75
465.634	78.75
465.854	87.75
466.073	88.75
466.293	93.75
466.512	90.75
466.732	88.75
466.951	88.75
467.171	94.75
467.391	72.75
467.61	76.75
467.829	83.75
468.049	100.75
468.268	86.75
468.488	80.75
468.707	66.75
468.927	83.75
469.146	94.75
469.365	89.75
469.585	87.75
469.804	89.75
470.023	88.75
470.243	102.75
470.462	72.75
470.681	89.75
470.901	79.75
471.12	106.75
471.339	76.75
471.558	81.75
471.777	87.75
471.997	96.75
472.216	84.75
472.435	77.75
472.654	86.75
472.873	80.75
473.092	74.75
473.311	82.75
473.53	82.75
473.749	81.75
473.968	77.75
474.187	89.75
474.406	77.75
474.625	90.75
474.844	74.75
475.063	83.75
475.282	89.75
475.501	79.75
475.72	94.75
475.939	98.75
476.158	84.75
476.377	83.75
476.596	86.75
476.814	87.75
477.033	89.75
477.252	81.75
477.471	87.75
477.69	87.75
477.908	88.75
478.127	85.75
478.346	67.75
478.564	74.75
478.783	84.75
479.002	86.75
479.22	82.75
479.439	86.75
479.658	77.75
479.876	94.75
480.095	92.75
480.313	100.75
480.532	81.75
480.751	86.75
480.969	92.75
481.188	82.75
481.406	88.75
481.624	88.75
481.843	74.75
482.061	87.75
482.28	75.75
482.498	102.75
482.717	85.75
482.935	86.75
483.153	93.75
483.372	80.75
483.59	81.75
483.808	84.75
484.027	78.75
484.245	90.75
484.463	73.75
484.681	87.75
484.9	77.75
485.118	85.75
485.336	91.75
485.554	88.75
485.772	81.75
485.99	64.75
486.209	84.75
486.427	66.75
486.645	93.75
486.863	84.75
487.081	95.75
487.299	79.75
487.517	90.75
487.735	70.75
487.953	86.75
488.171	80.75
488.389	97.75
488.607	104.75
488.825	95.75
489.043	94.75
489.261	89.75
489.479	94.75
489.696	86.75
489.914	82.75
490.132	88.75
490.35	95.75
490.568	94.75
490.786	90.75
491.003	84.75
491.221	79.75
491.439	84.75
491.657	83.75
491.874	89.75
492.092	96.75
492.31	120.75
492.527	81.75
492.745	91.75
492.963	87.75
493.18	89.75
493.398	78.75
493.615	85.75
493.833	95.75
494.05	82.75
494.268	75.75
494.485	89.75
494.703	91.75
494.92	75.75
495.138	81.75
495.355	86.75
495.573	91.75
495.79	73.75
496.008	90.75
496.225	85.75
496.442	80.75
496.66	90.75
496.877	89.75
497.094	89.75
497.312	66.75
497.529	104.75
497.746	95.75
497.963	81.75
498.181	86.75
498.398	80.75
498.615	87.75
498.832	72.75
499.049	86.75
499.267	85.75
499.484	93.75
499.701	87.75
499.918	78.75
500.135	88.75
500.352	83.75
500.569	85.75
500.786	85.75
501.003	82.75
501.22	78.75
501.437	91.75
501.654	90.75
501.871	89.75
502.088	93.75
502.305	82.75
502.522	86.75
502.739	82.75
502.956	79.75
503.172	81.75
503.389	78.75
503.606	73.75
503.823	85.75
504.04	80.75
504.256	89.75
504.473	74.75
504.69	88.75
504.907	85.75
505.123	91.75
505.34	85.75
505.557	76.75
505.773	79.75
505.99	84.75
506.207	86.75
506.423	76.75
506.64	82.75
506.856	93.75
507.073	86.75
507.289	77.75
507.506	91.75
507.722	78.75
507.939	76.75
508.155	92.75
508.372	85.75
508.588	85.75
508.805	86.75
509.021	79.75
509.238	89.75
509.454	78.75
509.67	87.75
509.887	89.75
510.103	92.75
510.319	92.75
510.536	91.75
510.752	79.75
510.968	93.75
511.184	96.75
511.401	79.75
511.617	81.75
511.833	86.75
512.049	94.75
512.265	83.75
512.481	84.75
512.698	88.75
512.914	76.75
513.13	86.75
513.346	87.75
513.562	84.75
513.778	85.75
513.994	72.75
514.21	87.75
514.426	74.75
514.642	77.75
514.858	76.75
515.074	79.75
515.29	88.75
515.506	81.75
515.721	94.75
515.937	105.75
516.153	84.75
516.369	78.75
516.585	78.75
516.801	82.75
517.016	81.75
517.232	93.75
517.448	80.75
517.664	93.75
517.879	104.75
518.095	76.75
518.311	96.75
518.527	94.75
518.742	83.75
518.958	83.75
519.173	83.75
