Data from StA_HRD10591_048.txt Node
Date: Fri May 16 15:19:07 EDT 2025
User: Yrep
Spectrometer: HR+D1059
Trigger mode: 1
Integration Time (sec): 1.000000E-1
Scans to average: 1
Electric dark correction enabled: true
Nonlinearity correction enabled: false
Boxcar width: 0
XAxis mode: Wavelengths
Number of Pixels in Spectrum: 2048
>>>>>Begin Spectral Data<<<<<
223.165	-6.38
223.4	-6.38
223.635	-6.38
223.869	-22.38
224.104	-16.38
224.338	-25.38
224.573	-15.38
224.808	-24.38
225.042	-2.38
225.277	-1.38
225.511	2.62
225.746	-3.38
225.98	4.62
226.215	24.62
226.449	11.62
226.683	31.62
226.918	17.62
227.152	24.62
227.387	27.62
227.621	49.62
227.856	49.62
228.09	49.62
228.324	56.62
228.559	64.62
228.793	60.62
229.027	78.62
229.262	64.62
229.496	76.62
229.73	76.62
229.964	75.62
230.199	69.62
230.433	89.62
230.667	93.62
230.901	102.62
231.136	89.62
231.37	103.62
231.604	92.62
231.838	108.62
232.072	106.62
232.306	91.62
232.541	99.62
232.775	99.62
233.009	88.62
233.243	89.62
233.477	81.62
233.711	93.62
233.945	93.62
234.179	95.62
234.413	97.62
234.647	88.62
234.881	92.62
235.115	93.62
235.349	86.62
235.583	87.62
235.817	79.62
236.051	103.62
236.285	93.62
236.519	83.62
236.753	108.62
236.987	94.62
237.221	79.62
237.455	90.62
237.689	80.62
237.922	98.62
238.156	97.62
238.39	87.62
238.624	91.62
238.858	100.62
239.091	97.62
239.325	86.62
239.559	85.62
239.793	82.62
240.027	97.62
240.26	107.62
240.494	102.62
240.728	88.62
240.961	88.62
241.195	86.62
241.429	100.62
241.662	82.62
241.896	85.62
242.13	93.62
242.363	92.62
242.597	88.62
242.83	95.62
243.064	85.62
243.298	110.62
243.531	84.62
243.765	118.62
243.998	111.62
244.232	97.62
244.465	100.62
244.699	102.62
244.932	90.62
245.166	105.62
245.399	108.62
245.633	89.62
245.866	114.62
246.099	108.62
246.333	104.62
246.566	89.62
246.8	110.62
247.033	99.62
247.266	120.62
247.5	115.62
247.733	117.62
247.966	114.62
248.2	121.62
248.433	125.62
248.666	128.62
248.899	118.62
249.133	139.62
249.366	137.62
249.599	131.62
249.832	127.62
250.066	130.62
250.299	125.62
250.532	125.62
250.765	112.62
250.998	123.62
251.231	109.62
251.465	125.62
251.698	132.62
251.931	151.62
252.164	162.62
252.397	135.62
252.63	162.62
252.863	139.62
253.096	150.62
253.329	147.62
253.562	151.62
253.795	137.62
254.028	159.62
254.261	156.62
254.494	145.62
254.727	146.62
254.96	138.62
255.193	130.62
255.426	141.62
255.659	135.62
255.892	136.62
256.124	141.62
256.357	169.62
256.59	150.62
256.823	154.62
257.056	145.62
257.289	167.62
257.521	173.62
257.754	151.62
257.987	163.62
258.22	166.62
258.452	155.62
258.685	163.62
258.918	164.62
259.151	168.62
259.383	185.62
259.616	171.62
259.849	155.62
260.081	172.62
260.314	154.62
260.547	177.62
260.779	174.62
261.012	203.62
261.244	195.62
261.477	195.62
261.71	183.62
261.942	181.62
262.175	178.62
262.407	174.62
262.64	179.62
262.872	184.62
263.105	178.62
263.337	179.62
263.57	183.62
263.802	163.62
264.035	182.62
264.267	187.62
264.499	161.62
264.732	176.62
264.964	167.62
265.197	166.62
265.429	206.62
265.661	234.62
265.894	227.62
266.126	268.62
266.358	267.62
266.591	308.62
266.823	329.62
267.055	323.62
267.287	338.62
267.52	320.62
267.752	341.62
267.984	375.62
268.216	301.62
268.448	260.62
268.681	250.62
268.913	281.62
269.145	291.62
269.377	278.62
269.609	272.62
269.841	313.62
270.073	311.62
270.306	282.62
270.538	272.62
270.77	250.62
271.002	262.62
271.234	245.62
271.466	241.62
271.698	233.62
271.93	245.62
272.162	270.62
272.394	285.62
272.626	269.62
272.858	251.62
273.09	201.62
273.322	193.62
273.553	190.62
273.785	192.62
274.017	230.62
274.249	276.62
274.481	296.62
274.713	329.62
274.945	345.62
275.176	396.62
275.408	386.62
275.64	345.62
275.872	399.62
276.104	454.62
276.335	458.62
276.567	456.62
276.799	427.62
277.031	353.62
277.262	282.62
277.494	261.62
277.726	260.62
277.957	312.62
278.189	329.62
278.421	323.62
278.652	300.62
278.884	323.62
279.115	301.62
279.347	272.62
279.579	271.62
279.81	243.62
280.042	279.62
280.273	303.62
280.505	251.62
280.736	236.62
280.968	267.62
281.199	312.62
281.431	329.62
281.662	318.62
281.894	348.62
282.125	374.62
282.356	399.62
282.588	375.62
282.819	359.62
283.051	418.62
283.282	499.62
283.513	538.62
283.745	626.62
283.976	565.62
284.207	528.62
284.439	553.62
284.67	496.62
284.901	491.62
285.132	534.62
285.364	523.62
285.595	520.62
285.826	532.62
286.057	563.62
286.288	573.62
286.52	585.62
286.751	580.62
286.982	537.62
287.213	449.62
287.444	459.62
287.675	498.62
287.906	462.62
288.138	375.62
288.369	312.62
288.6	311.62
288.831	359.62
289.062	404.62
289.293	433.62
289.524	429.62
289.755	454.62
289.986	435.62
290.217	369.62
290.448	273.62
290.679	262.62
290.91	278.62
291.141	278.62
291.371	267.62
291.602	298.62
291.833	286.62
292.064	318.62
292.295	387.62
292.526	412.62
292.757	413.62
292.987	420.62
293.218	373.62
293.449	376.62
293.68	359.62
293.91	313.62
294.141	294.62
294.372	269.62
294.603	270.62
294.833	274.62
295.064	271.62
295.295	282.62
295.525	281.62
295.756	252.62
295.987	240.62
296.217	256.62
296.448	238.62
296.679	264.62
296.909	287.62
297.14	320.62
297.37	361.62
297.601	329.62
297.831	341.62
298.062	358.62
298.292	349.62
298.523	365.62
298.753	389.62
298.984	365.62
299.214	312.62
299.445	255.62
299.675	250.62
299.905	245.62
300.136	227.62
300.366	225.62
300.597	216.62
300.827	228.62
301.057	247.62
301.288	257.62
301.518	293.62
301.748	306.62
301.979	305.62
302.209	281.62
302.439	291.62
302.669	303.62
302.9	295.62
303.13	255.62
303.36	251.62
303.59	256.62
303.82	312.62
304.051	326.62
304.281	366.62
304.511	316.62
304.741	297.62
304.971	320.62
305.201	318.62
305.431	274.62
305.661	257.62
305.891	236.62
306.121	231.62
306.352	231.62
306.582	220.62
306.812	219.62
307.042	182.62
307.272	198.62
307.502	198.62
307.731	210.62
307.961	210.62
308.191	212.62
308.421	209.62
308.651	209.62
308.881	223.62
309.111	217.62
309.341	231.62
309.571	249.62
309.8	228.62
310.03	216.62
310.26	220.62
310.49	233.62
310.72	242.62
310.949	250.62
311.179	274.62
311.409	310.62
311.639	397.62
311.868	493.62
312.098	605.62
312.328	585.62
312.557	566.62
312.787	547.62
313.017	510.62
313.246	567.62
313.476	531.62
313.706	440.62
313.935	334.62
314.165	295.62
314.394	283.62
314.624	294.62
314.853	296.62
315.083	295.62
315.312	262.62
315.542	243.62
315.771	217.62
316.001	223.62
316.23	212.62
316.46	204.62
316.689	200.62
316.919	212.62
317.148	228.62
317.377	225.62
317.607	225.62
317.836	263.62
318.065	313.62
318.295	319.62
318.524	277.62
318.753	227.62
318.983	216.62
319.212	214.62
319.441	255.62
319.67	278.62
319.9	283.62
320.129	265.62
320.358	238.62
320.587	267.62
320.816	272.62
321.046	293.62
321.275	284.62
321.504	266.62
321.733	276.62
321.962	266.62
322.191	237.62
322.42	209.62
322.649	205.62
322.878	228.62
323.108	209.62
323.337	231.62
323.566	242.62
323.795	236.62
324.024	220.62
324.253	210.62
324.482	198.62
324.71	207.62
324.939	195.62
325.168	202.62
325.397	205.62
325.626	189.62
325.855	192.62
326.084	207.62
326.313	212.62
326.542	212.62
326.77	215.62
326.999	228.62
327.228	213.62
327.457	195.62
327.686	185.62
327.914	166.62
328.143	209.62
328.372	185.62
328.6	198.62
328.829	207.62
329.058	210.62
329.287	228.62
329.515	235.62
329.744	238.62
329.972	199.62
330.201	209.62
330.43	231.62
330.658	240.62
330.887	255.62
331.115	280.62
331.344	259.62
331.572	273.62
331.801	220.62
332.03	244.62
332.258	258.62
332.486	266.62
332.715	242.62
332.943	247.62
333.172	251.62
333.4	270.62
333.629	331.62
333.857	307.62
334.085	328.62
334.314	301.62
334.542	301.62
334.771	253.62
334.999	251.62
335.227	256.62
335.455	278.62
335.684	335.62
335.912	401.62
336.14	375.62
336.369	364.62
336.597	377.62
336.825	409.62
337.053	377.62
337.281	281.62
337.51	260.62
337.738	285.62
337.966	294.62
338.194	297.62
338.422	266.62
338.65	253.62
338.878	226.62
339.106	244.62
339.334	264.62
339.562	260.62
339.79	240.62
340.018	277.62
340.246	290.62
340.474	317.62
340.702	326.62
340.93	323.62
341.158	295.62
341.386	235.62
341.614	225.62
341.842	274.62
342.07	310.62
342.298	349.62
342.526	291.62
342.754	231.62
342.981	227.62
343.209	270.62
343.437	298.62
343.665	259.62
343.893	227.62
344.12	212.62
344.348	215.62
344.576	207.62
344.804	197.62
345.031	186.62
345.259	201.62
345.487	229.62
345.714	219.62
345.942	185.62
346.17	201.62
346.397	193.62
346.625	192.62
346.853	181.62
347.08	193.62
347.308	179.62
347.535	189.62
347.763	185.62
347.99	197.62
348.218	196.62
348.445	170.62
348.673	175.62
348.9	192.62
349.128	177.62
349.355	181.62
349.583	203.62
349.81	177.62
350.037	185.62
350.265	188.62
350.492	171.62
350.72	167.62
350.947	197.62
351.174	186.62
351.402	187.62
351.629	194.62
351.856	179.62
352.083	181.62
352.311	165.62
352.538	181.62
352.765	169.62
352.992	180.62
353.22	169.62
353.447	172.62
353.674	165.62
353.901	168.62
354.128	185.62
354.355	180.62
354.583	201.62
354.81	183.62
355.037	198.62
355.264	213.62
355.491	198.62
355.718	202.62
355.945	189.62
356.172	196.62
356.399	215.62
356.626	203.62
356.853	207.62
357.08	212.62
357.307	223.62
357.534	268.62
357.761	305.62
357.988	337.62
358.215	297.62
358.441	246.62
358.668	264.62
358.895	255.62
359.122	259.62
359.349	316.62
359.576	298.62
359.802	217.62
360.029	240.62
360.256	262.62
360.483	293.62
360.709	312.62
360.936	236.62
361.163	208.62
361.39	193.62
361.616	189.62
361.843	199.62
362.07	168.62
362.296	152.62
362.523	169.62
362.749	175.62
362.976	187.62
363.203	225.62
363.429	205.62
363.656	220.62
363.882	227.62
364.109	227.62
364.335	216.62
364.562	205.62
364.788	205.62
365.015	197.62
365.241	198.62
365.468	194.62
365.694	201.62
365.92	194.62
366.147	197.62
366.373	199.62
366.599	194.62
366.826	199.62
367.052	188.62
367.278	195.62
367.505	197.62
367.731	209.62
367.957	219.62
368.184	219.62
368.41	213.62
368.636	214.62
368.862	193.62
369.089	186.62
369.315	169.62
369.541	177.62
369.767	178.62
369.993	183.62
370.219	184.62
370.445	177.62
370.672	183.62
370.898	193.62
371.124	195.62
371.35	210.62
371.576	190.62
371.802	208.62
372.028	199.62
372.254	193.62
372.48	198.62
372.706	206.62
372.932	167.62
373.158	189.62
373.384	190.62
373.61	195.62
373.835	189.62
374.061	215.62
374.287	220.62
374.513	227.62
374.739	214.62
374.965	218.62
375.191	205.62
375.416	203.62
375.642	181.62
375.868	197.62
376.094	200.62
376.319	204.62
376.545	187.62
376.771	189.62
376.997	179.62
377.222	190.62
377.448	197.62
377.674	181.62
377.899	177.62
378.125	186.62
378.35	186.62
378.576	187.62
378.802	205.62
379.027	189.62
379.253	193.62
379.478	204.62
379.704	198.62
379.929	195.62
380.155	192.62
380.38	190.62
380.606	197.62
380.831	195.62
381.057	201.62
381.282	191.62
381.507	204.62
381.733	211.62
381.958	202.62
382.184	203.62
382.409	190.62
382.634	189.62
382.86	215.62
383.085	217.62
383.31	199.62
383.535	211.62
383.761	213.62
383.986	219.62
384.211	206.62
384.436	218.62
384.662	214.62
384.887	238.62
385.112	241.62
385.337	234.62
385.562	238.62
385.787	227.62
386.013	237.62
386.238	216.62
386.463	212.62
386.688	241.62
386.913	222.62
387.138	215.62
387.363	216.62
387.588	211.62
387.813	204.62
388.038	216.62
388.263	218.62
388.488	238.62
388.713	243.62
388.938	209.62
389.163	207.62
389.387	209.62
389.612	197.62
389.837	211.62
390.062	188.62
390.287	220.62
390.512	216.62
390.736	221.62
390.961	214.62
391.186	220.62
391.411	230.62
391.636	214.62
391.86	231.62
392.085	219.62
392.31	213.62
392.534	214.62
392.759	198.62
392.984	207.62
393.208	207.62
393.433	196.62
393.658	192.62
393.882	195.62
394.107	210.62
394.331	206.62
394.556	200.62
394.78	188.62
395.005	198.62
395.229	205.62
395.454	211.62
395.678	217.62
395.903	219.62
396.127	233.62
396.352	241.62
396.576	236.62
396.801	235.62
397.025	246.62
397.249	244.62
397.474	238.62
397.698	246.62
397.922	239.62
398.147	232.62
398.371	255.62
398.595	271.62
398.82	245.62
399.044	266.62
399.268	263.62
399.492	260.62
399.717	270.62
399.941	243.62
400.165	252.62
400.389	249.62
400.613	232.62
400.837	234.62
401.062	209.62
401.286	214.62
401.51	223.62
401.734	220.62
401.958	217.62
402.182	219.62
402.406	229.62
402.63	210.62
402.854	237.62
403.078	243.62
403.302	222.62
403.526	225.62
403.75	238.62
403.974	236.62
404.198	236.62
404.422	217.62
404.645	225.62
404.869	222.62
405.093	222.62
405.317	241.62
405.541	228.62
405.765	214.62
405.988	235.62
406.212	231.62
406.436	215.62
406.66	245.62
406.883	226.62
407.107	214.62
407.331	254.62
407.555	229.62
407.778	227.62
408.002	231.62
408.226	238.62
408.449	212.62
408.673	233.62
408.896	219.62
409.12	215.62
409.344	217.62
409.567	229.62
409.791	218.62
410.014	215.62
410.238	219.62
410.461	207.62
410.685	213.62
410.908	239.62
411.132	228.62
411.355	231.62
411.578	229.62
411.802	231.62
412.025	231.62
412.249	244.62
412.472	230.62
412.695	257.62
412.919	240.62
413.142	225.62
413.365	214.62
413.589	235.62
413.812	221.62
414.035	219.62
414.258	206.62
414.482	219.62
414.705	222.62
414.928	235.62
415.151	223.62
415.374	205.62
415.597	219.62
415.821	217.62
416.044	222.62
416.267	235.62
416.49	230.62
416.713	220.62
416.936	237.62
417.159	212.62
417.382	214.62
417.605	212.62
417.828	242.62
418.051	225.62
418.274	222.62
418.497	206.62
418.72	199.62
418.943	210.62
419.166	231.62
419.389	230.62
419.611	231.62
419.834	238.62
420.057	244.62
420.28	218.62
420.503	225.62
420.726	207.62
420.948	227.62
421.171	227.62
421.394	222.62
421.617	211.62
421.839	214.62
422.062	209.62
422.285	210.62
422.507	215.62
422.73	220.62
422.953	219.62
423.175	225.62
423.398	211.62
423.621	225.62
423.843	218.62
424.066	206.62
424.288	228.62
424.511	206.62
424.733	212.62
424.956	232.62
425.178	232.62
425.401	316.62
425.623	377.62
425.846	260.62
426.068	233.62
426.291	233.62
426.513	240.62
426.735	238.62
426.958	241.62
427.18	248.62
427.402	299.62
427.625	345.62
427.847	286.62
428.069	221.62
428.292	222.62
428.514	230.62
428.736	238.62
428.958	320.62
429.181	327.62
429.403	225.62
429.625	210.62
429.847	217.62
430.069	209.62
430.292	213.62
430.514	199.62
430.736	211.62
430.958	210.62
431.18	198.62
431.402	206.62
431.624	201.62
431.846	191.62
432.068	193.62
432.29	213.62
432.512	227.62
432.734	197.62
432.956	226.62
433.178	215.62
433.4	228.62
433.622	218.62
433.844	258.62
434.066	283.62
434.287	256.62
434.509	249.62
434.731	259.62
434.953	236.62
435.175	266.62
435.397	271.62
435.618	228.62
435.84	224.62
436.062	231.62
436.284	218.62
436.505	197.62
436.727	204.62
436.949	205.62
437.17	225.62
437.392	237.62
437.614	201.62
437.835	213.62
438.057	190.62
438.278	214.62
438.5	208.62
438.721	208.62
438.943	207.62
439.165	205.62
439.386	194.62
439.608	220.62
439.829	192.62
440.05	206.62
440.272	191.62
440.493	220.62
440.715	207.62
440.936	216.62
441.158	210.62
441.379	207.62
441.6	206.62
441.822	192.62
442.043	201.62
442.264	222.62
442.486	219.62
442.707	213.62
442.928	230.62
443.149	211.62
443.371	206.62
443.592	220.62
443.813	208.62
444.034	200.62
444.255	210.62
444.476	225.62
444.698	211.62
444.919	221.62
445.14	306.62
445.361	254.62
445.582	241.62
445.803	222.62
446.024	218.62
446.245	209.62
446.466	209.62
446.687	210.62
446.908	213.62
447.129	198.62
447.35	207.62
447.571	197.62
447.792	201.62
448.013	197.62
448.234	206.62
448.455	199.62
448.675	210.62
448.896	205.62
449.117	219.62
449.338	209.62
449.559	200.62
449.779	233.62
450	228.62
450.221	207.62
450.442	209.62
450.662	186.62
450.883	213.62
451.104	215.62
451.324	216.62
451.545	210.62
451.766	226.62
451.986	224.62
452.207	219.62
452.428	190.62
452.648	211.62
452.869	216.62
453.089	208.62
453.31	230.62
453.53	207.62
453.751	209.62
453.971	201.62
454.192	240.62
454.412	203.62
454.633	216.62
454.853	200.62
455.073	215.62
455.294	196.62
455.514	209.62
455.734	206.62
455.955	219.62
456.175	188.62
456.395	203.62
456.616	197.62
456.836	191.62
457.056	202.62
457.276	195.62
457.497	192.62
457.717	181.62
457.937	185.62
458.157	194.62
458.377	187.62
458.598	200.62
458.818	205.62
459.038	235.62
459.258	231.62
459.478	230.62
459.698	231.62
459.918	215.62
460.138	227.62
460.358	224.62
460.578	230.62
460.798	219.62
461.018	218.62
461.238	219.62
461.458	246.62
461.678	266.62
461.898	256.62
462.118	251.62
462.338	244.62
462.558	250.62
462.777	237.62
462.997	243.62
463.217	259.62
463.437	238.62
463.657	249.62
463.876	243.62
464.096	240.62
464.316	256.62
464.536	265.62
464.755	257.62
464.975	255.62
465.195	263.62
465.414	255.62
465.634	209.62
465.854	194.62
466.073	205.62
466.293	216.62
466.512	185.62
466.732	217.62
466.951	220.62
467.171	199.62
467.391	203.62
467.61	200.62
467.829	191.62
468.049	206.62
468.268	217.62
468.488	212.62
468.707	185.62
468.927	203.62
469.146	213.62
469.365	217.62
469.585	208.62
469.804	212.62
470.023	216.62
470.243	221.62
470.462	188.62
470.681	199.62
470.901	221.62
471.12	206.62
471.339	203.62
471.558	197.62
471.777	219.62
471.997	211.62
472.216	210.62
472.435	195.62
472.654	194.62
472.873	192.62
473.092	223.62
473.311	216.62
473.53	206.62
473.749	203.62
473.968	197.62
474.187	209.62
474.406	199.62
474.625	193.62
474.844	200.62
475.063	197.62
475.282	205.62
475.501	229.62
475.72	250.62
475.939	209.62
476.158	199.62
476.377	214.62
476.596	212.62
476.814	207.62
477.033	209.62
477.252	193.62
477.471	205.62
477.69	185.62
477.908	207.62
478.127	210.62
478.346	234.62
478.564	213.62
478.783	213.62
479.002	239.62
479.22	244.62
479.439	235.62
479.658	232.62
479.876	237.62
480.095	229.62
480.313	237.62
480.532	223.62
480.751	233.62
480.969	220.62
481.188	222.62
481.406	245.62
481.624	203.62
481.843	234.62
482.061	218.62
482.28	230.62
482.498	237.62
482.717	229.62
482.935	217.62
483.153	221.62
483.372	232.62
483.59	234.62
483.808	231.62
484.027	218.62
484.245	231.62
484.463	220.62
484.681	253.62
484.9	238.62
485.118	239.62
485.336	215.62
485.554	230.62
485.772	222.62
485.99	231.62
486.209	241.62
486.427	252.62
486.645	232.62
486.863	227.62
487.081	227.62
487.299	250.62
487.517	248.62
487.735	237.62
487.953	232.62
488.171	234.62
488.389	231.62
488.607	232.62
488.825	276.62
489.043	259.62
489.261	233.62
489.479	239.62
489.696	235.62
489.914	230.62
490.132	230.62
490.35	236.62
490.568	237.62
490.786	235.62
491.003	209.62
491.221	241.62
491.439	231.62
491.657	243.62
491.874	237.62
492.092	261.62
492.31	290.62
492.527	290.62
492.745	248.62
492.963	239.62
493.18	249.62
493.398	256.62
493.615	240.62
493.833	270.62
494.05	239.62
494.268	233.62
494.485	231.62
494.703	248.62
494.92	236.62
495.138	247.62
495.355	243.62
495.573	261.62
495.79	248.62
496.008	270.62
496.225	255.62
496.442	247.62
496.66	258.62
496.877	248.62
497.094	257.62
497.312	253.62
497.529	273.62
497.746	258.62
497.963	283.62
498.181	272.62
498.398	269.62
498.615	269.62
498.832	290.62
499.049	303.62
499.267	310.62
499.484	304.62
499.701	328.62
499.918	375.62
500.135	365.62
500.352	360.62
500.569	371.62
500.786	384.62
501.003	373.62
501.22	336.62
501.437	353.62
501.654	333.62
501.871	318.62
502.088	292.62
502.305	294.62
502.522	267.62
502.739	277.62
502.956	271.62
503.172	290.62
503.389	290.62
503.606	287.62
