Data from StA_HRD10591_074.txt Node
Date: Fri May 16 15:19:20 EDT 2025
User: Yrep
Spectrometer: HR+D1059
Trigger mode: 1
Integration Time (sec): 1.000000E-1
Scans to average: 1
Electric dark correction enabled: true
Nonlinearity correction enabled: false
Boxcar width: 0
XAxis mode: Wavelengths
Number of Pixels in Spectrum: 2048
>>>>>Begin Spectral Data<<<<<
223.165	-7.88
223.4	-7.88
223.635	-7.88
223.869	-18.88
224.104	-27.88
224.338	-16.88
224.573	-3.88
224.808	-27.88
225.042	-0.88
225.277	-11.88
225.511	13.12
225.746	6.12
225.98	19.12
226.215	16.12
226.449	12.12
226.683	-4.88
226.918	21.12
227.152	33.12
227.387	40.12
227.621	49.12
227.856	36.12
228.09	38.12
228.324	45.12
228.559	47.12
228.793	49.12
229.027	70.12
229.262	76.12
229.496	65.12
229.73	72.12
229.964	70.12
230.199	68.12
230.433	83.12
230.667	75.12
230.901	79.12
231.136	83.12
231.37	92.12
231.604	92.12
231.838	92.12
232.072	89.12
232.306	59.12
232.541	86.12
232.775	79.12
233.009	71.12
233.243	65.12
233.477	76.12
233.711	88.12
233.945	71.12
234.179	104.12
234.413	74.12
234.647	76.12
234.881	76.12
235.115	76.12
235.349	80.12
235.583	78.12
235.817	89.12
236.051	57.12
236.285	91.12
236.519	84.12
236.753	75.12
236.987	68.12
237.221	65.12
237.455	74.12
237.689	81.12
237.922	68.12
238.156	78.12
238.39	85.12
238.624	84.12
238.858	83.12
239.091	90.12
239.325	65.12
239.559	69.12
239.793	79.12
240.027	73.12
240.26	85.12
240.494	85.12
240.728	84.12
240.961	81.12
241.195	82.12
241.429	81.12
241.662	65.12
241.896	83.12
242.13	90.12
242.363	82.12
242.597	83.12
242.83	96.12
243.064	73.12
243.298	77.12
243.531	87.12
243.765	77.12
243.998	77.12
244.232	96.12
244.465	87.12
244.699	83.12
244.932	84.12
245.166	88.12
245.399	82.12
245.633	87.12
245.866	79.12
246.099	90.12
246.333	81.12
246.566	81.12
246.8	91.12
247.033	77.12
247.266	78.12
247.5	87.12
247.733	79.12
247.966	71.12
248.2	82.12
248.433	87.12
248.666	85.12
248.899	96.12
249.133	87.12
249.366	89.12
249.599	78.12
249.832	91.12
250.066	78.12
250.299	84.12
250.532	82.12
250.765	57.12
250.998	80.12
251.231	83.12
251.465	71.12
251.698	81.12
251.931	77.12
252.164	69.12
252.397	77.12
252.63	89.12
252.863	77.12
253.096	75.12
253.329	74.12
253.562	68.12
253.795	84.12
254.028	101.12
254.261	86.12
254.494	74.12
254.727	97.12
254.96	77.12
255.193	83.12
255.426	79.12
255.659	83.12
255.892	75.12
256.124	66.12
256.357	78.12
256.59	82.12
256.823	87.12
257.056	79.12
257.289	80.12
257.521	84.12
257.754	67.12
257.987	83.12
258.22	82.12
258.452	82.12
258.685	90.12
258.918	81.12
259.151	88.12
259.383	94.12
259.616	76.12
259.849	90.12
260.081	85.12
260.314	80.12
260.547	79.12
260.779	73.12
261.012	89.12
261.244	94.12
261.477	93.12
261.71	92.12
261.942	85.12
262.175	93.12
262.407	91.12
262.64	83.12
262.872	91.12
263.105	74.12
263.337	72.12
263.57	80.12
263.802	79.12
264.035	79.12
264.267	86.12
264.499	88.12
264.732	97.12
264.964	96.12
265.197	80.12
265.429	81.12
265.661	86.12
265.894	80.12
266.126	99.12
266.358	87.12
266.591	76.12
266.823	86.12
267.055	88.12
267.287	82.12
267.52	91.12
267.752	84.12
267.984	86.12
268.216	84.12
268.448	97.12
268.681	92.12
268.913	75.12
269.145	82.12
269.377	79.12
269.609	70.12
269.841	93.12
270.073	73.12
270.306	79.12
270.538	75.12
270.77	86.12
271.002	94.12
271.234	83.12
271.466	78.12
271.698	80.12
271.93	85.12
272.162	92.12
272.394	86.12
272.626	86.12
272.858	85.12
273.09	83.12
273.322	100.12
273.553	87.12
273.785	89.12
274.017	92.12
274.249	81.12
274.481	87.12
274.713	79.12
274.945	91.12
275.176	98.12
275.408	86.12
275.64	95.12
275.872	99.12
276.104	93.12
276.335	91.12
276.567	95.12
276.799	96.12
277.031	81.12
277.262	95.12
277.494	89.12
277.726	97.12
277.957	101.12
278.189	95.12
278.421	82.12
278.652	85.12
278.884	78.12
279.115	89.12
279.347	87.12
279.579	90.12
279.81	84.12
280.042	89.12
280.273	92.12
280.505	87.12
280.736	95.12
280.968	85.12
281.199	91.12
281.431	96.12
281.662	100.12
281.894	93.12
282.125	79.12
282.356	83.12
282.588	88.12
282.819	69.12
283.051	89.12
283.282	97.12
283.513	99.12
283.745	78.12
283.976	95.12
284.207	99.12
284.439	85.12
284.67	92.12
284.901	82.12
285.132	103.12
285.364	84.12
285.595	92.12
285.826	98.12
286.057	106.12
286.288	106.12
286.52	92.12
286.751	103.12
286.982	75.12
287.213	79.12
287.444	92.12
287.675	92.12
287.906	89.12
288.138	84.12
288.369	88.12
288.6	79.12
288.831	105.12
289.062	90.12
289.293	85.12
289.524	92.12
289.755	84.12
289.986	86.12
290.217	75.12
290.448	95.12
290.679	76.12
290.91	91.12
291.141	79.12
291.371	92.12
291.602	87.12
291.833	90.12
292.064	95.12
292.295	91.12
292.526	86.12
292.757	71.12
292.987	96.12
293.218	82.12
293.449	91.12
293.68	95.12
293.91	95.12
294.141	103.12
294.372	83.12
294.603	84.12
294.833	84.12
295.064	95.12
295.295	91.12
295.525	96.12
295.756	77.12
295.987	92.12
296.217	76.12
296.448	87.12
296.679	79.12
296.909	96.12
297.14	105.12
297.37	88.12
297.601	94.12
297.831	90.12
298.062	101.12
298.292	96.12
298.523	109.12
298.753	94.12
298.984	95.12
299.214	99.12
299.445	85.12
299.675	84.12
299.905	94.12
300.136	96.12
300.366	98.12
300.597	91.12
300.827	101.12
301.057	95.12
301.288	113.12
301.518	114.12
301.748	90.12
301.979	118.12
302.209	91.12
302.439	95.12
302.669	83.12
302.9	75.12
303.13	93.12
303.36	101.12
303.59	93.12
303.82	86.12
304.051	88.12
304.281	93.12
304.511	99.12
304.741	99.12
304.971	95.12
305.201	92.12
305.431	96.12
305.661	94.12
305.891	95.12
306.121	84.12
306.352	84.12
306.582	71.12
306.812	74.12
307.042	82.12
307.272	87.12
307.502	77.12
307.731	84.12
307.961	99.12
308.191	84.12
308.421	96.12
308.651	91.12
308.881	92.12
309.111	92.12
309.341	81.12
309.571	94.12
309.8	98.12
310.03	84.12
310.26	85.12
310.49	83.12
310.72	81.12
310.949	67.12
311.179	87.12
311.409	83.12
311.639	92.12
311.868	88.12
312.098	104.12
312.328	97.12
312.557	94.12
312.787	87.12
313.017	103.12
313.246	86.12
313.476	95.12
313.706	97.12
313.935	92.12
314.165	83.12
314.394	96.12
314.624	95.12
314.853	97.12
315.083	98.12
315.312	97.12
315.542	91.12
315.771	73.12
316.001	97.12
316.23	84.12
316.46	97.12
316.689	88.12
316.919	81.12
317.148	93.12
317.377	73.12
317.607	83.12
317.836	84.12
318.065	92.12
318.295	94.12
318.524	90.12
318.753	107.12
318.983	95.12
319.212	85.12
319.441	86.12
319.67	87.12
319.9	87.12
320.129	100.12
320.358	96.12
320.587	84.12
320.816	96.12
321.046	81.12
321.275	64.12
321.504	88.12
321.733	55.12
321.962	93.12
322.191	87.12
322.42	90.12
322.649	103.12
322.878	79.12
323.108	99.12
323.337	96.12
323.566	81.12
323.795	67.12
324.024	87.12
324.253	99.12
324.482	103.12
324.71	95.12
324.939	91.12
325.168	96.12
325.397	95.12
325.626	88.12
325.855	94.12
326.084	110.12
326.313	96.12
326.542	85.12
326.77	90.12
326.999	89.12
327.228	81.12
327.457	84.12
327.686	100.12
327.914	95.12
328.143	81.12
328.372	99.12
328.6	99.12
328.829	88.12
329.058	98.12
329.287	82.12
329.515	88.12
329.744	90.12
329.972	81.12
330.201	92.12
330.43	94.12
330.658	103.12
330.887	89.12
331.115	87.12
331.344	94.12
331.572	96.12
331.801	80.12
332.03	73.12
332.258	97.12
332.486	86.12
332.715	79.12
332.943	85.12
333.172	78.12
333.4	89.12
333.629	89.12
333.857	87.12
334.085	78.12
334.314	96.12
334.542	78.12
334.771	108.12
334.999	92.12
335.227	85.12
335.455	102.12
335.684	97.12
335.912	96.12
336.14	86.12
336.369	97.12
336.597	107.12
336.825	84.12
337.053	90.12
337.281	91.12
337.51	83.12
337.738	75.12
337.966	96.12
338.194	80.12
338.422	85.12
338.65	95.12
338.878	93.12
339.106	103.12
339.334	101.12
339.562	96.12
339.79	88.12
340.018	82.12
340.246	85.12
340.474	87.12
340.702	82.12
340.93	90.12
341.158	84.12
341.386	99.12
341.614	90.12
341.842	96.12
342.07	83.12
342.298	105.12
342.526	89.12
342.754	93.12
342.981	95.12
343.209	95.12
343.437	106.12
343.665	86.12
343.893	85.12
344.12	85.12
344.348	81.12
344.576	103.12
344.804	89.12
345.031	77.12
345.259	104.12
345.487	98.12
345.714	86.12
345.942	82.12
346.17	97.12
346.397	78.12
346.625	91.12
346.853	85.12
347.08	82.12
347.308	93.12
347.535	90.12
347.763	91.12
347.99	91.12
348.218	86.12
348.445	88.12
348.673	93.12
348.9	94.12
349.128	105.12
349.355	92.12
349.583	81.12
349.81	79.12
350.037	90.12
350.265	100.12
350.492	89.12
350.72	87.12
350.947	84.12
351.174	80.12
351.402	92.12
351.629	94.12
351.856	89.12
352.083	69.12
352.311	88.12
352.538	83.12
352.765	91.12
352.992	83.12
353.22	98.12
353.447	92.12
353.674	88.12
353.901	85.12
354.128	92.12
354.355	89.12
354.583	91.12
354.81	93.12
355.037	99.12
355.264	100.12
355.491	91.12
355.718	83.12
355.945	98.12
356.172	89.12
356.399	91.12
356.626	92.12
356.853	95.12
357.08	100.12
357.307	89.12
357.534	105.12
357.761	125.12
357.988	126.12
358.215	106.12
358.441	96.12
358.668	80.12
358.895	109.12
359.122	115.12
359.349	99.12
359.576	107.12
359.802	104.12
360.029	91.12
360.256	98.12
360.483	116.12
360.709	103.12
360.936	83.12
361.163	90.12
361.39	94.12
361.616	84.12
361.843	84.12
362.07	91.12
362.296	93.12
362.523	76.12
362.749	82.12
362.976	83.12
363.203	93.12
363.429	101.12
363.656	87.12
363.882	92.12
364.109	95.12
364.335	75.12
364.562	81.12
364.788	101.12
365.015	97.12
365.241	97.12
365.468	84.12
365.694	98.12
365.92	77.12
366.147	90.12
366.373	78.12
366.599	107.12
366.826	103.12
367.052	82.12
367.278	82.12
367.505	77.12
367.731	75.12
367.957	89.12
368.184	81.12
368.41	67.12
368.636	84.12
368.862	100.12
369.089	79.12
369.315	97.12
369.541	88.12
369.767	88.12
369.993	85.12
370.219	99.12
370.445	80.12
370.672	92.12
370.898	83.12
371.124	91.12
371.35	81.12
371.576	93.12
371.802	82.12
372.028	92.12
372.254	76.12
372.48	82.12
372.706	71.12
372.932	78.12
373.158	87.12
373.384	95.12
373.61	97.12
373.835	85.12
374.061	88.12
374.287	80.12
374.513	103.12
374.739	100.12
374.965	102.12
375.191	89.12
375.416	93.12
375.642	93.12
375.868	83.12
376.094	83.12
376.319	96.12
376.545	93.12
376.771	77.12
376.997	77.12
377.222	83.12
377.448	83.12
377.674	95.12
377.899	84.12
378.125	77.12
378.35	90.12
378.576	88.12
378.802	99.12
379.027	89.12
379.253	78.12
379.478	78.12
379.704	89.12
379.929	87.12
380.155	79.12
380.38	76.12
380.606	103.12
380.831	90.12
381.057	91.12
381.282	89.12
381.507	90.12
381.733	107.12
381.958	92.12
382.184	80.12
382.409	89.12
382.634	82.12
382.86	73.12
383.085	80.12
383.31	98.12
383.535	79.12
383.761	92.12
383.986	92.12
384.211	86.12
384.436	96.12
384.662	92.12
384.887	91.12
385.112	79.12
385.337	92.12
385.562	113.12
385.787	106.12
386.013	90.12
386.238	83.12
386.463	91.12
386.688	85.12
386.913	74.12
387.138	81.12
387.363	81.12
387.588	88.12
387.813	93.12
388.038	89.12
388.263	81.12
388.488	108.12
388.713	94.12
388.938	92.12
389.163	98.12
389.387	100.12
389.612	86.12
389.837	74.12
390.062	91.12
390.287	78.12
390.512	91.12
390.736	93.12
390.961	98.12
391.186	98.12
391.411	101.12
391.636	83.12
391.86	88.12
392.085	92.12
392.31	98.12
392.534	85.12
392.759	86.12
392.984	76.12
393.208	101.12
393.433	86.12
393.658	100.12
393.882	96.12
394.107	86.12
394.331	88.12
394.556	91.12
394.78	80.12
395.005	81.12
395.229	82.12
395.454	87.12
395.678	86.12
395.903	90.12
396.127	94.12
396.352	120.12
396.576	82.12
396.801	89.12
397.025	83.12
397.249	96.12
397.474	98.12
397.698	83.12
397.922	87.12
398.147	91.12
398.371	84.12
398.595	91.12
398.82	78.12
399.044	87.12
399.268	97.12
399.492	98.12
399.717	82.12
399.941	91.12
400.165	90.12
400.389	76.12
400.613	84.12
400.837	73.12
401.062	79.12
401.286	88.12
401.51	99.12
401.734	78.12
401.958	88.12
402.182	76.12
402.406	72.12
402.63	80.12
402.854	74.12
403.078	78.12
403.302	67.12
403.526	85.12
403.75	76.12
403.974	78.12
404.198	65.12
404.422	93.12
404.645	82.12
404.869	87.12
405.093	92.12
405.317	75.12
405.541	81.12
405.765	92.12
405.988	78.12
406.212	82.12
406.436	96.12
406.66	99.12
406.883	78.12
407.107	89.12
407.331	79.12
407.555	88.12
407.778	73.12
408.002	74.12
408.226	78.12
408.449	78.12
408.673	92.12
408.896	97.12
409.12	74.12
409.344	85.12
409.567	90.12
409.791	93.12
410.014	96.12
410.238	85.12
410.461	85.12
410.685	86.12
410.908	81.12
411.132	82.12
411.355	87.12
411.578	98.12
411.802	75.12
412.025	91.12
412.249	89.12
412.472	90.12
412.695	87.12
412.919	81.12
413.142	75.12
413.365	75.12
413.589	90.12
413.812	76.12
414.035	80.12
414.258	80.12
414.482	89.12
414.705	85.12
414.928	86.12
415.151	79.12
415.374	87.12
415.597	93.12
415.821	93.12
416.044	91.12
416.267	88.12
416.49	83.12
416.713	75.12
416.936	79.12
417.159	88.12
417.382	80.12
417.605	86.12
417.828	91.12
418.051	78.12
418.274	95.12
418.497	97.12
418.72	77.12
418.943	85.12
419.166	74.12
419.389	83.12
419.611	68.12
419.834	91.12
420.057	76.12
420.28	89.12
420.503	80.12
420.726	79.12
420.948	71.12
421.171	97.12
421.394	95.12
421.617	98.12
421.839	74.12
422.062	95.12
422.285	85.12
422.507	78.12
422.73	82.12
422.953	88.12
423.175	76.12
423.398	102.12
423.621	78.12
423.843	67.12
424.066	88.12
424.288	91.12
424.511	81.12
424.733	81.12
424.956	106.12
425.178	103.12
425.401	125.12
425.623	143.12
425.846	99.12
426.068	101.12
426.291	89.12
426.513	96.12
426.735	92.12
426.958	72.12
427.18	93.12
427.402	118.12
427.625	152.12
427.847	114.12
428.069	91.12
428.292	88.12
428.514	88.12
428.736	91.12
428.958	127.12
429.181	120.12
429.403	95.12
429.625	81.12
429.847	87.12
430.069	99.12
430.292	85.12
430.514	87.12
430.736	106.12
430.958	86.12
431.18	77.12
431.402	79.12
431.624	99.12
431.846	76.12
432.068	82.12
432.29	81.12
432.512	87.12
432.734	98.12
432.956	75.12
433.178	96.12
433.4	90.12
433.622	99.12
433.844	108.12
434.066	130.12
434.287	95.12
434.509	103.12
434.731	92.12
434.953	100.12
435.175	106.12
435.397	116.12
435.618	85.12
435.84	89.12
436.062	87.12
436.284	89.12
436.505	83.12
436.727	73.12
436.949	85.12
437.17	103.12
437.392	89.12
437.614	84.12
437.835	85.12
438.057	87.12
438.278	93.12
438.5	97.12
438.721	90.12
438.943	103.12
439.165	95.12
439.386	80.12
439.608	82.12
439.829	95.12
440.05	84.12
440.272	89.12
440.493	77.12
440.715	83.12
440.936	94.12
441.158	83.12
441.379	79.12
441.6	81.12
441.822	81.12
442.043	81.12
442.264	106.12
442.486	97.12
442.707	70.12
442.928	83.12
443.149	88.12
443.371	82.12
443.592	85.12
443.813	90.12
444.034	63.12
444.255	95.12
444.476	75.12
444.698	90.12
444.919	86.12
445.14	180.12
445.361	130.12
445.582	90.12
445.803	87.12
446.024	96.12
446.245	85.12
446.466	84.12
446.687	88.12
446.908	83.12
447.129	79.12
447.35	83.12
447.571	99.12
447.792	82.12
448.013	76.12
448.234	77.12
448.455	88.12
448.675	90.12
448.896	88.12
449.117	88.12
449.338	96.12
449.559	94.12
449.779	87.12
450	98.12
450.221	79.12
450.442	83.12
450.662	81.12
450.883	80.12
451.104	97.12
451.324	91.12
451.545	83.12
451.766	83.12
451.986	70.12
452.207	77.12
452.428	87.12
452.648	100.12
452.869	93.12
453.089	88.12
453.31	82.12
453.53	88.12
453.751	78.12
453.971	89.12
454.192	87.12
454.412	92.12
454.633	91.12
454.853	93.12
455.073	89.12
455.294	85.12
455.514	82.12
455.734	85.12
455.955	77.12
456.175	92.12
456.395	85.12
456.616	88.12
456.836	91.12
457.056	87.12
457.276	88.12
457.497	87.12
457.717	78.12
457.937	72.12
458.157	109.12
458.377	74.12
458.598	95.12
458.818	105.12
459.038	81.12
459.258	95.12
459.478	84.12
459.698	81.12
459.918	83.12
460.138	88.12
460.358	95.12
460.578	70.12
460.798	92.12
461.018	77.12
461.238	87.12
461.458	92.12
461.678	82.12
461.898	92.12
462.118	95.12
462.338	101.12
462.558	84.12
462.777	90.12
462.997	85.12
463.217	85.12
463.437	81.12
463.657	72.12
463.876	100.12
464.096	81.12
464.316	92.12
464.536	77.12
464.755	91.12
464.975	95.12
465.195	105.12
465.414	88.12
465.634	99.12
465.854	93.12
466.073	98.12
466.293	84.12
466.512	87.12
466.732	95.12
466.951	96.12
467.171	87.12
467.391	87.12
467.61	83.12
467.829	84.12
468.049	83.12
468.268	79.12
468.488	79.12
468.707	96.12
468.927	83.12
469.146	80.12
469.365	87.12
469.585	75.12
469.804	83.12
470.023	99.12
470.243	104.12
470.462	84.12
470.681	86.12
470.901	89.12
471.12	85.12
471.339	78.12
471.558	88.12
471.777	109.12
471.997	103.12
472.216	92.12
472.435	82.12
472.654	84.12
472.873	93.12
473.092	94.12
473.311	83.12
473.53	77.12
473.749	79.12
473.968	94.12
474.187	88.12
474.406	82.12
474.625	79.12
474.844	77.12
475.063	87.12
475.282	91.12
475.501	89.12
475.72	93.12
475.939	86.12
476.158	85.12
476.377	95.12
476.596	87.12
476.814	88.12
477.033	89.12
477.252	80.12
477.471	79.12
477.69	86.12
477.908	90.12
478.127	87.12
478.346	88.12
478.564	75.12
478.783	89.12
479.002	84.12
479.22	95.12
479.439	93.12
479.658	96.12
479.876	78.12
480.095	83.12
480.313	93.12
480.532	90.12
480.751	104.12
480.969	81.12
481.188	91.12
481.406	95.12
481.624	99.12
481.843	85.12
482.061	84.12
482.28	96.12
482.498	90.12
482.717	97.12
482.935	101.12
483.153	82.12
483.372	95.12
483.59	77.12
483.808	67.12
484.027	75.12
484.245	96.12
484.463	93.12
484.681	92.12
484.9	86.12
485.118	94.12
485.336	77.12
485.554	89.12
485.772	66.12
485.99	87.12
486.209	81.12
486.427	90.12
486.645	93.12
486.863	81.12
487.081	73.12
487.299	87.12
487.517	80.12
487.735	91.12
487.953	101.12
488.171	84.12
488.389	90.12
488.607	96.12
488.825	93.12
489.043	99.12
489.261	92.12
489.479	95.12
489.696	87.12
489.914	86.12
490.132	94.12
490.35	88.12
490.568	87.12
490.786	83.12
491.003	80.12
491.221	96.12
491.439	84.12
491.657	85.12
491.874	87.12
492.092	96.12
492.31	105.12
492.527	95.12
492.745	95.12
492.963	96.12
493.18	88.12
493.398	83.12
493.615	95.12
493.833	89.12
494.05	100.12
494.268	105.12
494.485	100.12
494.703	79.12
494.92	91.12
495.138	85.12
495.355	89.12
495.573	90.12
495.79	84.12
496.008	90.12
496.225	98.12
496.442	93.12
496.66	102.12
496.877	79.12
497.094	101.12
497.312	83.12
497.529	88.12
497.746	95.12
497.963	85.12
498.181	75.12
498.398	86.12
498.615	87.12
498.832	80.12
499.049	93.12
499.267	82.12
499.484	86.12
499.701	78.12
499.918	83.12
500.135	83.12
500.352	89.12
500.569	92.12
500.786	85.12
501.003	85.12
501.22	74.12
501.437	83.12
501.654	95.12
501.871	91.12
502.088	75.12
502.305	88.12
502.522	91.12
502.739	83.12
502.956	92.12
503.172	83.12
503.389	91.12
503.606	86.12
503.823	72.12
504.04	81.12
504.256	83.12
504.473	84.12
504.69	81.12
504.907	87.12
505.123	100.12
505.34	77.12
505.557	84.12
505.773	91.12
505.99	93.12
506.207	95.12
506.423	84.12
506.64	88.12
506.856	104.12
507.073	90.12
507.289	95.12
507.506	80.12
507.722	84.12
507.939	88.12
508.155	94.12
508.372	88.12
508.588	84.12
508.805	96.12
509.021	95.12
509.238	100.12
509.454	98.12
509.67	87.12
509.887	85.12
510.103	96.12
510.319	105.12
510.536	92.12
510.752	93.12
510.968	85.12
511.184	96.12
511.401	81.12
511.617	91.12
511.833	85.12
512.049	81.12
512.265	92.12
512.481	84.12
512.698	98.12
512.914	94.12
513.13	87.12
513.346	81.12
513.562	86.12
513.778	91.12
513.994	92.12
514.21	93.12
514.426	85.12
514.642	88.12
514.858	88.12
515.074	87.12
515.29	87.12
515.506	72.12
515.721	77.12
515.937	89.12
516.153	95.12
516.369	92.12
516.585	89.12
516.801	99.12
517.016	92.12
517.232	92.12
517.448	91.12
517.664	80.12
517.879	85.12
518.095	100.12
518.311	81.12
518.527	93.12
518.742	97.12
