Data from StA_HRD10591_088.txt Node
Date: Fri May 16 15:19:27 EDT 2025
User: Yrep
Spectrometer: HR+D1059
Trigger mode: 1
Integration Time (sec): 1.000000E-1
Scans to average: 1
Electric dark correction enabled: true
Nonlinearity correction enabled: false
Boxcar width: 0
XAxis mode: Wavelengths
Number of Pixels in Spectrum: 2048
>>>>>Begin Spectral Data<<<<<
223.165	-30.19
223.4	-30.19
223.635	-30.19
223.869	-23.19
224.104	-15.19
224.338	-9.19
224.573	-9.19
224.808	2.81
225.042	-8.19
225.277	-2.19
225.511	-0.19
225.746	-11.19
225.98	10.81
226.215	13.81
226.449	5.81
226.683	24.81
226.918	24.81
227.152	25.81
227.387	40.81
227.621	45.81
227.856	51.81
228.09	48.81
228.324	49.81
228.559	52.81
228.793	62.81
229.027	64.81
229.262	63.81
229.496	71.81
229.73	79.81
229.964	75.81
230.199	67.81
230.433	76.81
230.667	64.81
230.901	90.81
231.136	84.81
231.37	85.81
231.604	72.81
231.838	92.81
232.072	73.81
232.306	93.81
232.541	76.81
232.775	72.81
233.009	67.81
233.243	85.81
233.477	75.81
233.711	88.81
233.945	82.81
234.179	77.81
234.413	79.81
234.647	81.81
234.881	79.81
235.115	79.81
235.349	76.81
235.583	79.81
235.817	87.81
236.051	84.81
236.285	79.81
236.519	86.81
236.753	78.81
236.987	73.81
237.221	84.81
237.455	94.81
237.689	70.81
237.922	64.81
238.156	72.81
238.39	90.81
238.624	70.81
238.858	80.81
239.091	75.81
239.325	83.81
239.559	74.81
239.793	66.81
240.027	81.81
240.26	60.81
240.494	58.81
240.728	83.81
240.961	72.81
241.195	74.81
241.429	86.81
241.662	70.81
241.896	85.81
242.13	68.81
242.363	85.81
242.597	72.81
242.83	72.81
243.064	76.81
243.298	64.81
243.531	80.81
243.765	72.81
243.998	67.81
244.232	76.81
244.465	86.81
244.699	76.81
244.932	66.81
245.166	66.81
245.399	65.81
245.633	72.81
245.866	68.81
246.099	77.81
246.333	79.81
246.566	72.81
246.8	72.81
247.033	83.81
247.266	77.81
247.5	90.81
247.733	56.81
247.966	80.81
248.2	91.81
248.433	60.81
248.666	75.81
248.899	74.81
249.133	78.81
249.366	88.81
249.599	79.81
249.832	84.81
250.066	80.81
250.299	68.81
250.532	69.81
250.765	86.81
250.998	76.81
251.231	82.81
251.465	70.81
251.698	77.81
251.931	76.81
252.164	82.81
252.397	84.81
252.63	90.81
252.863	74.81
253.096	90.81
253.329	92.81
253.562	90.81
253.795	86.81
254.028	81.81
254.261	81.81
254.494	82.81
254.727	95.81
254.96	66.81
255.193	78.81
255.426	85.81
255.659	80.81
255.892	78.81
256.124	75.81
256.357	81.81
256.59	81.81
256.823	94.81
257.056	71.81
257.289	63.81
257.521	72.81
257.754	90.81
257.987	78.81
258.22	94.81
258.452	74.81
258.685	88.81
258.918	72.81
259.151	85.81
259.383	74.81
259.616	80.81
259.849	72.81
260.081	81.81
260.314	84.81
260.547	82.81
260.779	70.81
261.012	82.81
261.244	75.81
261.477	80.81
261.71	75.81
261.942	72.81
262.175	79.81
262.407	81.81
262.64	81.81
262.872	75.81
263.105	93.81
263.337	85.81
263.57	82.81
263.802	81.81
264.035	86.81
264.267	77.81
264.499	80.81
264.732	81.81
264.964	73.81
265.197	75.81
265.429	82.81
265.661	84.81
265.894	89.81
266.126	84.81
266.358	74.81
266.591	87.81
266.823	89.81
267.055	98.81
267.287	78.81
267.52	93.81
267.752	85.81
267.984	84.81
268.216	82.81
268.448	100.81
268.681	85.81
268.913	80.81
269.145	92.81
269.377	95.81
269.609	91.81
269.841	91.81
270.073	79.81
270.306	70.81
270.538	78.81
270.77	80.81
271.002	92.81
271.234	85.81
271.466	73.81
271.698	70.81
271.93	95.81
272.162	88.81
272.394	77.81
272.626	86.81
272.858	87.81
273.09	81.81
273.322	87.81
273.553	78.81
273.785	78.81
274.017	81.81
274.249	89.81
274.481	87.81
274.713	90.81
274.945	84.81
275.176	90.81
275.408	86.81
275.64	84.81
275.872	86.81
276.104	96.81
276.335	89.81
276.567	88.81
276.799	87.81
277.031	78.81
277.262	86.81
277.494	90.81
277.726	83.81
277.957	73.81
278.189	84.81
278.421	96.81
278.652	91.81
278.884	81.81
279.115	80.81
279.347	80.81
279.579	85.81
279.81	82.81
280.042	86.81
280.273	78.81
280.505	86.81
280.736	87.81
280.968	82.81
281.199	104.81
281.431	88.81
281.662	78.81
281.894	82.81
282.125	76.81
282.356	89.81
282.588	94.81
282.819	79.81
283.051	86.81
283.282	80.81
283.513	102.81
283.745	104.81
283.976	102.81
284.207	86.81
284.439	90.81
284.67	81.81
284.901	97.81
285.132	102.81
285.364	75.81
285.595	102.81
285.826	93.81
286.057	96.81
286.288	90.81
286.52	92.81
286.751	97.81
286.982	72.81
287.213	75.81
287.444	83.81
287.675	88.81
287.906	79.81
288.138	79.81
288.369	89.81
288.6	83.81
288.831	93.81
289.062	85.81
289.293	86.81
289.524	79.81
289.755	81.81
289.986	93.81
290.217	86.81
290.448	77.81
290.679	85.81
290.91	91.81
291.141	74.81
291.371	84.81
291.602	86.81
291.833	77.81
292.064	85.81
292.295	89.81
292.526	82.81
292.757	87.81
292.987	82.81
293.218	70.81
293.449	94.81
293.68	93.81
293.91	89.81
294.141	73.81
294.372	104.81
294.603	77.81
294.833	82.81
295.064	76.81
295.295	76.81
295.525	93.81
295.756	92.81
295.987	89.81
296.217	89.81
296.448	87.81
296.679	98.81
296.909	88.81
297.14	81.81
297.37	82.81
297.601	84.81
297.831	80.81
298.062	81.81
298.292	92.81
298.523	94.81
298.753	105.81
298.984	81.81
299.214	85.81
299.445	80.81
299.675	94.81
299.905	97.81
300.136	95.81
300.366	87.81
300.597	98.81
300.827	85.81
301.057	77.81
301.288	95.81
301.518	108.81
301.748	91.81
301.979	111.81
302.209	102.81
302.439	86.81
302.669	90.81
302.9	80.81
303.13	90.81
303.36	90.81
303.59	96.81
303.82	86.81
304.051	93.81
304.281	93.81
304.511	91.81
304.741	78.81
304.971	90.81
305.201	93.81
305.431	78.81
305.661	81.81
305.891	88.81
306.121	80.81
306.352	101.81
306.582	91.81
306.812	94.81
307.042	92.81
307.272	88.81
307.502	93.81
307.731	80.81
307.961	87.81
308.191	83.81
308.421	91.81
308.651	90.81
308.881	92.81
309.111	82.81
309.341	95.81
309.571	98.81
309.8	91.81
310.03	85.81
310.26	88.81
310.49	97.81
310.72	87.81
310.949	79.81
311.179	87.81
311.409	82.81
311.639	76.81
311.868	96.81
312.098	90.81
312.328	88.81
312.557	84.81
312.787	108.81
313.017	96.81
313.246	90.81
313.476	82.81
313.706	71.81
313.935	90.81
314.165	81.81
314.394	95.81
314.624	78.81
314.853	85.81
315.083	75.81
315.312	94.81
315.542	78.81
315.771	100.81
316.001	76.81
316.23	97.81
316.46	88.81
316.689	83.81
316.919	77.81
317.148	80.81
317.377	84.81
317.607	94.81
317.836	83.81
318.065	86.81
318.295	92.81
318.524	89.81
318.753	94.81
318.983	90.81
319.212	96.81
319.441	87.81
319.67	81.81
319.9	76.81
320.129	70.81
320.358	71.81
320.587	87.81
320.816	85.81
321.046	86.81
321.275	87.81
321.504	80.81
321.733	74.81
321.962	79.81
322.191	77.81
322.42	89.81
322.649	93.81
322.878	82.81
323.108	71.81
323.337	78.81
323.566	93.81
323.795	88.81
324.024	82.81
324.253	92.81
324.482	86.81
324.71	101.81
324.939	92.81
325.168	83.81
325.397	84.81
325.626	88.81
325.855	61.81
326.084	84.81
326.313	82.81
326.542	97.81
326.77	79.81
326.999	81.81
327.228	86.81
327.457	89.81
327.686	79.81
327.914	81.81
328.143	91.81
328.372	95.81
328.6	82.81
328.829	90.81
329.058	79.81
329.287	84.81
329.515	91.81
329.744	89.81
329.972	93.81
330.201	76.81
330.43	86.81
330.658	87.81
330.887	84.81
331.115	83.81
331.344	73.81
331.572	86.81
331.801	80.81
332.03	88.81
332.258	83.81
332.486	91.81
332.715	78.81
332.943	73.81
333.172	82.81
333.4	75.81
333.629	96.81
333.857	81.81
334.085	81.81
334.314	88.81
334.542	88.81
334.771	89.81
334.999	96.81
335.227	95.81
335.455	75.81
335.684	93.81
335.912	93.81
336.14	86.81
336.369	91.81
336.597	92.81
336.825	96.81
337.053	101.81
337.281	83.81
337.51	78.81
337.738	76.81
337.966	79.81
338.194	81.81
338.422	78.81
338.65	91.81
338.878	84.81
339.106	75.81
339.334	86.81
339.562	89.81
339.79	96.81
340.018	90.81
340.246	101.81
340.474	83.81
340.702	86.81
340.93	83.81
341.158	88.81
341.386	84.81
341.614	69.81
341.842	85.81
342.07	83.81
342.298	84.81
342.526	83.81
342.754	82.81
342.981	95.81
343.209	86.81
343.437	110.81
343.665	87.81
343.893	91.81
344.12	91.81
344.348	86.81
344.576	92.81
344.804	87.81
345.031	92.81
345.259	84.81
345.487	87.81
345.714	94.81
345.942	84.81
346.17	88.81
346.397	75.81
346.625	82.81
346.853	93.81
347.08	85.81
347.308	96.81
347.535	89.81
347.763	66.81
347.99	76.81
348.218	91.81
348.445	85.81
348.673	91.81
348.9	115.81
349.128	93.81
349.355	84.81
349.583	86.81
349.81	84.81
350.037	85.81
350.265	76.81
350.492	69.81
350.72	89.81
350.947	77.81
351.174	85.81
351.402	91.81
351.629	85.81
351.856	98.81
352.083	82.81
352.311	81.81
352.538	102.81
352.765	92.81
352.992	71.81
353.22	89.81
353.447	86.81
353.674	94.81
353.901	84.81
354.128	104.81
354.355	91.81
354.583	70.81
354.81	77.81
355.037	91.81
355.264	97.81
355.491	89.81
355.718	104.81
355.945	84.81
356.172	87.81
356.399	93.81
356.626	88.81
356.853	83.81
357.08	93.81
357.307	104.81
357.534	106.81
357.761	117.81
357.988	120.81
358.215	102.81
358.441	93.81
358.668	92.81
358.895	93.81
359.122	97.81
359.349	122.81
359.576	110.81
359.802	96.81
360.029	100.81
360.256	101.81
360.483	119.81
360.709	121.81
360.936	101.81
361.163	90.81
361.39	92.81
361.616	87.81
361.843	90.81
362.07	77.81
362.296	71.81
362.523	83.81
362.749	85.81
362.976	76.81
363.203	105.81
363.429	91.81
363.656	102.81
363.882	86.81
364.109	93.81
364.335	81.81
364.562	84.81
364.788	80.81
365.015	75.81
365.241	93.81
365.468	85.81
365.694	95.81
365.92	74.81
366.147	89.81
366.373	87.81
366.599	92.81
366.826	83.81
367.052	86.81
367.278	81.81
367.505	92.81
367.731	98.81
367.957	84.81
368.184	88.81
368.41	81.81
368.636	84.81
368.862	84.81
369.089	92.81
369.315	87.81
369.541	88.81
369.767	93.81
369.993	85.81
370.219	90.81
370.445	81.81
370.672	74.81
370.898	80.81
371.124	71.81
371.35	81.81
371.576	82.81
371.802	92.81
372.028	80.81
372.254	90.81
372.48	66.81
372.706	76.81
372.932	80.81
373.158	91.81
373.384	100.81
373.61	91.81
373.835	79.81
374.061	84.81
374.287	94.81
374.513	100.81
374.739	74.81
374.965	72.81
375.191	82.81
375.416	78.81
375.642	104.81
375.868	97.81
376.094	81.81
376.319	92.81
376.545	69.81
376.771	76.81
376.997	78.81
377.222	83.81
377.448	90.81
377.674	87.81
377.899	84.81
378.125	84.81
378.35	92.81
378.576	85.81
378.802	82.81
379.027	101.81
379.253	78.81
379.478	96.81
379.704	81.81
379.929	90.81
380.155	84.81
380.38	96.81
380.606	84.81
380.831	95.81
381.057	86.81
381.282	74.81
381.507	79.81
381.733	90.81
381.958	90.81
382.184	79.81
382.409	92.81
382.634	84.81
382.86	86.81
383.085	88.81
383.31	94.81
383.535	89.81
383.761	83.81
383.986	87.81
384.211	94.81
384.436	79.81
384.662	89.81
384.887	81.81
385.112	91.81
385.337	109.81
385.562	89.81
385.787	88.81
386.013	94.81
386.238	86.81
386.463	88.81
386.688	92.81
386.913	90.81
387.138	89.81
387.363	73.81
387.588	86.81
387.813	92.81
388.038	81.81
388.263	81.81
388.488	87.81
388.713	91.81
388.938	88.81
389.163	82.81
389.387	90.81
389.612	80.81
389.837	79.81
390.062	66.81
390.287	105.81
390.512	88.81
390.736	86.81
390.961	88.81
391.186	97.81
391.411	97.81
391.636	84.81
391.86	93.81
392.085	103.81
392.31	83.81
392.534	81.81
392.759	83.81
392.984	80.81
393.208	107.81
393.433	84.81
393.658	85.81
393.882	89.81
394.107	92.81
394.331	78.81
394.556	92.81
394.78	95.81
395.005	70.81
395.229	74.81
395.454	79.81
395.678	86.81
395.903	87.81
396.127	97.81
396.352	94.81
396.576	106.81
396.801	83.81
397.025	103.81
397.249	110.81
397.474	107.81
397.698	102.81
397.922	91.81
398.147	83.81
398.371	85.81
398.595	93.81
398.82	107.81
399.044	96.81
399.268	94.81
399.492	102.81
399.717	87.81
399.941	92.81
400.165	87.81
400.389	90.81
400.613	87.81
400.837	83.81
401.062	77.81
401.286	87.81
401.51	78.81
401.734	84.81
401.958	79.81
402.182	81.81
402.406	86.81
402.63	86.81
402.854	79.81
403.078	84.81
403.302	82.81
403.526	88.81
403.75	94.81
403.974	88.81
404.198	70.81
404.422	76.81
404.645	81.81
404.869	78.81
405.093	86.81
405.317	95.81
405.541	80.81
405.765	82.81
405.988	78.81
406.212	80.81
406.436	66.81
406.66	82.81
406.883	92.81
407.107	78.81
407.331	77.81
407.555	80.81
407.778	72.81
408.002	76.81
408.226	82.81
408.449	78.81
408.673	77.81
408.896	79.81
409.12	96.81
409.344	90.81
409.567	89.81
409.791	93.81
410.014	89.81
410.238	85.81
410.461	75.81
410.685	93.81
410.908	76.81
411.132	80.81
411.355	86.81
411.578	74.81
411.802	80.81
412.025	73.81
412.249	84.81
412.472	80.81
412.695	85.81
412.919	80.81
413.142	85.81
413.365	85.81
413.589	80.81
413.812	83.81
414.035	79.81
414.258	84.81
414.482	74.81
414.705	90.81
414.928	87.81
415.151	86.81
415.374	78.81
415.597	82.81
415.821	76.81
416.044	81.81
416.267	81.81
416.49	80.81
416.713	93.81
416.936	94.81
417.159	85.81
417.382	86.81
417.605	79.81
417.828	86.81
418.051	75.81
418.274	78.81
418.497	85.81
418.72	81.81
418.943	86.81
419.166	79.81
419.389	77.81
419.611	84.81
419.834	68.81
420.057	81.81
420.28	93.81
420.503	86.81
420.726	90.81
420.948	95.81
421.171	80.81
421.394	74.81
421.617	79.81
421.839	88.81
422.062	88.81
422.285	79.81
422.507	86.81
422.73	87.81
422.953	67.81
423.175	84.81
423.398	78.81
423.621	87.81
423.843	74.81
424.066	68.81
424.288	94.81
424.511	82.81
424.733	82.81
424.956	80.81
425.178	105.81
425.401	124.81
425.623	145.81
425.846	93.81
426.068	82.81
426.291	80.81
426.513	82.81
426.735	95.81
426.958	90.81
427.18	97.81
427.402	108.81
427.625	140.81
427.847	112.81
428.069	94.81
428.292	95.81
428.514	89.81
428.736	87.81
428.958	119.81
429.181	120.81
429.403	105.81
429.625	85.81
429.847	86.81
430.069	92.81
430.292	99.81
430.514	76.81
430.736	81.81
430.958	79.81
431.18	78.81
431.402	86.81
431.624	86.81
431.846	79.81
432.068	75.81
432.29	96.81
432.512	84.81
432.734	72.81
432.956	84.81
433.178	91.81
433.4	90.81
433.622	101.81
433.844	98.81
434.066	116.81
434.287	110.81
434.509	97.81
434.731	88.81
434.953	76.81
435.175	119.81
435.397	130.81
435.618	104.81
435.84	84.81
436.062	85.81
436.284	97.81
436.505	90.81
436.727	93.81
436.949	95.81
437.17	84.81
437.392	94.81
437.614	89.81
437.835	83.81
438.057	93.81
438.278	84.81
438.5	89.81
438.721	86.81
438.943	95.81
439.165	79.81
439.386	92.81
439.608	81.81
439.829	72.81
440.05	72.81
440.272	90.81
440.493	89.81
440.715	87.81
440.936	88.81
441.158	85.81
441.379	92.81
441.6	81.81
441.822	78.81
442.043	78.81
442.264	63.81
442.486	83.81
442.707	101.81
442.928	89.81
443.149	84.81
443.371	75.81
443.592	84.81
443.813	88.81
444.034	89.81
444.255	88.81
444.476	60.81
444.698	77.81
444.919	72.81
445.14	158.81
445.361	109.81
445.582	74.81
445.803	85.81
446.024	79.81
446.245	79.81
446.466	81.81
446.687	80.81
446.908	74.81
447.129	79.81
447.35	81.81
447.571	83.81
447.792	86.81
448.013	81.81
448.234	75.81
448.455	60.81
448.675	102.81
448.896	88.81
449.117	98.81
449.338	86.81
449.559	86.81
449.779	97.81
450	84.81
450.221	86.81
450.442	88.81
450.662	91.81
450.883	84.81
451.104	69.81
451.324	79.81
451.545	103.81
451.766	96.81
451.986	86.81
452.207	72.81
452.428	84.81
452.648	92.81
452.869	104.81
453.089	98.81
453.31	80.81
453.53	94.81
453.751	80.81
453.971	108.81
454.192	98.81
454.412	80.81
454.633	97.81
454.853	98.81
455.073	90.81
455.294	71.81
455.514	70.81
455.734	86.81
455.955	78.81
456.175	72.81
456.395	84.81
456.616	93.81
456.836	88.81
457.056	100.81
457.276	96.81
457.497	81.81
457.717	86.81
457.937	77.81
458.157	82.81
458.377	93.81
458.598	69.81
458.818	85.81
459.038	84.81
459.258	93.81
459.478	83.81
459.698	85.81
459.918	93.81
460.138	96.81
460.358	76.81
460.578	69.81
460.798	93.81
461.018	95.81
461.238	86.81
461.458	100.81
461.678	108.81
461.898	81.81
462.118	76.81
462.338	89.81
462.558	79.81
462.777	86.81
462.997	85.81
463.217	74.81
463.437	80.81
463.657	88.81
463.876	84.81
464.096	70.81
464.316	94.81
464.536	84.81
464.755	129.81
464.975	102.81
465.195	110.81
465.414	116.81
465.634	83.81
465.854	74.81
466.073	75.81
466.293	83.81
466.512	100.81
466.732	92.81
466.951	79.81
467.171	82.81
467.391	85.81
467.61	85.81
467.829	83.81
468.049	99.81
468.268	78.81
468.488	79.81
468.707	72.81
468.927	72.81
469.146	91.81
469.365	80.81
469.585	89.81
469.804	85.81
470.023	97.81
470.243	93.81
470.462	96.81
470.681	84.81
470.901	70.81
471.12	97.81
471.339	88.81
471.558	93.81
471.777	86.81
471.997	76.81
472.216	89.81
472.435	84.81
472.654	89.81
472.873	94.81
473.092	81.81
473.311	94.81
473.53	86.81
473.749	91.81
473.968	98.81
474.187	101.81
474.406	77.81
474.625	97.81
474.844	91.81
475.063	85.81
475.282	76.81
475.501	88.81
475.72	110.81
475.939	93.81
476.158	83.81
476.377	86.81
476.596	79.81
476.814	92.81
477.033	93.81
477.252	78.81
477.471	82.81
477.69	88.81
477.908	92.81
478.127	93.81
478.346	89.81
478.564	93.81
478.783	84.81
479.002	91.81
479.22	98.81
479.439	86.81
479.658	88.81
479.876	76.81
480.095	89.81
480.313	95.81
480.532	94.81
480.751	94.81
480.969	84.81
481.188	77.81
481.406	86.81
481.624	76.81
481.843	85.81
482.061	74.81
482.28	70.81
482.498	76.81
482.717	97.81
482.935	85.81
483.153	92.81
483.372	71.81
483.59	88.81
483.808	81.81
484.027	78.81
484.245	87.81
484.463	88.81
484.681	83.81
484.9	76.81
485.118	89.81
485.336	81.81
485.554	80.81
485.772	102.81
485.99	83.81
486.209	81.81
486.427	89.81
486.645	88.81
486.863	82.81
487.081	93.81
487.299	89.81
487.517	80.81
487.735	92.81
487.953	79.81
488.171	91.81
488.389	86.81
488.607	81.81
488.825	84.81
489.043	84.81
489.261	91.81
489.479	82.81
489.696	83.81
489.914	76.81
490.132	88.81
490.35	84.81
490.568	70.81
490.786	91.81
491.003	76.81
491.221	86.81
491.439	77.81
491.657	73.81
491.874	92.81
492.092	90.81
492.31	108.81
492.527	103.81
492.745	103.81
492.963	70.81
493.18	91.81
493.398	88.81
493.615	82.81
493.833	92.81
494.05	87.81
494.268	91.81
494.485	82.81
494.703	89.81
494.92	80.81
495.138	98.81
495.355	90.81
495.573	98.81
495.79	87.81
496.008	87.81
496.225	90.81
496.442	85.81
496.66	88.81
496.877	88.81
497.094	89.81
497.312	87.81
497.529	84.81
497.746	93.81
497.963	76.81
498.181	84.81
498.398	73.81
498.615	88.81
498.832	67.81
499.049	81.81
499.267	90.81
499.484	93.81
499.701	81.81
499.918	101.81
500.135	100.81
500.352	80.81
500.569	93.81
500.786	89.81
501.003	88.81
501.22	86.81
501.437	83.81
501.654	98.81
501.871	91.81
502.088	78.81
502.305	81.81
502.522	88.81
502.739	84.81
502.956	91.81
503.172	86.81
503.389	92.81
503.606	88.81
503.823	78.81
504.04	86.81
504.256	83.81
504.473	90.81
504.69	78.81
504.907	96.81
505.123	78.81
505.34	79.81
505.557	81.81
505.773	88.81
505.99	85.81
506.207	78.81
506.423	72.81
506.64	72.81
506.856	81.81
507.073	82.81
507.289	73.81
507.506	84.81
507.722	84.81
507.939	63.81
508.155	79.81
508.372	77.81
508.588	80.81
508.805	73.81
509.021	89.81
509.238	82.81
509.454	79.81
509.67	94.81
509.887	80.81
510.103	87.81
510.319	90.81
510.536	81.81
510.752	87.81
510.968	82.81
511.184	71.81
511.401	77.81
511.617	89.81
511.833	77.81
512.049	79.81
512.265	71.81
512.481	86.81
512.698	79.81
512.914	90.81
513.13	86.81
513.346	70.81
513.562	72.81
513.778	88.81
513.994	77.81
514.21	88.81
514.426	72.81
514.642	74.81
514.858	82.81
515.074	91.81
515.29	94.81
515.506	77.81
515.721	80.81
515.937	91.81
516.153	86.81
516.369	71.81
516.585	89.81
516.801	87.81
517.016	75.81
517.232	86.81
517.448	89.81
517.664	94.81
517.879	80.81
518.095	80.81
518.311	72.81
518.527	85.81
518.742	89.81
518.958	90.81
519.173	89.81
