Data from StA_HRD10591_086.txt Node
Date: Fri May 16 15:19:26 EDT 2025
User: Yrep
Spectrometer: HR+D1059
Trigger mode: 1
Integration Time (sec): 1.000000E-1
Scans to average: 1
Electric dark correction enabled: true
Nonlinearity correction enabled: false
Boxcar width: 0
XAxis mode: Wavelengths
Number of Pixels in Spectrum: 2048
>>>>>Begin Spectral Data<<<<<
223.165	-21.31
223.4	-21.31
223.635	-21.31
223.869	-19.31
224.104	-10.31
224.338	-17.31
224.573	-15.31
224.808	-20.31
225.042	-4.31
225.277	-2.31
225.511	-9.31
225.746	2.69
225.98	8.69
226.215	-1.31
226.449	15.69
226.683	22.69
226.918	30.69
227.152	40.69
227.387	23.69
227.621	34.69
227.856	45.69
228.09	63.69
228.324	48.69
228.559	62.69
228.793	59.69
229.027	81.69
229.262	65.69
229.496	55.69
229.73	80.69
229.964	74.69
230.199	65.69
230.433	82.69
230.667	72.69
230.901	68.69
231.136	76.69
231.37	76.69
231.604	96.69
231.838	89.69
232.072	93.69
232.306	93.69
232.541	90.69
232.775	96.69
233.009	72.69
233.243	104.69
233.477	91.69
233.711	79.69
233.945	86.69
234.179	85.69
234.413	81.69
234.647	83.69
234.881	87.69
235.115	92.69
235.349	75.69
235.583	86.69
235.817	90.69
236.051	84.69
236.285	73.69
236.519	73.69
236.753	87.69
236.987	76.69
237.221	85.69
237.455	67.69
237.689	74.69
237.922	97.69
238.156	65.69
238.39	70.69
238.624	83.69
238.858	80.69
239.091	77.69
239.325	68.69
239.559	69.69
239.793	75.69
240.027	81.69
240.26	97.69
240.494	73.69
240.728	72.69
240.961	84.69
241.195	86.69
241.429	89.69
241.662	68.69
241.896	83.69
242.13	81.69
242.363	84.69
242.597	69.69
242.83	75.69
243.064	84.69
243.298	77.69
243.531	75.69
243.765	77.69
243.998	80.69
244.232	85.69
244.465	74.69
244.699	73.69
244.932	72.69
245.166	92.69
245.399	79.69
245.633	68.69
245.866	77.69
246.099	80.69
246.333	100.69
246.566	82.69
246.8	78.69
247.033	90.69
247.266	79.69
247.5	74.69
247.733	80.69
247.966	82.69
248.2	79.69
248.433	86.69
248.666	73.69
248.899	81.69
249.133	68.69
249.366	92.69
249.599	78.69
249.832	81.69
250.066	78.69
250.299	80.69
250.532	67.69
250.765	82.69
250.998	77.69
251.231	76.69
251.465	69.69
251.698	84.69
251.931	74.69
252.164	81.69
252.397	73.69
252.63	80.69
252.863	77.69
253.096	79.69
253.329	74.69
253.562	70.69
253.795	75.69
254.028	85.69
254.261	72.69
254.494	78.69
254.727	83.69
254.96	79.69
255.193	68.69
255.426	81.69
255.659	85.69
255.892	81.69
256.124	83.69
256.357	80.69
256.59	78.69
256.823	74.69
257.056	76.69
257.289	74.69
257.521	76.69
257.754	76.69
257.987	68.69
258.22	78.69
258.452	93.69
258.685	76.69
258.918	80.69
259.151	74.69
259.383	82.69
259.616	78.69
259.849	104.69
260.081	86.69
260.314	75.69
260.547	77.69
260.779	63.69
261.012	79.69
261.244	83.69
261.477	74.69
261.71	78.69
261.942	75.69
262.175	74.69
262.407	72.69
262.64	85.69
262.872	71.69
263.105	89.69
263.337	80.69
263.57	91.69
263.802	84.69
264.035	88.69
264.267	84.69
264.499	84.69
264.732	83.69
264.964	82.69
265.197	87.69
265.429	77.69
265.661	73.69
265.894	78.69
266.126	98.69
266.358	89.69
266.591	90.69
266.823	76.69
267.055	80.69
267.287	75.69
267.52	99.69
267.752	78.69
267.984	90.69
268.216	74.69
268.448	84.69
268.681	82.69
268.913	83.69
269.145	95.69
269.377	72.69
269.609	88.69
269.841	90.69
270.073	72.69
270.306	86.69
270.538	98.69
270.77	78.69
271.002	90.69
271.234	84.69
271.466	87.69
271.698	87.69
271.93	69.69
272.162	91.69
272.394	94.69
272.626	78.69
272.858	76.69
273.09	97.69
273.322	97.69
273.553	98.69
273.785	95.69
274.017	95.69
274.249	91.69
274.481	82.69
274.713	88.69
274.945	87.69
275.176	84.69
275.408	87.69
275.64	90.69
275.872	81.69
276.104	82.69
276.335	84.69
276.567	74.69
276.799	73.69
277.031	80.69
277.262	90.69
277.494	92.69
277.726	86.69
277.957	90.69
278.189	83.69
278.421	78.69
278.652	97.69
278.884	80.69
279.115	88.69
279.347	96.69
279.579	75.69
279.81	78.69
280.042	88.69
280.273	81.69
280.505	66.69
280.736	82.69
280.968	90.69
281.199	86.69
281.431	71.69
281.662	72.69
281.894	98.69
282.125	88.69
282.356	97.69
282.588	81.69
282.819	75.69
283.051	84.69
283.282	79.69
283.513	88.69
283.745	98.69
283.976	102.69
284.207	90.69
284.439	104.69
284.67	98.69
284.901	75.69
285.132	95.69
285.364	86.69
285.595	99.69
285.826	95.69
286.057	94.69
286.288	102.69
286.52	98.69
286.751	88.69
286.982	93.69
287.213	95.69
287.444	93.69
287.675	88.69
287.906	98.69
288.138	95.69
288.369	75.69
288.6	86.69
288.831	100.69
289.062	98.69
289.293	74.69
289.524	86.69
289.755	98.69
289.986	90.69
290.217	83.69
290.448	91.69
290.679	88.69
290.91	100.69
291.141	81.69
291.371	99.69
291.602	76.69
291.833	82.69
292.064	72.69
292.295	80.69
292.526	94.69
292.757	83.69
292.987	74.69
293.218	99.69
293.449	100.69
293.68	86.69
293.91	82.69
294.141	81.69
294.372	98.69
294.603	89.69
294.833	96.69
295.064	72.69
295.295	84.69
295.525	90.69
295.756	86.69
295.987	91.69
296.217	83.69
296.448	86.69
296.679	76.69
296.909	78.69
297.14	114.69
297.37	82.69
297.601	100.69
297.831	84.69
298.062	99.69
298.292	98.69
298.523	92.69
298.753	91.69
298.984	99.69
299.214	79.69
299.445	95.69
299.675	90.69
299.905	89.69
300.136	90.69
300.366	88.69
300.597	82.69
300.827	90.69
301.057	82.69
301.288	91.69
301.518	102.69
301.748	105.69
301.979	114.69
302.209	89.69
302.439	92.69
302.669	94.69
302.9	90.69
303.13	94.69
303.36	105.69
303.59	95.69
303.82	80.69
304.051	79.69
304.281	92.69
304.511	100.69
304.741	96.69
304.971	97.69
305.201	90.69
305.431	92.69
305.661	84.69
305.891	83.69
306.121	105.69
306.352	79.69
306.582	91.69
306.812	86.69
307.042	90.69
307.272	80.69
307.502	75.69
307.731	80.69
307.961	73.69
308.191	84.69
308.421	86.69
308.651	66.69
308.881	84.69
309.111	76.69
309.341	86.69
309.571	83.69
309.8	99.69
310.03	100.69
310.26	83.69
310.49	103.69
310.72	85.69
310.949	87.69
311.179	91.69
311.409	86.69
311.639	86.69
311.868	95.69
312.098	87.69
312.328	87.69
312.557	92.69
312.787	96.69
313.017	88.69
313.246	89.69
313.476	81.69
313.706	77.69
313.935	86.69
314.165	80.69
314.394	76.69
314.624	100.69
314.853	76.69
315.083	83.69
315.312	83.69
315.542	101.69
315.771	74.69
316.001	82.69
316.23	81.69
316.46	74.69
316.689	94.69
316.919	84.69
317.148	81.69
317.377	86.69
317.607	87.69
317.836	91.69
318.065	83.69
318.295	104.69
318.524	87.69
318.753	78.69
318.983	83.69
319.212	89.69
319.441	91.69
319.67	86.69
319.9	87.69
320.129	70.69
320.358	83.69
320.587	87.69
320.816	83.69
321.046	98.69
321.275	104.69
321.504	75.69
321.733	94.69
321.962	89.69
322.191	73.69
322.42	84.69
322.649	89.69
322.878	100.69
323.108	74.69
323.337	89.69
323.566	73.69
323.795	80.69
324.024	88.69
324.253	83.69
324.482	82.69
324.71	85.69
324.939	90.69
325.168	94.69
325.397	95.69
325.626	103.69
325.855	89.69
326.084	81.69
326.313	87.69
326.542	90.69
326.77	94.69
326.999	90.69
327.228	75.69
327.457	73.69
327.686	85.69
327.914	96.69
328.143	93.69
328.372	80.69
328.6	85.69
328.829	90.69
329.058	89.69
329.287	80.69
329.515	89.69
329.744	84.69
329.972	90.69
330.201	80.69
330.43	94.69
330.658	91.69
330.887	92.69
331.115	77.69
331.344	92.69
331.572	104.69
331.801	87.69
332.03	86.69
332.258	91.69
332.486	88.69
332.715	79.69
332.943	86.69
333.172	88.69
333.4	96.69
333.629	92.69
333.857	73.69
334.085	76.69
334.314	92.69
334.542	77.69
334.771	88.69
334.999	86.69
335.227	88.69
335.455	86.69
335.684	91.69
335.912	89.69
336.14	84.69
336.369	87.69
336.597	84.69
336.825	86.69
337.053	91.69
337.281	85.69
337.51	81.69
337.738	98.69
337.966	86.69
338.194	99.69
338.422	87.69
338.65	77.69
338.878	74.69
339.106	91.69
339.334	69.69
339.562	89.69
339.79	90.69
340.018	79.69
340.246	84.69
340.474	92.69
340.702	91.69
340.93	82.69
341.158	89.69
341.386	78.69
341.614	72.69
341.842	83.69
342.07	74.69
342.298	104.69
342.526	89.69
342.754	80.69
342.981	90.69
343.209	82.69
343.437	108.69
343.665	105.69
343.893	81.69
344.12	97.69
344.348	79.69
344.576	86.69
344.804	86.69
345.031	80.69
345.259	91.69
345.487	89.69
345.714	83.69
345.942	91.69
346.17	96.69
346.397	79.69
346.625	86.69
346.853	72.69
347.08	78.69
347.308	81.69
347.535	84.69
347.763	92.69
347.99	90.69
348.218	96.69
348.445	83.69
348.673	94.69
348.9	73.69
349.128	95.69
349.355	85.69
349.583	92.69
349.81	82.69
350.037	70.69
350.265	90.69
350.492	82.69
350.72	82.69
350.947	86.69
351.174	93.69
351.402	89.69
351.629	79.69
351.856	85.69
352.083	98.69
352.311	91.69
352.538	86.69
352.765	79.69
352.992	94.69
353.22	86.69
353.447	100.69
353.674	87.69
353.901	90.69
354.128	97.69
354.355	77.69
354.583	66.69
354.81	86.69
355.037	81.69
355.264	84.69
355.491	80.69
355.718	90.69
355.945	92.69
356.172	97.69
356.399	84.69
356.626	93.69
356.853	88.69
357.08	99.69
357.307	86.69
357.534	108.69
357.761	113.69
357.988	122.69
358.215	100.69
358.441	94.69
358.668	86.69
358.895	116.69
359.122	114.69
359.349	119.69
359.576	120.69
359.802	96.69
360.029	91.69
360.256	102.69
360.483	108.69
360.709	99.69
360.936	99.69
361.163	82.69
361.39	81.69
361.616	63.69
361.843	92.69
362.07	82.69
362.296	84.69
362.523	81.69
362.749	59.69
362.976	89.69
363.203	90.69
363.429	84.69
363.656	89.69
363.882	78.69
364.109	84.69
364.335	101.69
364.562	94.69
364.788	72.69
365.015	95.69
365.241	98.69
365.468	82.69
365.694	76.69
365.92	84.69
366.147	88.69
366.373	83.69
366.599	86.69
366.826	79.69
367.052	73.69
367.278	88.69
367.505	69.69
367.731	87.69
367.957	96.69
368.184	86.69
368.41	89.69
368.636	88.69
368.862	89.69
369.089	85.69
369.315	89.69
369.541	85.69
369.767	74.69
369.993	76.69
370.219	75.69
370.445	86.69
370.672	89.69
370.898	78.69
371.124	86.69
371.35	76.69
371.576	91.69
371.802	86.69
372.028	69.69
372.254	79.69
372.48	80.69
372.706	93.69
372.932	78.69
373.158	84.69
373.384	81.69
373.61	89.69
373.835	94.69
374.061	81.69
374.287	80.69
374.513	95.69
374.739	98.69
374.965	99.69
375.191	78.69
375.416	93.69
375.642	92.69
375.868	84.69
376.094	80.69
376.319	86.69
376.545	77.69
376.771	80.69
376.997	85.69
377.222	84.69
377.448	94.69
377.674	92.69
377.899	86.69
378.125	88.69
378.35	84.69
378.576	74.69
378.802	86.69
379.027	83.69
379.253	87.69
379.478	82.69
379.704	97.69
379.929	90.69
380.155	81.69
380.38	89.69
380.606	102.69
380.831	90.69
381.057	87.69
381.282	70.69
381.507	83.69
381.733	102.69
381.958	72.69
382.184	83.69
382.409	92.69
382.634	90.69
382.86	90.69
383.085	92.69
383.31	102.69
383.535	88.69
383.761	95.69
383.986	98.69
384.211	92.69
384.436	86.69
384.662	87.69
384.887	92.69
385.112	83.69
385.337	88.69
385.562	86.69
385.787	91.69
386.013	89.69
386.238	102.69
386.463	91.69
386.688	107.69
386.913	98.69
387.138	85.69
387.363	96.69
387.588	91.69
387.813	86.69
388.038	85.69
388.263	94.69
388.488	94.69
388.713	94.69
388.938	79.69
389.163	73.69
389.387	66.69
389.612	82.69
389.837	86.69
390.062	82.69
390.287	90.69
390.512	87.69
390.736	93.69
390.961	104.69
391.186	88.69
391.411	84.69
391.636	100.69
391.86	106.69
392.085	89.69
392.31	106.69
392.534	61.69
392.759	90.69
392.984	78.69
393.208	91.69
393.433	78.69
393.658	83.69
393.882	93.69
394.107	86.69
394.331	84.69
394.556	69.69
394.78	93.69
395.005	77.69
395.229	80.69
395.454	94.69
395.678	86.69
395.903	101.69
396.127	94.69
396.352	92.69
396.576	82.69
396.801	89.69
397.025	102.69
397.249	94.69
397.474	102.69
397.698	82.69
397.922	95.69
398.147	78.69
398.371	86.69
398.595	79.69
398.82	83.69
399.044	82.69
399.268	84.69
399.492	85.69
399.717	88.69
399.941	78.69
400.165	97.69
400.389	82.69
400.613	74.69
400.837	74.69
401.062	84.69
401.286	81.69
401.51	86.69
401.734	93.69
401.958	78.69
402.182	75.69
402.406	84.69
402.63	98.69
402.854	81.69
403.078	87.69
403.302	89.69
403.526	76.69
403.75	75.69
403.974	95.69
404.198	72.69
404.422	68.69
404.645	79.69
404.869	76.69
405.093	87.69
405.317	91.69
405.541	75.69
405.765	76.69
405.988	80.69
406.212	72.69
406.436	80.69
406.66	104.69
406.883	94.69
407.107	84.69
407.331	102.69
407.555	67.69
407.778	92.69
408.002	92.69
408.226	74.69
408.449	76.69
408.673	82.69
408.896	86.69
409.12	73.69
409.344	81.69
409.567	84.69
409.791	79.69
410.014	86.69
410.238	78.69
410.461	84.69
410.685	90.69
410.908	84.69
411.132	93.69
411.355	93.69
411.578	83.69
411.802	81.69
412.025	98.69
412.249	97.69
412.472	89.69
412.695	94.69
412.919	90.69
413.142	89.69
413.365	92.69
413.589	84.69
413.812	99.69
414.035	86.69
414.258	88.69
414.482	80.69
414.705	88.69
414.928	74.69
415.151	83.69
415.374	89.69
415.597	77.69
415.821	76.69
416.044	82.69
416.267	83.69
416.49	76.69
416.713	86.69
416.936	78.69
417.159	86.69
417.382	80.69
417.605	105.69
417.828	95.69
418.051	83.69
418.274	91.69
418.497	84.69
418.72	75.69
418.943	85.69
419.166	80.69
419.389	74.69
419.611	69.69
419.834	74.69
420.057	77.69
420.28	80.69
420.503	76.69
420.726	87.69
420.948	91.69
421.171	78.69
421.394	78.69
421.617	97.69
421.839	95.69
422.062	90.69
422.285	83.69
422.507	65.69
422.73	90.69
422.953	78.69
423.175	74.69
423.398	91.69
423.621	91.69
423.843	86.69
424.066	86.69
424.288	100.69
424.511	82.69
424.733	91.69
424.956	81.69
425.178	90.69
425.401	134.69
425.623	158.69
425.846	98.69
426.068	85.69
426.291	77.69
426.513	80.69
426.735	93.69
426.958	78.69
427.18	85.69
427.402	132.69
427.625	140.69
427.847	99.69
428.069	91.69
428.292	95.69
428.514	93.69
428.736	95.69
428.958	112.69
429.181	134.69
429.403	97.69
429.625	74.69
429.847	82.69
430.069	88.69
430.292	96.69
430.514	91.69
430.736	74.69
430.958	96.69
431.18	85.69
431.402	89.69
431.624	75.69
431.846	71.69
432.068	71.69
432.29	75.69
432.512	96.69
432.734	81.69
432.956	83.69
433.178	95.69
433.4	91.69
433.622	105.69
433.844	109.69
434.066	114.69
434.287	104.69
434.509	95.69
434.731	109.69
434.953	94.69
435.175	103.69
435.397	113.69
435.618	93.69
435.84	77.69
436.062	97.69
436.284	92.69
436.505	79.69
436.727	81.69
436.949	100.69
437.17	83.69
437.392	87.69
437.614	83.69
437.835	94.69
438.057	83.69
438.278	88.69
438.5	84.69
438.721	90.69
438.943	91.69
439.165	92.69
439.386	82.69
439.608	73.69
439.829	96.69
440.05	78.69
440.272	72.69
440.493	78.69
440.715	67.69
440.936	83.69
441.158	78.69
441.379	98.69
441.6	92.69
441.822	76.69
442.043	76.69
442.264	77.69
442.486	84.69
442.707	83.69
442.928	87.69
443.149	91.69
443.371	76.69
443.592	88.69
443.813	80.69
444.034	94.69
444.255	79.69
444.476	88.69
444.698	77.69
444.919	78.69
445.14	157.69
445.361	138.69
445.582	72.69
445.803	85.69
446.024	91.69
446.245	76.69
446.466	80.69
446.687	89.69
446.908	82.69
447.129	77.69
447.35	87.69
447.571	88.69
447.792	74.69
448.013	92.69
448.234	82.69
448.455	84.69
448.675	67.69
448.896	87.69
449.117	78.69
449.338	90.69
449.559	93.69
449.779	95.69
450	84.69
450.221	82.69
450.442	94.69
450.662	74.69
450.883	72.69
451.104	77.69
451.324	83.69
451.545	84.69
451.766	83.69
451.986	94.69
452.207	86.69
452.428	62.69
452.648	85.69
452.869	103.69
453.089	88.69
453.31	81.69
453.53	82.69
453.751	91.69
453.971	86.69
454.192	91.69
454.412	92.69
454.633	105.69
454.853	89.69
455.073	73.69
455.294	89.69
455.514	95.69
455.734	81.69
455.955	92.69
456.175	84.69
456.395	98.69
456.616	79.69
456.836	102.69
457.056	81.69
457.276	86.69
457.497	84.69
457.717	75.69
457.937	90.69
458.157	87.69
458.377	94.69
458.598	81.69
458.818	79.69
459.038	87.69
459.258	94.69
459.478	77.69
459.698	87.69
459.918	76.69
460.138	108.69
460.358	86.69
460.578	77.69
460.798	87.69
461.018	100.69
461.238	94.69
461.458	91.69
461.678	106.69
461.898	94.69
462.118	96.69
462.338	87.69
462.558	99.69
462.777	98.69
462.997	102.69
463.217	86.69
463.437	97.69
463.657	103.69
463.876	92.69
464.096	85.69
464.316	84.69
464.536	86.69
464.755	111.69
464.975	100.69
465.195	103.69
465.414	117.69
465.634	79.69
465.854	99.69
466.073	84.69
466.293	87.69
466.512	97.69
466.732	105.69
466.951	94.69
467.171	84.69
467.391	93.69
467.61	77.69
467.829	89.69
468.049	97.69
468.268	81.69
468.488	74.69
468.707	95.69
468.927	91.69
469.146	86.69
469.365	96.69
469.585	89.69
469.804	78.69
470.023	78.69
470.243	79.69
470.462	81.69
470.681	81.69
470.901	93.69
471.12	91.69
471.339	90.69
471.558	75.69
471.777	86.69
471.997	93.69
472.216	79.69
472.435	102.69
472.654	89.69
472.873	86.69
473.092	74.69
473.311	91.69
473.53	81.69
473.749	94.69
473.968	83.69
474.187	87.69
474.406	88.69
474.625	82.69
474.844	70.69
475.063	80.69
475.282	91.69
475.501	96.69
475.72	90.69
475.939	90.69
476.158	79.69
476.377	95.69
476.596	86.69
476.814	93.69
477.033	86.69
477.252	95.69
477.471	90.69
477.69	82.69
477.908	87.69
478.127	104.69
478.346	86.69
478.564	94.69
478.783	75.69
479.002	112.69
479.22	92.69
479.439	93.69
479.658	68.69
479.876	88.69
480.095	90.69
480.313	87.69
480.532	80.69
480.751	86.69
480.969	90.69
481.188	85.69
481.406	86.69
481.624	89.69
481.843	75.69
482.061	71.69
482.28	90.69
482.498	87.69
482.717	102.69
482.935	76.69
483.153	94.69
483.372	83.69
483.59	88.69
483.808	88.69
484.027	85.69
484.245	77.69
484.463	96.69
484.681	81.69
484.9	76.69
485.118	84.69
485.336	81.69
485.554	81.69
485.772	79.69
485.99	80.69
486.209	88.69
486.427	86.69
486.645	95.69
486.863	86.69
487.081	85.69
487.299	90.69
487.517	79.69
487.735	92.69
487.953	103.69
488.171	106.69
488.389	107.69
488.607	90.69
488.825	90.69
489.043	105.69
489.261	81.69
489.479	91.69
489.696	91.69
489.914	86.69
490.132	90.69
490.35	89.69
490.568	97.69
490.786	93.69
491.003	87.69
491.221	88.69
491.439	72.69
491.657	86.69
491.874	99.69
492.092	104.69
492.31	114.69
492.527	102.69
492.745	95.69
492.963	110.69
493.18	84.69
493.398	91.69
493.615	75.69
493.833	83.69
494.05	91.69
494.268	85.69
494.485	87.69
494.703	93.69
494.92	103.69
495.138	106.69
495.355	97.69
495.573	95.69
495.79	93.69
496.008	99.69
496.225	90.69
496.442	87.69
496.66	78.69
496.877	88.69
497.094	91.69
497.312	90.69
497.529	83.69
497.746	96.69
497.963	83.69
498.181	92.69
498.398	76.69
498.615	98.69
498.832	84.69
499.049	89.69
499.267	88.69
499.484	81.69
499.701	81.69
499.918	84.69
500.135	75.69
500.352	87.69
500.569	79.69
500.786	84.69
501.003	88.69
501.22	74.69
501.437	93.69
501.654	82.69
501.871	71.69
502.088	80.69
502.305	91.69
502.522	74.69
502.739	79.69
502.956	77.69
503.172	68.69
503.389	86.69
503.606	82.69
503.823	86.69
504.04	88.69
504.256	90.69
504.473	97.69
504.69	84.69
504.907	99.69
505.123	84.69
505.34	91.69
505.557	81.69
505.773	82.69
505.99	99.69
506.207	114.69
506.423	85.69
506.64	84.69
506.856	91.69
507.073	88.69
507.289	83.69
507.506	84.69
507.722	83.69
507.939	102.69
508.155	98.69
508.372	88.69
508.588	82.69
508.805	90.69
509.021	85.69
509.238	76.69
509.454	87.69
509.67	84.69
509.887	78.69
510.103	90.69
510.319	90.69
510.536	96.69
510.752	86.69
510.968	79.69
511.184	90.69
511.401	86.69
511.617	82.69
511.833	80.69
512.049	81.69
512.265	82.69
512.481	79.69
512.698	92.69
512.914	92.69
513.13	94.69
513.346	97.69
513.562	94.69
513.778	86.69
513.994	87.69
514.21	77.69
514.426	84.69
514.642	79.69
514.858	83.69
515.074	88.69
515.29	92.69
515.506	85.69
515.721	91.69
515.937	87.69
516.153	81.69
516.369	78.69
516.585	86.69
516.801	81.69
517.016	79.69
517.232	92.69
517.448	67.69
517.664	82.69
517.879	80.69
518.095	89.69
518.311	87.69
518.527	77.69
518.742	84.69
518.958	80.69
