Data from Alignment_HRD10591_00013.txt Node
Date: Fri Dec 27 14:18:36 EST 2024
User: Yrep
Spectrometer: HR+D1059
Trigger mode: 1
Integration Time (sec): 1.000000E-1
Scans to average: 1
Electric dark correction enabled: true
Nonlinearity correction enabled: false
Boxcar width: 0
XAxis mode: Wavelengths
Number of Pixels in Spectrum: 2048
>>>>>Begin Spectral Data<<<<<
223.165	-23
223.4	-23
223.635	-23
223.869	-14
224.104	-18
224.338	-11
224.573	-20
224.808	-10
225.042	-6
225.277	1
225.511	-4
225.746	9
225.98	4
226.215	11
226.449	23
226.683	17
226.918	14
227.152	27
227.387	22
227.621	32
227.856	60
228.09	43
228.324	60
228.559	55
228.793	63
229.027	49
229.262	64
229.496	70
229.73	68
229.964	76
230.199	80
230.433	70
230.667	75
230.901	75
231.136	73
231.37	86
231.604	82
231.838	62
232.072	82
232.306	82
232.541	72
232.775	84
233.009	85
233.243	76
233.477	73
233.711	75
233.945	76
234.179	90
234.413	78
234.647	84
234.881	62
235.115	81
235.349	83
235.583	88
235.817	84
236.051	77
236.285	76
236.519	93
236.753	81
236.987	67
237.221	72
237.455	77
237.689	73
237.922	80
238.156	76
238.39	76
238.624	79
238.858	75
239.091	77
239.325	81
239.559	69
239.793	69
240.027	76
240.26	77
240.494	64
240.728	87
240.961	83
241.195	73
241.429	70
241.662	77
241.896	68
242.13	65
242.363	77
242.597	73
242.83	78
243.064	71
243.298	71
243.531	80
243.765	87
243.998	81
244.232	70
244.465	71
244.699	69
244.932	83
245.166	80
245.399	75
245.633	72
245.866	86
246.099	80
246.333	73
246.566	75
246.8	82
247.033	84
247.266	73
247.5	84
247.733	79
247.966	83
248.2	80
248.433	80
248.666	77
248.899	85
249.133	70
249.366	70
249.599	79
249.832	72
250.066	76
250.299	81
250.532	84
250.765	68
250.998	61
251.231	83
251.465	76
251.698	80
251.931	72
252.164	71
252.397	76
252.63	78
252.863	67
253.096	63
253.329	91
253.562	85
253.795	85
254.028	75
254.261	73
254.494	88
254.727	87
254.96	78
255.193	72
255.426	88
255.659	72
255.892	79
256.124	65
256.357	80
256.59	91
256.823	73
257.056	74
257.289	71
257.521	78
257.754	75
257.987	94
258.22	83
258.452	78
258.685	84
258.918	72
259.151	72
259.383	77
259.616	77
259.849	74
260.081	71
260.314	85
260.547	73
260.779	94
261.012	71
261.244	97
261.477	88
261.71	89
261.942	79
262.175	87
262.407	79
262.64	83
262.872	83
263.105	83
263.337	99
263.57	77
263.802	70
264.035	92
264.267	83
264.499	71
264.732	86
264.964	73
265.197	82
265.429	83
265.661	85
265.894	80
266.126	82
266.358	94
266.591	99
266.823	91
267.055	75
267.287	88
267.52	76
267.752	85
267.984	89
268.216	83
268.448	73
268.681	78
268.913	85
269.145	83
269.377	64
269.609	87
269.841	93
270.073	76
270.306	92
270.538	91
270.77	77
271.002	81
271.234	86
271.466	95
271.698	81
271.93	82
272.162	82
272.394	79
272.626	75
272.858	87
273.09	90
273.322	86
273.553	77
273.785	78
274.017	84
274.249	73
274.481	81
274.713	74
274.945	93
275.176	95
275.408	82
275.64	75
275.872	84
276.104	85
276.335	81
276.567	66
276.799	79
277.031	75
277.262	84
277.494	93
277.726	88
277.957	76
278.189	92
278.421	82
278.652	83
278.884	72
279.115	73
279.347	87
279.579	83
279.81	71
280.042	78
280.273	98
280.505	88
280.736	77
280.968	92
281.199	88
281.431	84
281.662	88
281.894	93
282.125	101
282.356	80
282.588	86
282.819	89
283.051	92
283.282	81
283.513	84
283.745	84
283.976	76
284.207	83
284.439	79
284.67	91
284.901	83
285.132	85
285.364	100
285.595	78
285.826	87
286.057	97
286.288	79
286.52	82
286.751	83
286.982	81
287.213	86
287.444	82
287.675	80
287.906	91
288.138	79
288.369	103
288.6	72
288.831	81
289.062	83
289.293	68
289.524	77
289.755	81
289.986	84
290.217	83
290.448	81
290.679	83
290.91	104
291.141	84
291.371	79
291.602	88
291.833	79
292.064	79
292.295	77
292.526	94
292.757	91
292.987	94
293.218	85
293.449	80
293.68	91
293.91	88
294.141	95
294.372	90
294.603	96
294.833	100
295.064	88
295.295	91
295.525	77
295.756	79
295.987	79
296.217	85
296.448	78
296.679	100
296.909	101
297.14	80
297.37	94
297.601	72
297.831	89
298.062	93
298.292	99
298.523	96
298.753	80
298.984	84
299.214	77
299.445	80
299.675	85
299.905	87
300.136	80
300.366	84
300.597	97
300.827	98
301.057	87
301.288	76
301.518	100
301.748	69
301.979	100
302.209	88
302.439	88
302.669	81
302.9	88
303.13	64
303.36	86
303.59	91
303.82	91
304.051	96
304.281	78
304.511	80
304.741	88
304.971	78
305.201	63
305.431	88
305.661	87
305.891	87
306.121	80
306.352	84
306.582	70
306.812	86
307.042	73
307.272	75
307.502	86
307.731	75
307.961	85
308.191	82
308.421	81
308.651	92
308.881	81
309.111	94
309.341	78
309.571	74
309.8	85
310.03	80
310.26	93
310.49	84
310.72	91
310.949	86
311.179	96
311.409	86
311.639	80
311.868	86
312.098	90
312.328	83
312.557	67
312.787	69
313.017	76
313.246	79
313.476	89
313.706	86
313.935	80
314.165	78
314.394	85
314.624	81
314.853	86
315.083	87
315.312	81
315.542	104
315.771	94
316.001	93
316.23	94
316.46	99
316.689	90
316.919	82
317.148	97
317.377	78
317.607	83
317.836	84
318.065	72
318.295	88
318.524	84
318.753	71
318.983	86
319.212	87
319.441	81
319.67	71
319.9	76
320.129	88
320.358	94
320.587	88
320.816	94
321.046	92
321.275	90
321.504	79
321.733	93
321.962	92
322.191	104
322.42	83
322.649	84
322.878	89
323.108	95
323.337	77
323.566	82
323.795	82
324.024	81
324.253	80
324.482	95
324.71	85
324.939	99
325.168	79
325.397	82
325.626	97
325.855	74
326.084	84
326.313	87
326.542	98
326.77	86
326.999	74
327.228	87
327.457	88
327.686	81
327.914	77
328.143	102
328.372	93
328.6	91
328.829	89
329.058	86
329.287	88
329.515	91
329.744	82
329.972	72
330.201	83
330.43	84
330.658	79
330.887	93
331.115	101
331.344	79
331.572	89
331.801	89
332.03	105
332.258	82
332.486	73
332.715	81
332.943	83
333.172	73
333.4	94
333.629	85
333.857	94
334.085	85
334.314	79
334.542	91
334.771	82
334.999	79
335.227	77
335.455	65
335.684	89
335.912	78
336.14	75
336.369	87
336.597	89
336.825	70
337.053	79
337.281	80
337.51	97
337.738	87
337.966	72
338.194	80
338.422	93
338.65	87
338.878	82
339.106	88
339.334	93
339.562	104
339.79	89
340.018	82
340.246	75
340.474	70
340.702	68
340.93	87
341.158	78
341.386	82
341.614	93
341.842	90
342.07	82
342.298	87
342.526	83
342.754	88
342.981	87
343.209	64
343.437	92
343.665	92
343.893	85
344.12	98
344.348	76
344.576	79
344.804	77
345.031	84
345.259	89
345.487	73
345.714	83
345.942	98
346.17	91
346.397	82
346.625	76
346.853	85
347.08	90
347.308	85
347.535	86
347.763	75
347.99	87
348.218	70
348.445	83
348.673	93
348.9	102
349.128	95
349.355	78
349.583	84
349.81	77
350.037	85
350.265	93
350.492	91
350.72	78
350.947	97
351.174	75
351.402	74
351.629	91
351.856	91
352.083	92
352.311	78
352.538	79
352.765	93
352.992	102
353.22	84
353.447	79
353.674	85
353.901	81
354.128	78
354.355	64
354.583	84
354.81	76
355.037	80
355.264	92
355.491	77
355.718	71
355.945	82
356.172	81
356.399	88
356.626	72
356.853	77
357.08	78
357.307	84
357.534	95
357.761	75
357.988	79
358.215	96
358.441	77
358.668	70
358.895	91
359.122	93
359.349	76
359.576	80
359.802	82
360.029	82
360.256	72
360.483	83
360.709	87
360.936	94
361.163	83
361.39	76
361.616	96
361.843	86
362.07	77
362.296	80
362.523	80
362.749	95
362.976	81
363.203	106
363.429	72
363.656	86
363.882	97
364.109	80
364.335	90
364.562	96
364.788	85
365.015	86
365.241	79
365.468	86
365.694	86
365.92	69
366.147	81
366.373	77
366.599	77
366.826	94
367.052	85
367.278	91
367.505	88
367.731	92
367.957	79
368.184	84
368.41	81
368.636	94
368.862	83
369.089	86
369.315	68
369.541	94
369.767	94
369.993	92
370.219	75
370.445	77
370.672	91
370.898	85
371.124	79
371.35	80
371.576	71
371.802	81
372.028	84
372.254	86
372.48	70
372.706	78
372.932	95
373.158	96
373.384	95
373.61	81
373.835	95
374.061	68
374.287	87
374.513	93
374.739	95
374.965	85
375.191	82
375.416	80
375.642	87
375.868	87
376.094	96
376.319	67
376.545	83
376.771	89
376.997	80
377.222	85
377.448	80
377.674	88
377.899	91
378.125	65
378.35	88
378.576	91
378.802	91
379.027	84
379.253	73
379.478	79
379.704	82
379.929	78
380.155	75
380.38	80
380.606	68
380.831	83
381.057	77
381.282	88
381.507	77
381.733	83
381.958	78
382.184	86
382.409	90
382.634	89
382.86	96
383.085	80
383.31	79
383.535	87
383.761	77
383.986	87
384.211	91
384.436	89
384.662	84
384.887	80
385.112	88
385.337	99
385.562	88
385.787	56
386.013	85
386.238	91
386.463	89
386.688	84
386.913	88
387.138	66
387.363	78
387.588	93
387.813	93
388.038	78
388.263	93
388.488	75
388.713	75
388.938	73
389.163	80
389.387	84
389.612	73
389.837	79
390.062	71
390.287	76
390.512	71
390.736	81
390.961	84
391.186	66
391.411	78
391.636	69
391.86	85
392.085	88
392.31	78
392.534	84
392.759	76
392.984	77
393.208	82
393.433	94
393.658	82
393.882	88
394.107	94
394.331	83
394.556	88
394.78	93
395.005	97
395.229	88
395.454	82
395.678	76
395.903	85
396.127	75
396.352	77
396.576	91
396.801	77
397.025	81
397.249	97
397.474	85
397.698	75
397.922	72
398.147	83
398.371	79
398.595	94
398.82	84
399.044	81
399.268	91
399.492	69
399.717	88
399.941	75
400.165	103
400.389	86
400.613	84
400.837	76
401.062	82
401.286	89
401.51	95
401.734	85
401.958	72
402.182	87
402.406	70
402.63	78
402.854	62
403.078	87
403.302	76
403.526	89
403.75	91
403.974	76
404.198	80
404.422	94
404.645	88
404.869	86
405.093	88
405.317	80
405.541	85
405.765	82
405.988	89
406.212	87
406.436	87
406.66	85
406.883	76
407.107	72
407.331	72
407.555	82
407.778	91
408.002	70
408.226	89
408.449	80
408.673	68
408.896	77
409.12	84
409.344	80
409.567	80
409.791	74
410.014	88
410.238	85
410.461	85
410.685	83
410.908	91
411.132	86
411.355	74
411.578	91
411.802	83
412.025	76
412.249	89
412.472	83
412.695	74
412.919	88
413.142	88
413.365	86
413.589	91
413.812	77
414.035	87
414.258	72
414.482	77
414.705	81
414.928	87
415.151	82
415.374	69
415.597	85
415.821	93
416.044	83
416.267	87
416.49	76
416.713	85
416.936	87
417.159	71
417.382	81
417.605	79
417.828	84
418.051	75
418.274	91
418.497	69
418.72	100
418.943	87
419.166	79
419.389	99
419.611	87
419.834	96
420.057	86
420.28	77
420.503	77
420.726	86
420.948	79
421.171	89
421.394	88
421.617	90
421.839	99
422.062	93
422.285	88
422.507	84
422.73	88
422.953	91
423.175	80
423.398	84
423.621	86
423.843	70
424.066	84
424.288	78
424.511	75
424.733	81
424.956	80
425.178	85
425.401	82
425.623	75
425.846	79
426.068	75
426.291	78
426.513	91
426.735	92
426.958	84
427.18	84
427.402	96
427.625	75
427.847	63
428.069	89
428.292	70
428.514	70
428.736	80
428.958	84
429.181	80
429.403	94
429.625	86
429.847	82
430.069	78
430.292	88
430.514	87
430.736	72
430.958	91
431.18	88
431.402	87
431.624	79
431.846	74
432.068	79
432.29	104
432.512	86
432.734	81
432.956	73
433.178	81
433.4	77
433.622	87
433.844	86
434.066	95
434.287	79
434.509	79
434.731	86
434.953	72
435.175	85
435.397	84
435.618	76
435.84	83
436.062	83
436.284	88
436.505	78
436.727	86
436.949	84
437.17	76
437.392	93
437.614	80
437.835	78
438.057	84
438.278	92
438.5	86
438.721	81
438.943	78
439.165	88
439.386	70
439.608	76
439.829	93
440.05	84
440.272	88
440.493	67
440.715	73
440.936	99
441.158	93
441.379	77
441.6	78
441.822	88
442.043	101
442.264	91
442.486	68
442.707	81
442.928	80
443.149	84
443.371	87
443.592	88
443.813	85
444.034	91
444.255	89
444.476	93
444.698	84
444.919	88
445.14	143
445.361	125
445.582	92
445.803	96
446.024	81
446.245	86
446.466	75
446.687	88
446.908	86
447.129	78
447.35	87
447.571	75
447.792	98
448.013	79
448.234	99
448.455	70
448.675	81
448.896	92
449.117	68
449.338	77
449.559	79
449.779	84
450	81
450.221	96
450.442	82
450.662	95
450.883	83
451.104	93
451.324	86
451.545	82
451.766	92
451.986	77
452.207	82
452.428	75
452.648	89
452.869	77
453.089	86
453.31	67
453.53	82
453.751	79
453.971	75
454.192	90
454.412	84
454.633	93
454.853	84
455.073	66
455.294	94
455.514	101
455.734	84
455.955	77
456.175	79
456.395	81
456.616	86
456.836	74
457.056	77
457.276	86
457.497	76
457.717	81
457.937	82
458.157	94
458.377	83
458.598	91
458.818	84
459.038	82
459.258	80
459.478	78
459.698	86
459.918	97
460.138	83
460.358	81
460.578	73
460.798	71
461.018	85
461.238	91
461.458	97
461.678	76
461.898	75
462.118	83
462.338	81
462.558	68
462.777	71
462.997	74
463.217	87
463.437	79
463.657	93
463.876	85
464.096	71
464.316	93
464.536	87
464.755	95
464.975	84
465.195	87
465.414	91
465.634	79
465.854	71
466.073	84
466.293	91
466.512	76
466.732	77
466.951	82
467.171	85
467.391	95
467.61	83
467.829	70
468.049	95
468.268	80
468.488	94
468.707	80
468.927	82
469.146	84
469.365	80
469.585	80
469.804	88
470.023	87
470.243	95
470.462	80
470.681	91
470.901	86
471.12	82
471.339	81
471.558	83
471.777	72
471.997	81
472.216	78
472.435	73
472.654	75
472.873	76
473.092	65
473.311	93
473.53	75
473.749	88
473.968	92
474.187	71
474.406	72
474.625	81
474.844	97
475.063	85
475.282	77
475.501	70
475.72	94
475.939	83
476.158	73
476.377	77
476.596	81
476.814	77
477.033	85
477.252	86
477.471	91
477.69	93
477.908	93
478.127	78
478.346	91
478.564	68
478.783	100
479.002	84
479.22	82
479.439	92
479.658	83
479.876	76
480.095	81
480.313	79
480.532	91
480.751	79
480.969	81
481.188	75
481.406	78
481.624	93
481.843	94
482.061	71
482.28	77
482.498	79
482.717	80
482.935	82
483.153	68
483.372	77
483.59	88
483.808	85
484.027	95
484.245	88
484.463	78
484.681	94
484.9	72
485.118	82
485.336	76
485.554	91
485.772	68
485.99	64
486.209	75
486.427	80
486.645	80
486.863	81
487.081	88
487.299	77
487.517	92
487.735	73
487.953	92
488.171	78
488.389	73
488.607	87
488.825	82
489.043	71
489.261	88
489.479	85
489.696	81
489.914	90
490.132	95
490.35	87
490.568	78
490.786	77
491.003	70
491.221	80
491.439	70
491.657	83
491.874	83
492.092	79
492.31	112
492.527	89
492.745	85
492.963	80
493.18	94
493.398	89
493.615	73
493.833	101
494.05	98
494.268	100
494.485	84
494.703	92
494.92	89
495.138	74
495.355	93
495.573	95
495.79	87
496.008	78
496.225	87
496.442	92
496.66	84
496.877	86
497.094	93
497.312	85
497.529	83
497.746	92
497.963	83
498.181	73
498.398	85
498.615	71
498.832	91
499.049	89
499.267	87
499.484	78
499.701	80
499.918	91
500.135	81
500.352	93
500.569	82
500.786	95
501.003	92
501.22	78
501.437	95
501.654	88
501.871	81
502.088	83
502.305	78
502.522	72
502.739	82
502.956	93
503.172	82
503.389	79
503.606	85
503.823	79
504.04	83
504.256	92
504.473	84
504.69	79
504.907	85
505.123	80
505.34	83
505.557	91
505.773	86
505.99	90
506.207	92
506.423	84
506.64	85
506.856	75
507.073	80
507.289	84
507.506	80
507.722	65
507.939	66
508.155	73
508.372	86
508.588	89
508.805	92
509.021	73
509.238	80
509.454	84
509.67	84
509.887	84
510.103	96
510.319	84
510.536	77
510.752	77
510.968	83
511.184	91
511.401	76
511.617	75
511.833	73
512.049	87
512.265	88
512.481	83
512.698	78
512.914	86
513.13	95
513.346	83
513.562	87
513.778	89
513.994	81
514.21	76
514.426	72
514.642	89
514.858	89
515.074	74
515.29	79
515.506	74
515.721	77
515.937	81
516.153	83
516.369	84
516.585	66
516.801	77
517.016	69
517.232	86
517.448	82
517.664	73
517.879	93
518.095	95
518.311	82
518.527	68
518.742	98
518.958	81
519.173	86
519.389	88
519.605	84
519.82	87
520.036	86
520.251	76
520.467	82
520.682	81
520.898	78
521.113	77
521.329	71
521.544	77
521.76	84
521.975	84
522.19	84
522.406	68
522.621	83
522.836	69
523.052	91
523.267	84
523.482	97
523.698	77
523.913	83
524.128	84
524.343	93
524.559	92
524.774	87
524.989	100
525.204	81
525.419	89
525.634	91
525.849	75
526.064	81
526.28	78
526.495	84
526.71	82
526.925	71
527.14	95
527.355	83
527.57	91
527.785	79
527.999	87
528.214	91
528.429	84
528.644	91
528.859	82
529.074	73
529.289	73
529.503	93
529.718	67
529.933	88
530.148	83
530.363	76
530.577	80
530.792	87
531.007	81
531.221	86
531.436	81
531.651	87
531.865	77
532.08	84
532.295	95
532.509	88
532.724	80
532.938	79
533.153	86
533.367	92
533.582	89
533.796	92
534.011	87
534.225	71
534.44	80
534.654	72
534.868	91
535.083	85
535.297	91
535.511	91
535.726	71
535.94	91
536.154	94
536.369	88
536.583	76
536.797	97
537.011	85
537.225	81
537.44	72
537.654	86
537.868	81
538.082	98
538.296	89
538.51	75
538.724	78
538.938	92
539.153	76
539.367	88
539.581	66
539.795	76
540.009	93
540.222	90
540.436	70
540.65	87
540.864	76
541.078	95
541.292	102
541.506	79
541.72	83
541.934	80
542.147	82
542.361	74
542.575	99
542.789	84
543.002	81
543.216	78
543.43	76
543.644	91
543.857	105
544.071	95
544.285	94
544.498	93
544.712	84
544.925	82
545.139	87
545.352	82
545.566	88
545.779	83
545.993	75
546.206	86
546.42	92
546.633	93
546.847	123
547.06	81
547.274	84
547.487	91
547.7	76
547.914	94
548.127	75
548.34	87
548.554	94
548.767	91
548.98	88
549.193	94
549.407	87
549.62	76
549.833	72
550.046	93
550.259	86
550.473	80
550.686	79
550.899	87
551.112	81
551.325	94
551.538	84
551.751	77
551.964	90
552.177	75
552.39	86
552.603	96
552.816	91
553.029	77
553.242	83
553.455	84
553.667	92
553.88	87
554.093	79
554.306	92
554.519	99
554.732	91
554.944	90
555.157	87
555.37	65
555.583	85
555.795	84
556.008	74
556.221	87
556.433	77
556.646	101
556.859	91
557.071	79
557.284	87
557.496	84
557.709	78
557.921	95
558.134	91
558.346	97
558.559	87
558.771	80
558.984	84
559.196	83
559.409	78
559.621	78
559.833	84
560.046	88
560.258	88
560.47	86
560.683	87
560.895	88
561.107	89
561.32	79
561.532	86
561.744	81
561.956	88
562.168	82
562.381	88
562.593	93
562.805	79
563.017	80
563.229	75
563.441	80
563.653	76
563.865	88
564.077	85
564.289	82
564.501	92
564.713	100
564.925	87
565.137	93
565.349	89
565.561	93
565.773	82
565.985	85
566.197	95
566.408	83
566.62	81
566.832	100
567.044	98
567.255	83
567.467	93
567.679	77
567.891	85
568.102	81
568.314	90
568.526	82
568.737	87
568.949	82
569.161	77
569.372	85
569.584	84
569.795	93
570.007	90
570.218	81
570.43	76
570.641	85
570.853	90
571.064	92
571.276	72
571.487	55
571.698	79
571.91	73
572.121	100
572.333	85
572.544	86
572.755	77
572.966	89
573.178	100
573.389	87
573.6	77
573.811	101
574.023	85
574.234	87
574.445	87
574.656	77
574.867	82
575.078	76
575.289	79
575.501	87
575.712	73
575.923	84
576.134	84
576.345	95
576.556	98
576.767	86
576.978	83
577.188	82
577.399	79
577.61	92
577.821	103
578.032	69
578.243	85
578.454	79
578.665	84
578.875	73
579.086	74
579.297	89
579.508	93
579.718	84
579.929	94
580.14	88
580.35	75
580.561	95
580.772	95
580.982	89
581.193	87
581.403	76
581.614	86
581.825	77
582.035	76
582.246	83
582.456	87
582.667	93
582.877	83
583.087	93
583.298	81
583.508	92
583.719	73
583.929	76
584.139	83
584.35	79
584.56	81
584.77	96
584.981	74
585.191	82
585.401	89
585.611	78
585.821	97
586.032	80
586.242	79
586.452	82
586.662	94
586.872	79
587.082	89
587.292	85
587.502	85
587.713	88
587.923	99
588.133	81
588.343	90
588.553	79
588.762	87
588.972	87
589.182	81
589.392	70
589.602	77
589.812	81
590.022	96
590.232	79
590.441	83
