Data from Alignment_HRD10591_00004.txt Node
Date: Fri Dec 27 14:18:27 EST 2024
User: Yrep
Spectrometer: HR+D1059
Trigger mode: 1
Integration Time (sec): 1.000000E-1
Scans to average: 1
Electric dark correction enabled: true
Nonlinearity correction enabled: false
Boxcar width: 0
XAxis mode: Wavelengths
Number of Pixels in Spectrum: 2048
>>>>>Begin Spectral Data<<<<<
223.165	-17.94
223.4	-17.94
223.635	-17.94
223.869	-24.94
224.104	-26.94
224.338	-23.94
224.573	-15.94
224.808	-18.94
225.042	-9.94
225.277	0.06
225.511	-9.94
225.746	12.06
225.98	22.06
226.215	9.06
226.449	29.06
226.683	26.06
226.918	22.06
227.152	28.06
227.387	29.06
227.621	36.06
227.856	50.06
228.09	46.06
228.324	45.06
228.559	83.06
228.793	47.06
229.027	67.06
229.262	58.06
229.496	57.06
229.73	53.06
229.964	65.06
230.199	74.06
230.433	75.06
230.667	64.06
230.901	66.06
231.136	67.06
231.37	90.06
231.604	67.06
231.838	76.06
232.072	69.06
232.306	78.06
232.541	80.06
232.775	90.06
233.009	86.06
233.243	80.06
233.477	82.06
233.711	76.06
233.945	72.06
234.179	84.06
234.413	91.06
234.647	67.06
234.881	64.06
235.115	81.06
235.349	68.06
235.583	78.06
235.817	80.06
236.051	82.06
236.285	76.06
236.519	90.06
236.753	90.06
236.987	75.06
237.221	64.06
237.455	82.06
237.689	86.06
237.922	62.06
238.156	70.06
238.39	73.06
238.624	67.06
238.858	68.06
239.091	80.06
239.325	67.06
239.559	82.06
239.793	75.06
240.027	69.06
240.26	69.06
240.494	77.06
240.728	76.06
240.961	69.06
241.195	71.06
241.429	74.06
241.662	71.06
241.896	75.06
242.13	66.06
242.363	74.06
242.597	81.06
242.83	78.06
243.064	73.06
243.298	78.06
243.531	79.06
243.765	75.06
243.998	83.06
244.232	73.06
244.465	76.06
244.699	87.06
244.932	84.06
245.166	92.06
245.399	79.06
245.633	82.06
245.866	79.06
246.099	70.06
246.333	76.06
246.566	80.06
246.8	80.06
247.033	77.06
247.266	75.06
247.5	55.06
247.733	75.06
247.966	70.06
248.2	72.06
248.433	74.06
248.666	81.06
248.899	83.06
249.133	80.06
249.366	69.06
249.599	78.06
249.832	82.06
250.066	88.06
250.299	72.06
250.532	84.06
250.765	77.06
250.998	64.06
251.231	76.06
251.465	64.06
251.698	61.06
251.931	86.06
252.164	94.06
252.397	77.06
252.63	81.06
252.863	80.06
253.096	94.06
253.329	78.06
253.562	74.06
253.795	74.06
254.028	84.06
254.261	89.06
254.494	82.06
254.727	69.06
254.96	87.06
255.193	88.06
255.426	76.06
255.659	84.06
255.892	75.06
256.124	67.06
256.357	74.06
256.59	70.06
256.823	72.06
257.056	79.06
257.289	76.06
257.521	69.06
257.754	75.06
257.987	77.06
258.22	86.06
258.452	73.06
258.685	82.06
258.918	93.06
259.151	73.06
259.383	74.06
259.616	89.06
259.849	86.06
260.081	81.06
260.314	78.06
260.547	73.06
260.779	79.06
261.012	75.06
261.244	79.06
261.477	83.06
261.71	76.06
261.942	74.06
262.175	77.06
262.407	73.06
262.64	75.06
262.872	64.06
263.105	74.06
263.337	86.06
263.57	80.06
263.802	66.06
264.035	88.06
264.267	87.06
264.499	86.06
264.732	74.06
264.964	85.06
265.197	76.06
265.429	98.06
265.661	92.06
265.894	78.06
266.126	77.06
266.358	71.06
266.591	73.06
266.823	75.06
267.055	82.06
267.287	82.06
267.52	82.06
267.752	82.06
267.984	77.06
268.216	68.06
268.448	84.06
268.681	86.06
268.913	68.06
269.145	77.06
269.377	80.06
269.609	79.06
269.841	88.06
270.073	80.06
270.306	71.06
270.538	76.06
270.77	67.06
271.002	77.06
271.234	79.06
271.466	73.06
271.698	73.06
271.93	79.06
272.162	79.06
272.394	88.06
272.626	78.06
272.858	96.06
273.09	66.06
273.322	79.06
273.553	79.06
273.785	75.06
274.017	80.06
274.249	91.06
274.481	83.06
274.713	78.06
274.945	78.06
275.176	79.06
275.408	80.06
275.64	72.06
275.872	76.06
276.104	84.06
276.335	78.06
276.567	80.06
276.799	83.06
277.031	74.06
277.262	82.06
277.494	75.06
277.726	83.06
277.957	91.06
278.189	73.06
278.421	88.06
278.652	96.06
278.884	82.06
279.115	84.06
279.347	96.06
279.579	75.06
279.81	74.06
280.042	88.06
280.273	80.06
280.505	83.06
280.736	81.06
280.968	87.06
281.199	74.06
281.431	79.06
281.662	77.06
281.894	83.06
282.125	94.06
282.356	91.06
282.588	87.06
282.819	80.06
283.051	84.06
283.282	74.06
283.513	94.06
283.745	96.06
283.976	91.06
284.207	87.06
284.439	83.06
284.67	78.06
284.901	87.06
285.132	95.06
285.364	78.06
285.595	78.06
285.826	70.06
286.057	93.06
286.288	77.06
286.52	88.06
286.751	90.06
286.982	63.06
287.213	82.06
287.444	90.06
287.675	83.06
287.906	89.06
288.138	74.06
288.369	82.06
288.6	72.06
288.831	78.06
289.062	81.06
289.293	79.06
289.524	88.06
289.755	80.06
289.986	83.06
290.217	63.06
290.448	84.06
290.679	90.06
290.91	89.06
291.141	82.06
291.371	80.06
291.602	68.06
291.833	82.06
292.064	75.06
292.295	76.06
292.526	81.06
292.757	73.06
292.987	89.06
293.218	83.06
293.449	82.06
293.68	86.06
293.91	95.06
294.141	83.06
294.372	86.06
294.603	86.06
294.833	84.06
295.064	82.06
295.295	82.06
295.525	72.06
295.756	90.06
295.987	86.06
296.217	81.06
296.448	82.06
296.679	84.06
296.909	76.06
297.14	90.06
297.37	81.06
297.601	79.06
297.831	88.06
298.062	100.06
298.292	83.06
298.523	90.06
298.753	78.06
298.984	78.06
299.214	82.06
299.445	88.06
299.675	90.06
299.905	74.06
300.136	86.06
300.366	71.06
300.597	73.06
300.827	87.06
301.057	84.06
301.288	82.06
301.518	81.06
301.748	86.06
301.979	96.06
302.209	82.06
302.439	81.06
302.669	72.06
302.9	83.06
303.13	70.06
303.36	88.06
303.59	86.06
303.82	104.06
304.051	87.06
304.281	77.06
304.511	76.06
304.741	84.06
304.971	91.06
305.201	78.06
305.431	94.06
305.661	70.06
305.891	76.06
306.121	89.06
306.352	83.06
306.582	80.06
306.812	70.06
307.042	79.06
307.272	79.06
307.502	78.06
307.731	89.06
307.961	81.06
308.191	74.06
308.421	93.06
308.651	75.06
308.881	94.06
309.111	90.06
309.341	88.06
309.571	87.06
309.8	81.06
310.03	72.06
310.26	69.06
310.49	83.06
310.72	83.06
310.949	81.06
311.179	91.06
311.409	79.06
311.639	82.06
311.868	95.06
312.098	86.06
312.328	81.06
312.557	108.06
312.787	92.06
313.017	87.06
313.246	82.06
313.476	76.06
313.706	81.06
313.935	91.06
314.165	79.06
314.394	80.06
314.624	82.06
314.853	73.06
315.083	92.06
315.312	78.06
315.542	90.06
315.771	76.06
316.001	80.06
316.23	89.06
316.46	94.06
316.689	74.06
316.919	83.06
317.148	71.06
317.377	90.06
317.607	86.06
317.836	82.06
318.065	82.06
318.295	71.06
318.524	72.06
318.753	98.06
318.983	78.06
319.212	87.06
319.441	82.06
319.67	80.06
319.9	65.06
320.129	67.06
320.358	77.06
320.587	87.06
320.816	85.06
321.046	98.06
321.275	87.06
321.504	84.06
321.733	95.06
321.962	92.06
322.191	74.06
322.42	72.06
322.649	84.06
322.878	79.06
323.108	82.06
323.337	89.06
323.566	88.06
323.795	80.06
324.024	95.06
324.253	77.06
324.482	87.06
324.71	74.06
324.939	88.06
325.168	92.06
325.397	68.06
325.626	78.06
325.855	78.06
326.084	82.06
326.313	82.06
326.542	92.06
326.77	67.06
326.999	86.06
327.228	75.06
327.457	91.06
327.686	81.06
327.914	78.06
328.143	98.06
328.372	83.06
328.6	78.06
328.829	71.06
329.058	91.06
329.287	81.06
329.515	80.06
329.744	84.06
329.972	94.06
330.201	70.06
330.43	77.06
330.658	90.06
330.887	78.06
331.115	68.06
331.344	89.06
331.572	84.06
331.801	98.06
332.03	88.06
332.258	79.06
332.486	74.06
332.715	88.06
332.943	86.06
333.172	89.06
333.4	74.06
333.629	91.06
333.857	74.06
334.085	86.06
334.314	79.06
334.542	76.06
334.771	97.06
334.999	85.06
335.227	75.06
335.455	68.06
335.684	80.06
335.912	87.06
336.14	80.06
336.369	75.06
336.597	77.06
336.825	78.06
337.053	88.06
337.281	86.06
337.51	84.06
337.738	96.06
337.966	74.06
338.194	90.06
338.422	87.06
338.65	87.06
338.878	65.06
339.106	81.06
339.334	83.06
339.562	80.06
339.79	90.06
340.018	75.06
340.246	83.06
340.474	82.06
340.702	74.06
340.93	79.06
341.158	72.06
341.386	62.06
341.614	82.06
341.842	76.06
342.07	78.06
342.298	88.06
342.526	84.06
342.754	83.06
342.981	77.06
343.209	74.06
343.437	89.06
343.665	82.06
343.893	86.06
344.12	84.06
344.348	90.06
344.576	86.06
344.804	61.06
345.031	77.06
345.259	83.06
345.487	84.06
345.714	80.06
345.942	81.06
346.17	81.06
346.397	79.06
346.625	77.06
346.853	85.06
347.08	77.06
347.308	79.06
347.535	66.06
347.763	83.06
347.99	83.06
348.218	70.06
348.445	77.06
348.673	91.06
348.9	73.06
349.128	80.06
349.355	99.06
349.583	86.06
349.81	88.06
350.037	76.06
350.265	82.06
350.492	80.06
350.72	95.06
350.947	88.06
351.174	75.06
351.402	84.06
351.629	86.06
351.856	73.06
352.083	79.06
352.311	81.06
352.538	91.06
352.765	93.06
352.992	88.06
353.22	103.06
353.447	75.06
353.674	78.06
353.901	84.06
354.128	74.06
354.355	77.06
354.583	84.06
354.81	83.06
355.037	89.06
355.264	82.06
355.491	75.06
355.718	76.06
355.945	71.06
356.172	72.06
356.399	76.06
356.626	73.06
356.853	72.06
357.08	85.06
357.307	79.06
357.534	80.06
357.761	80.06
357.988	77.06
358.215	83.06
358.441	84.06
358.668	83.06
358.895	72.06
359.122	65.06
359.349	88.06
359.576	75.06
359.802	79.06
360.029	72.06
360.256	73.06
360.483	90.06
360.709	73.06
360.936	90.06
361.163	90.06
361.39	80.06
361.616	77.06
361.843	72.06
362.07	94.06
362.296	78.06
362.523	66.06
362.749	67.06
362.976	83.06
363.203	97.06
363.429	81.06
363.656	86.06
363.882	84.06
364.109	81.06
364.335	76.06
364.562	81.06
364.788	82.06
365.015	72.06
365.241	76.06
365.468	83.06
365.694	70.06
365.92	75.06
366.147	84.06
366.373	78.06
366.599	76.06
366.826	64.06
367.052	72.06
367.278	70.06
367.505	69.06
367.731	91.06
367.957	78.06
368.184	74.06
368.41	87.06
368.636	72.06
368.862	82.06
369.089	77.06
369.315	86.06
369.541	92.06
369.767	66.06
369.993	81.06
370.219	73.06
370.445	77.06
370.672	92.06
370.898	72.06
371.124	83.06
371.35	78.06
371.576	81.06
371.802	80.06
372.028	88.06
372.254	81.06
372.48	69.06
372.706	75.06
372.932	66.06
373.158	79.06
373.384	90.06
373.61	95.06
373.835	88.06
374.061	59.06
374.287	81.06
374.513	77.06
374.739	80.06
374.965	96.06
375.191	92.06
375.416	94.06
375.642	97.06
375.868	83.06
376.094	78.06
376.319	86.06
376.545	88.06
376.771	88.06
376.997	78.06
377.222	74.06
377.448	81.06
377.674	78.06
377.899	79.06
378.125	73.06
378.35	90.06
378.576	83.06
378.802	86.06
379.027	80.06
379.253	71.06
379.478	86.06
379.704	79.06
379.929	86.06
380.155	77.06
380.38	78.06
380.606	59.06
380.831	80.06
381.057	87.06
381.282	85.06
381.507	80.06
381.733	74.06
381.958	80.06
382.184	90.06
382.409	81.06
382.634	90.06
382.86	80.06
383.085	83.06
383.31	82.06
383.535	84.06
383.761	67.06
383.986	64.06
384.211	74.06
384.436	83.06
384.662	68.06
384.887	85.06
385.112	77.06
385.337	77.06
385.562	66.06
385.787	83.06
386.013	80.06
386.238	75.06
386.463	73.06
386.688	91.06
386.913	78.06
387.138	74.06
387.363	72.06
387.588	96.06
387.813	88.06
388.038	80.06
388.263	78.06
388.488	77.06
388.713	86.06
388.938	78.06
389.163	76.06
389.387	88.06
389.612	78.06
389.837	62.06
390.062	72.06
390.287	75.06
390.512	87.06
390.736	88.06
390.961	78.06
391.186	69.06
391.411	80.06
391.636	72.06
391.86	82.06
392.085	91.06
392.31	74.06
392.534	91.06
392.759	79.06
392.984	70.06
393.208	83.06
393.433	87.06
393.658	86.06
393.882	86.06
394.107	90.06
394.331	77.06
394.556	77.06
394.78	81.06
395.005	82.06
395.229	74.06
395.454	85.06
395.678	82.06
395.903	73.06
396.127	78.06
396.352	71.06
396.576	79.06
396.801	73.06
397.025	88.06
397.249	87.06
397.474	88.06
397.698	77.06
397.922	86.06
398.147	78.06
398.371	73.06
398.595	76.06
398.82	90.06
399.044	76.06
399.268	83.06
399.492	81.06
399.717	66.06
399.941	88.06
400.165	82.06
400.389	91.06
400.613	77.06
400.837	85.06
401.062	91.06
401.286	91.06
401.51	77.06
401.734	69.06
401.958	86.06
402.182	88.06
402.406	72.06
402.63	75.06
402.854	90.06
403.078	83.06
403.302	86.06
403.526	81.06
403.75	82.06
403.974	74.06
404.198	80.06
404.422	75.06
404.645	74.06
404.869	90.06
405.093	94.06
405.317	90.06
405.541	74.06
405.765	69.06
405.988	76.06
406.212	72.06
406.436	79.06
406.66	92.06
406.883	71.06
407.107	90.06
407.331	72.06
407.555	82.06
407.778	89.06
408.002	86.06
408.226	79.06
408.449	65.06
408.673	82.06
408.896	65.06
409.12	94.06
409.344	66.06
409.567	85.06
409.791	82.06
410.014	75.06
410.238	92.06
410.461	73.06
410.685	82.06
410.908	82.06
411.132	91.06
411.355	83.06
411.578	75.06
411.802	78.06
412.025	67.06
412.249	71.06
412.472	77.06
412.695	74.06
412.919	95.06
413.142	86.06
413.365	78.06
413.589	71.06
413.812	70.06
414.035	73.06
414.258	74.06
414.482	73.06
414.705	75.06
414.928	68.06
415.151	79.06
415.374	48.06
415.597	66.06
415.821	80.06
416.044	94.06
416.267	86.06
416.49	83.06
416.713	75.06
416.936	91.06
417.159	87.06
417.382	72.06
417.605	76.06
417.828	81.06
418.051	71.06
418.274	83.06
418.497	78.06
418.72	63.06
418.943	91.06
419.166	74.06
419.389	85.06
419.611	72.06
419.834	76.06
420.057	73.06
420.28	87.06
420.503	84.06
420.726	80.06
420.948	84.06
421.171	61.06
421.394	70.06
421.617	66.06
421.839	63.06
422.062	84.06
422.285	89.06
422.507	79.06
422.73	74.06
422.953	79.06
423.175	80.06
423.398	87.06
423.621	79.06
423.843	82.06
424.066	92.06
424.288	61.06
424.511	82.06
424.733	81.06
424.956	77.06
425.178	86.06
425.401	79.06
425.623	70.06
425.846	81.06
426.068	83.06
426.291	82.06
426.513	81.06
426.735	82.06
426.958	79.06
427.18	68.06
427.402	76.06
427.625	75.06
427.847	76.06
428.069	73.06
428.292	86.06
428.514	78.06
428.736	93.06
428.958	79.06
429.181	81.06
429.403	78.06
429.625	75.06
429.847	72.06
430.069	98.06
430.292	81.06
430.514	83.06
430.736	67.06
430.958	87.06
431.18	86.06
431.402	89.06
431.624	87.06
431.846	84.06
432.068	65.06
432.29	78.06
432.512	84.06
432.734	82.06
432.956	61.06
433.178	72.06
433.4	76.06
433.622	99.06
433.844	80.06
434.066	84.06
434.287	89.06
434.509	82.06
434.731	61.06
434.953	74.06
435.175	74.06
435.397	78.06
435.618	78.06
435.84	68.06
436.062	91.06
436.284	82.06
436.505	65.06
436.727	79.06
436.949	83.06
437.17	92.06
437.392	63.06
437.614	66.06
437.835	75.06
438.057	64.06
438.278	63.06
438.5	73.06
438.721	78.06
438.943	72.06
439.165	64.06
439.386	78.06
439.608	78.06
439.829	81.06
440.05	87.06
440.272	74.06
440.493	75.06
440.715	76.06
440.936	76.06
441.158	98.06
441.379	84.06
441.6	78.06
441.822	91.06
442.043	71.06
442.264	75.06
442.486	78.06
442.707	79.06
442.928	82.06
443.149	76.06
443.371	78.06
443.592	74.06
443.813	94.06
444.034	94.06
444.255	77.06
444.476	62.06
444.698	67.06
444.919	68.06
445.14	131.06
445.361	95.06
445.582	76.06
445.803	87.06
446.024	67.06
446.245	84.06
446.466	90.06
446.687	90.06
446.908	81.06
447.129	79.06
447.35	82.06
447.571	91.06
447.792	71.06
448.013	89.06
448.234	70.06
448.455	86.06
448.675	87.06
448.896	81.06
449.117	80.06
449.338	74.06
449.559	84.06
449.779	80.06
450	70.06
450.221	73.06
450.442	73.06
450.662	80.06
450.883	82.06
451.104	78.06
451.324	82.06
451.545	89.06
451.766	82.06
451.986	86.06
452.207	80.06
452.428	80.06
452.648	79.06
452.869	70.06
453.089	61.06
453.31	66.06
453.53	91.06
453.751	83.06
453.971	67.06
454.192	75.06
454.412	80.06
454.633	86.06
454.853	82.06
455.073	71.06
455.294	74.06
455.514	80.06
455.734	92.06
455.955	78.06
456.175	73.06
456.395	71.06
456.616	82.06
456.836	89.06
457.056	87.06
457.276	76.06
457.497	77.06
457.717	84.06
457.937	88.06
458.157	81.06
458.377	82.06
458.598	81.06
458.818	62.06
459.038	67.06
459.258	87.06
459.478	89.06
459.698	80.06
459.918	77.06
460.138	85.06
460.358	90.06
460.578	77.06
460.798	91.06
461.018	73.06
461.238	90.06
461.458	85.06
461.678	90.06
461.898	76.06
462.118	61.06
462.338	79.06
462.558	86.06
462.777	87.06
462.997	75.06
463.217	77.06
463.437	67.06
463.657	74.06
463.876	74.06
464.096	68.06
464.316	87.06
464.536	85.06
464.755	81.06
464.975	83.06
465.195	78.06
465.414	68.06
465.634	75.06
465.854	79.06
466.073	78.06
466.293	91.06
466.512	89.06
466.732	77.06
466.951	82.06
467.171	77.06
467.391	86.06
467.61	92.06
467.829	85.06
468.049	78.06
468.268	92.06
468.488	72.06
468.707	84.06
468.927	85.06
469.146	83.06
469.365	70.06
469.585	81.06
469.804	77.06
470.023	80.06
470.243	96.06
470.462	81.06
470.681	92.06
470.901	72.06
471.12	76.06
471.339	69.06
471.558	83.06
471.777	75.06
471.997	83.06
472.216	94.06
472.435	72.06
472.654	86.06
472.873	83.06
473.092	86.06
473.311	81.06
473.53	69.06
473.749	72.06
473.968	79.06
474.187	74.06
474.406	98.06
474.625	73.06
474.844	77.06
475.063	83.06
475.282	72.06
475.501	68.06
475.72	87.06
475.939	79.06
476.158	63.06
476.377	72.06
476.596	87.06
476.814	90.06
477.033	66.06
477.252	77.06
477.471	83.06
477.69	71.06
477.908	76.06
478.127	79.06
478.346	73.06
478.564	75.06
478.783	81.06
479.002	78.06
479.22	78.06
479.439	81.06
479.658	68.06
479.876	85.06
480.095	81.06
480.313	84.06
480.532	79.06
480.751	77.06
480.969	74.06
481.188	68.06
481.406	74.06
481.624	69.06
481.843	76.06
482.061	69.06
482.28	81.06
482.498	86.06
482.717	80.06
482.935	90.06
483.153	89.06
483.372	71.06
483.59	83.06
483.808	72.06
484.027	86.06
484.245	70.06
484.463	83.06
484.681	96.06
484.9	90.06
485.118	68.06
485.336	82.06
485.554	80.06
485.772	84.06
485.99	68.06
486.209	77.06
486.427	88.06
486.645	74.06
486.863	97.06
487.081	87.06
487.299	86.06
487.517	79.06
487.735	91.06
487.953	86.06
488.171	87.06
488.389	78.06
488.607	89.06
488.825	74.06
489.043	79.06
489.261	70.06
489.479	91.06
489.696	82.06
489.914	70.06
490.132	79.06
490.35	87.06
490.568	91.06
490.786	83.06
491.003	86.06
491.221	84.06
491.439	88.06
491.657	84.06
491.874	75.06
492.092	73.06
492.31	67.06
492.527	80.06
492.745	88.06
492.963	99.06
493.18	94.06
493.398	78.06
493.615	79.06
493.833	84.06
494.05	76.06
494.268	97.06
494.485	86.06
494.703	97.06
494.92	92.06
495.138	100.06
495.355	93.06
495.573	94.06
495.79	76.06
496.008	88.06
496.225	73.06
496.442	84.06
496.66	83.06
496.877	101.06
497.094	84.06
497.312	84.06
497.529	91.06
497.746	90.06
497.963	83.06
498.181	78.06
498.398	80.06
498.615	82.06
498.832	83.06
499.049	70.06
499.267	91.06
499.484	71.06
499.701	85.06
499.918	86.06
500.135	84.06
500.352	93.06
500.569	90.06
500.786	63.06
501.003	79.06
501.22	78.06
501.437	87.06
501.654	71.06
501.871	66.06
502.088	79.06
502.305	104.06
502.522	75.06
502.739	81.06
502.956	84.06
503.172	75.06
503.389	82.06
503.606	78.06
503.823	87.06
504.04	88.06
504.256	89.06
504.473	78.06
504.69	77.06
504.907	88.06
505.123	89.06
505.34	82.06
505.557	86.06
505.773	76.06
505.99	94.06
506.207	78.06
506.423	83.06
506.64	86.06
506.856	94.06
507.073	71.06
507.289	87.06
507.506	72.06
507.722	80.06
507.939	92.06
508.155	74.06
508.372	81.06
508.588	91.06
508.805	63.06
509.021	75.06
509.238	85.06
509.454	86.06
509.67	71.06
509.887	77.06
510.103	73.06
510.319	58.06
510.536	81.06
510.752	78.06
510.968	94.06
511.184	85.06
511.401	76.06
511.617	94.06
511.833	68.06
512.049	81.06
512.265	81.06
512.481	91.06
512.698	82.06
512.914	79.06
513.13	79.06
513.346	73.06
513.562	75.06
513.778	76.06
513.994	94.06
514.21	80.06
514.426	67.06
514.642	86.06
514.858	91.06
515.074	68.06
515.29	83.06
515.506	78.06
515.721	78.06
515.937	87.06
516.153	76.06
516.369	82.06
516.585	64.06
516.801	79.06
517.016	67.06
517.232	84.06
517.448	86.06
517.664	77.06
517.879	79.06
518.095	90.06
518.311	81.06
518.527	74.06
518.742	82.06
518.958	89.06
519.173	72.06
519.389	80.06
519.605	83.06
519.82	67.06
520.036	76.06
520.251	69.06
