Data from Alignment_HRD10591_00009.txt Node
Date: Fri Dec 27 14:18:32 EST 2024
User: Yrep
Spectrometer: HR+D1059
Trigger mode: 1
Integration Time (sec): 1.000000E-1
Scans to average: 1
Electric dark correction enabled: true
Nonlinearity correction enabled: false
Boxcar width: 0
XAxis mode: Wavelengths
Number of Pixels in Spectrum: 2048
>>>>>Begin Spectral Data<<<<<
223.165	-20.44
223.4	-20.44
223.635	-20.44
223.869	-24.44
224.104	-10.44
224.338	-9.44
224.573	-10.44
224.808	-16.44
225.042	-13.44
225.277	-6.44
225.511	-9.44
225.746	9.56
225.98	7.56
226.215	0.56
226.449	32.56
226.683	20.56
226.918	16.56
227.152	33.56
227.387	30.56
227.621	25.56
227.856	41.56
228.09	43.56
228.324	44.56
228.559	62.56
228.793	63.56
229.027	55.56
229.262	53.56
229.496	60.56
229.73	66.56
229.964	85.56
230.199	64.56
230.433	79.56
230.667	85.56
230.901	80.56
231.136	87.56
231.37	84.56
231.604	72.56
231.838	80.56
232.072	86.56
232.306	71.56
232.541	82.56
232.775	96.56
233.009	100.56
233.243	67.56
233.477	75.56
233.711	77.56
233.945	75.56
234.179	77.56
234.413	79.56
234.647	79.56
234.881	88.56
235.115	85.56
235.349	86.56
235.583	84.56
235.817	73.56
236.051	68.56
236.285	73.56
236.519	79.56
236.753	84.56
236.987	87.56
237.221	68.56
237.455	83.56
237.689	66.56
237.922	71.56
238.156	84.56
238.39	73.56
238.624	73.56
238.858	84.56
239.091	70.56
239.325	68.56
239.559	82.56
239.793	76.56
240.027	84.56
240.26	65.56
240.494	83.56
240.728	86.56
240.961	87.56
241.195	73.56
241.429	69.56
241.662	78.56
241.896	77.56
242.13	84.56
242.363	87.56
242.597	75.56
242.83	80.56
243.064	72.56
243.298	73.56
243.531	84.56
243.765	77.56
243.998	71.56
244.232	84.56
244.465	64.56
244.699	91.56
244.932	79.56
245.166	88.56
245.399	80.56
245.633	75.56
245.866	84.56
246.099	86.56
246.333	77.56
246.566	80.56
246.8	72.56
247.033	86.56
247.266	76.56
247.5	86.56
247.733	63.56
247.966	101.56
248.2	80.56
248.433	82.56
248.666	69.56
248.899	68.56
249.133	79.56
249.366	77.56
249.599	70.56
249.832	67.56
250.066	67.56
250.299	74.56
250.532	76.56
250.765	77.56
250.998	65.56
251.231	77.56
251.465	83.56
251.698	70.56
251.931	70.56
252.164	67.56
252.397	73.56
252.63	64.56
252.863	77.56
253.096	92.56
253.329	69.56
253.562	90.56
253.795	76.56
254.028	75.56
254.261	69.56
254.494	62.56
254.727	93.56
254.96	75.56
255.193	72.56
255.426	73.56
255.659	68.56
255.892	92.56
256.124	86.56
256.357	93.56
256.59	83.56
256.823	76.56
257.056	79.56
257.289	72.56
257.521	76.56
257.754	77.56
257.987	62.56
258.22	77.56
258.452	72.56
258.685	84.56
258.918	87.56
259.151	81.56
259.383	87.56
259.616	80.56
259.849	85.56
260.081	75.56
260.314	78.56
260.547	71.56
260.779	76.56
261.012	68.56
261.244	71.56
261.477	88.56
261.71	71.56
261.942	86.56
262.175	84.56
262.407	83.56
262.64	72.56
262.872	78.56
263.105	73.56
263.337	78.56
263.57	90.56
263.802	85.56
264.035	84.56
264.267	83.56
264.499	87.56
264.732	83.56
264.964	67.56
265.197	76.56
265.429	96.56
265.661	84.56
265.894	83.56
266.126	82.56
266.358	75.56
266.591	84.56
266.823	76.56
267.055	81.56
267.287	71.56
267.52	73.56
267.752	69.56
267.984	79.56
268.216	84.56
268.448	72.56
268.681	88.56
268.913	87.56
269.145	91.56
269.377	83.56
269.609	77.56
269.841	86.56
270.073	104.56
270.306	86.56
270.538	67.56
270.77	79.56
271.002	81.56
271.234	89.56
271.466	86.56
271.698	83.56
271.93	80.56
272.162	86.56
272.394	91.56
272.626	68.56
272.858	82.56
273.09	79.56
273.322	63.56
273.553	79.56
273.785	76.56
274.017	79.56
274.249	63.56
274.481	80.56
274.713	88.56
274.945	92.56
275.176	67.56
275.408	88.56
275.64	75.56
275.872	88.56
276.104	64.56
276.335	84.56
276.567	78.56
276.799	73.56
277.031	89.56
277.262	80.56
277.494	85.56
277.726	74.56
277.957	76.56
278.189	82.56
278.421	74.56
278.652	77.56
278.884	82.56
279.115	91.56
279.347	73.56
279.579	77.56
279.81	88.56
280.042	84.56
280.273	82.56
280.505	83.56
280.736	102.56
280.968	81.56
281.199	90.56
281.431	83.56
281.662	80.56
281.894	73.56
282.125	83.56
282.356	94.56
282.588	87.56
282.819	93.56
283.051	81.56
283.282	94.56
283.513	91.56
283.745	81.56
283.976	82.56
284.207	83.56
284.439	80.56
284.67	81.56
284.901	79.56
285.132	94.56
285.364	90.56
285.595	98.56
285.826	79.56
286.057	86.56
286.288	86.56
286.52	85.56
286.751	73.56
286.982	87.56
287.213	93.56
287.444	92.56
287.675	86.56
287.906	85.56
288.138	77.56
288.369	92.56
288.6	88.56
288.831	88.56
289.062	84.56
289.293	88.56
289.524	68.56
289.755	88.56
289.986	68.56
290.217	77.56
290.448	77.56
290.679	84.56
290.91	98.56
291.141	73.56
291.371	96.56
291.602	84.56
291.833	73.56
292.064	76.56
292.295	87.56
292.526	84.56
292.757	84.56
292.987	92.56
293.218	75.56
293.449	82.56
293.68	102.56
293.91	81.56
294.141	101.56
294.372	78.56
294.603	79.56
294.833	97.56
295.064	92.56
295.295	79.56
295.525	73.56
295.756	94.56
295.987	76.56
296.217	81.56
296.448	89.56
296.679	82.56
296.909	85.56
297.14	77.56
297.37	77.56
297.601	80.56
297.831	83.56
298.062	71.56
298.292	76.56
298.523	95.56
298.753	69.56
298.984	86.56
299.214	85.56
299.445	86.56
299.675	84.56
299.905	82.56
300.136	94.56
300.366	88.56
300.597	73.56
300.827	82.56
301.057	77.56
301.288	96.56
301.518	94.56
301.748	80.56
301.979	103.56
302.209	95.56
302.439	90.56
302.669	101.56
302.9	83.56
303.13	95.56
303.36	81.56
303.59	70.56
303.82	82.56
304.051	75.56
304.281	81.56
304.511	84.56
304.741	91.56
304.971	88.56
305.201	84.56
305.431	88.56
305.661	78.56
305.891	83.56
306.121	88.56
306.352	84.56
306.582	92.56
306.812	81.56
307.042	73.56
307.272	80.56
307.502	79.56
307.731	85.56
307.961	97.56
308.191	73.56
308.421	75.56
308.651	81.56
308.881	92.56
309.111	85.56
309.341	75.56
309.571	78.56
309.8	107.56
310.03	84.56
310.26	77.56
310.49	74.56
310.72	84.56
310.949	88.56
311.179	85.56
311.409	86.56
311.639	81.56
311.868	78.56
312.098	73.56
312.328	73.56
312.557	73.56
312.787	88.56
313.017	97.56
313.246	84.56
313.476	91.56
313.706	81.56
313.935	78.56
314.165	80.56
314.394	74.56
314.624	78.56
314.853	81.56
315.083	65.56
315.312	86.56
315.542	84.56
315.771	88.56
316.001	93.56
316.23	76.56
316.46	74.56
316.689	85.56
316.919	88.56
317.148	92.56
317.377	93.56
317.607	86.56
317.836	80.56
318.065	77.56
318.295	72.56
318.524	68.56
318.753	72.56
318.983	73.56
319.212	76.56
319.441	76.56
319.67	83.56
319.9	97.56
320.129	93.56
320.358	66.56
320.587	100.56
320.816	81.56
321.046	91.56
321.275	97.56
321.504	100.56
321.733	78.56
321.962	79.56
322.191	91.56
322.42	95.56
322.649	89.56
322.878	69.56
323.108	76.56
323.337	81.56
323.566	73.56
323.795	79.56
324.024	89.56
324.253	87.56
324.482	83.56
324.71	79.56
324.939	86.56
325.168	83.56
325.397	71.56
325.626	75.56
325.855	96.56
326.084	81.56
326.313	73.56
326.542	78.56
326.77	113.56
326.999	85.56
327.228	72.56
327.457	88.56
327.686	78.56
327.914	88.56
328.143	92.56
328.372	73.56
328.6	87.56
328.829	83.56
329.058	98.56
329.287	85.56
329.515	91.56
329.744	83.56
329.972	94.56
330.201	83.56
330.43	91.56
330.658	79.56
330.887	98.56
331.115	83.56
331.344	88.56
331.572	95.56
331.801	95.56
332.03	84.56
332.258	86.56
332.486	81.56
332.715	83.56
332.943	79.56
333.172	102.56
333.4	88.56
333.629	91.56
333.857	79.56
334.085	93.56
334.314	71.56
334.542	81.56
334.771	97.56
334.999	77.56
335.227	81.56
335.455	98.56
335.684	87.56
335.912	85.56
336.14	85.56
336.369	80.56
336.597	78.56
336.825	83.56
337.053	81.56
337.281	95.56
337.51	78.56
337.738	81.56
337.966	89.56
338.194	96.56
338.422	67.56
338.65	87.56
338.878	82.56
339.106	86.56
339.334	81.56
339.562	84.56
339.79	86.56
340.018	81.56
340.246	84.56
340.474	60.56
340.702	92.56
340.93	79.56
341.158	82.56
341.386	100.56
341.614	102.56
341.842	85.56
342.07	74.56
342.298	87.56
342.526	81.56
342.754	88.56
342.981	87.56
343.209	71.56
343.437	105.56
343.665	83.56
343.893	70.56
344.12	85.56
344.348	82.56
344.576	74.56
344.804	81.56
345.031	86.56
345.259	81.56
345.487	91.56
345.714	70.56
345.942	65.56
346.17	78.56
346.397	72.56
346.625	71.56
346.853	83.56
347.08	78.56
347.308	86.56
347.535	79.56
347.763	96.56
347.99	83.56
348.218	78.56
348.445	82.56
348.673	101.56
348.9	77.56
349.128	78.56
349.355	85.56
349.583	80.56
349.81	87.56
350.037	81.56
350.265	89.56
350.492	78.56
350.72	95.56
350.947	81.56
351.174	96.56
351.402	73.56
351.629	75.56
351.856	78.56
352.083	82.56
352.311	70.56
352.538	82.56
352.765	73.56
352.992	107.56
353.22	77.56
353.447	79.56
353.674	97.56
353.901	92.56
354.128	76.56
354.355	96.56
354.583	81.56
354.81	92.56
355.037	77.56
355.264	82.56
355.491	78.56
355.718	80.56
355.945	89.56
356.172	93.56
356.399	81.56
356.626	83.56
356.853	93.56
357.08	91.56
357.307	94.56
357.534	81.56
357.761	84.56
357.988	76.56
358.215	79.56
358.441	77.56
358.668	79.56
358.895	83.56
359.122	95.56
359.349	80.56
359.576	73.56
359.802	92.56
360.029	85.56
360.256	87.56
360.483	81.56
360.709	103.56
360.936	102.56
361.163	72.56
361.39	76.56
361.616	78.56
361.843	60.56
362.07	82.56
362.296	85.56
362.523	73.56
362.749	83.56
362.976	83.56
363.203	85.56
363.429	72.56
363.656	80.56
363.882	76.56
364.109	86.56
364.335	96.56
364.562	85.56
364.788	81.56
365.015	93.56
365.241	84.56
365.468	81.56
365.694	85.56
365.92	82.56
366.147	91.56
366.373	72.56
366.599	92.56
366.826	88.56
367.052	83.56
367.278	86.56
367.505	82.56
367.731	76.56
367.957	69.56
368.184	82.56
368.41	84.56
368.636	88.56
368.862	72.56
369.089	79.56
369.315	61.56
369.541	80.56
369.767	80.56
369.993	81.56
370.219	81.56
370.445	82.56
370.672	74.56
370.898	99.56
371.124	87.56
371.35	81.56
371.576	91.56
371.802	91.56
372.028	87.56
372.254	87.56
372.48	86.56
372.706	87.56
372.932	80.56
373.158	76.56
373.384	77.56
373.61	92.56
373.835	86.56
374.061	91.56
374.287	101.56
374.513	97.56
374.739	89.56
374.965	73.56
375.191	77.56
375.416	80.56
375.642	92.56
375.868	87.56
376.094	95.56
376.319	93.56
376.545	77.56
376.771	86.56
376.997	84.56
377.222	92.56
377.448	87.56
377.674	87.56
377.899	87.56
378.125	88.56
378.35	72.56
378.576	96.56
378.802	70.56
379.027	73.56
379.253	98.56
379.478	79.56
379.704	93.56
379.929	73.56
380.155	80.56
380.38	88.56
380.606	79.56
380.831	86.56
381.057	79.56
381.282	80.56
381.507	80.56
381.733	78.56
381.958	91.56
382.184	86.56
382.409	78.56
382.634	92.56
382.86	80.56
383.085	84.56
383.31	70.56
383.535	79.56
383.761	75.56
383.986	81.56
384.211	87.56
384.436	78.56
384.662	79.56
384.887	86.56
385.112	75.56
385.337	83.56
385.562	86.56
385.787	77.56
386.013	90.56
386.238	93.56
386.463	78.56
386.688	101.56
386.913	75.56
387.138	80.56
387.363	92.56
387.588	96.56
387.813	86.56
388.038	84.56
388.263	75.56
388.488	80.56
388.713	81.56
388.938	66.56
389.163	79.56
389.387	86.56
389.612	66.56
389.837	86.56
390.062	85.56
390.287	76.56
390.512	100.56
390.736	95.56
390.961	87.56
391.186	73.56
391.411	78.56
391.636	77.56
391.86	98.56
392.085	86.56
392.31	72.56
392.534	83.56
392.759	94.56
392.984	87.56
393.208	102.56
393.433	85.56
393.658	81.56
393.882	78.56
394.107	92.56
394.331	86.56
394.556	100.56
394.78	84.56
395.005	92.56
395.229	85.56
395.454	87.56
395.678	92.56
395.903	89.56
396.127	71.56
396.352	70.56
396.576	65.56
396.801	85.56
397.025	93.56
397.249	84.56
397.474	74.56
397.698	96.56
397.922	91.56
398.147	81.56
398.371	92.56
398.595	94.56
398.82	85.56
399.044	95.56
399.268	88.56
399.492	81.56
399.717	99.56
399.941	91.56
400.165	75.56
400.389	83.56
400.613	77.56
400.837	80.56
401.062	80.56
401.286	89.56
401.51	88.56
401.734	79.56
401.958	89.56
402.182	102.56
402.406	101.56
402.63	94.56
402.854	76.56
403.078	82.56
403.302	85.56
403.526	92.56
403.75	76.56
403.974	102.56
404.198	88.56
404.422	65.56
404.645	85.56
404.869	85.56
405.093	79.56
405.317	85.56
405.541	75.56
405.765	89.56
405.988	86.56
406.212	80.56
406.436	80.56
406.66	85.56
406.883	92.56
407.107	81.56
407.331	81.56
407.555	85.56
407.778	79.56
408.002	75.56
408.226	77.56
408.449	78.56
408.673	74.56
408.896	84.56
409.12	76.56
409.344	84.56
409.567	77.56
409.791	85.56
410.014	85.56
410.238	84.56
410.461	67.56
410.685	77.56
410.908	74.56
411.132	82.56
411.355	84.56
411.578	79.56
411.802	88.56
412.025	78.56
412.249	82.56
412.472	73.56
412.695	79.56
412.919	71.56
413.142	77.56
413.365	78.56
413.589	87.56
413.812	100.56
414.035	84.56
414.258	76.56
414.482	87.56
414.705	80.56
414.928	82.56
415.151	75.56
415.374	74.56
415.597	79.56
415.821	81.56
416.044	94.56
416.267	89.56
416.49	84.56
416.713	75.56
416.936	77.56
417.159	78.56
417.382	69.56
417.605	75.56
417.828	82.56
418.051	84.56
418.274	98.56
418.497	81.56
418.72	98.56
418.943	101.56
419.166	101.56
419.389	93.56
419.611	85.56
419.834	88.56
420.057	82.56
420.28	87.56
420.503	79.56
420.726	75.56
420.948	75.56
421.171	76.56
421.394	80.56
421.617	88.56
421.839	82.56
422.062	87.56
422.285	87.56
422.507	87.56
422.73	85.56
422.953	95.56
423.175	86.56
423.398	86.56
423.621	85.56
423.843	80.56
424.066	84.56
424.288	85.56
424.511	86.56
424.733	83.56
424.956	88.56
425.178	87.56
425.401	84.56
425.623	84.56
425.846	80.56
426.068	94.56
426.291	74.56
426.513	82.56
426.735	91.56
426.958	78.56
427.18	80.56
427.402	76.56
427.625	71.56
427.847	86.56
428.069	83.56
428.292	94.56
428.514	87.56
428.736	93.56
428.958	96.56
429.181	83.56
429.403	88.56
429.625	75.56
429.847	72.56
430.069	76.56
430.292	93.56
430.514	102.56
430.736	77.56
430.958	91.56
431.18	98.56
431.402	79.56
431.624	78.56
431.846	84.56
432.068	79.56
432.29	92.56
432.512	91.56
432.734	72.56
432.956	94.56
433.178	97.56
433.4	93.56
433.622	92.56
433.844	81.56
434.066	78.56
434.287	84.56
434.509	84.56
434.731	82.56
434.953	74.56
435.175	92.56
435.397	77.56
435.618	93.56
435.84	85.56
436.062	97.56
436.284	73.56
436.505	83.56
436.727	69.56
436.949	70.56
437.17	82.56
437.392	86.56
437.614	93.56
437.835	79.56
438.057	89.56
438.278	83.56
438.5	89.56
438.721	83.56
438.943	73.56
439.165	83.56
439.386	87.56
439.608	92.56
439.829	81.56
440.05	90.56
440.272	85.56
440.493	82.56
440.715	85.56
440.936	71.56
441.158	96.56
441.379	75.56
441.6	94.56
441.822	80.56
442.043	68.56
442.264	82.56
442.486	82.56
442.707	81.56
442.928	73.56
443.149	77.56
443.371	82.56
443.592	72.56
443.813	77.56
444.034	95.56
444.255	95.56
444.476	96.56
444.698	87.56
444.919	78.56
445.14	123.56
445.361	113.56
445.582	82.56
445.803	74.56
446.024	73.56
446.245	88.56
446.466	83.56
446.687	65.56
446.908	85.56
447.129	87.56
447.35	99.56
447.571	85.56
447.792	78.56
448.013	80.56
448.234	72.56
448.455	77.56
448.675	84.56
448.896	75.56
449.117	93.56
449.338	92.56
449.559	97.56
449.779	87.56
450	91.56
450.221	93.56
450.442	94.56
450.662	86.56
450.883	99.56
451.104	67.56
451.324	86.56
451.545	65.56
451.766	95.56
451.986	86.56
452.207	80.56
452.428	85.56
452.648	84.56
452.869	78.56
453.089	85.56
453.31	88.56
453.53	69.56
453.751	73.56
453.971	81.56
454.192	82.56
454.412	83.56
454.633	103.56
454.853	83.56
455.073	88.56
455.294	77.56
455.514	83.56
455.734	97.56
455.955	95.56
456.175	94.56
456.395	70.56
456.616	85.56
456.836	81.56
457.056	89.56
457.276	87.56
457.497	65.56
457.717	75.56
457.937	81.56
458.157	77.56
458.377	100.56
458.598	70.56
458.818	82.56
459.038	79.56
459.258	68.56
459.478	82.56
459.698	88.56
459.918	80.56
460.138	79.56
460.358	83.56
460.578	95.56
460.798	89.56
461.018	76.56
461.238	79.56
461.458	83.56
461.678	77.56
461.898	75.56
462.118	78.56
462.338	91.56
462.558	87.56
462.777	84.56
462.997	97.56
463.217	98.56
463.437	78.56
463.657	80.56
463.876	95.56
464.096	84.56
464.316	97.56
464.536	79.56
464.755	67.56
464.975	81.56
465.195	68.56
465.414	65.56
465.634	84.56
465.854	80.56
466.073	85.56
466.293	84.56
466.512	80.56
466.732	75.56
466.951	81.56
467.171	75.56
467.391	84.56
467.61	82.56
467.829	83.56
468.049	81.56
468.268	88.56
468.488	75.56
468.707	86.56
468.927	96.56
469.146	69.56
469.365	91.56
469.585	80.56
469.804	81.56
470.023	73.56
470.243	82.56
470.462	84.56
470.681	94.56
470.901	89.56
471.12	76.56
471.339	89.56
471.558	91.56
471.777	81.56
471.997	70.56
472.216	73.56
472.435	68.56
472.654	78.56
472.873	82.56
473.092	91.56
473.311	85.56
473.53	69.56
473.749	92.56
473.968	79.56
474.187	87.56
474.406	96.56
474.625	95.56
474.844	92.56
475.063	88.56
475.282	94.56
475.501	76.56
475.72	93.56
475.939	82.56
476.158	93.56
476.377	104.56
476.596	75.56
476.814	84.56
477.033	88.56
477.252	79.56
477.471	81.56
477.69	82.56
477.908	100.56
478.127	97.56
478.346	99.56
478.564	100.56
478.783	77.56
479.002	88.56
479.22	87.56
479.439	56.56
479.658	73.56
479.876	92.56
480.095	86.56
480.313	72.56
480.532	70.56
480.751	81.56
480.969	93.56
481.188	91.56
481.406	94.56
481.624	89.56
481.843	72.56
482.061	81.56
482.28	88.56
482.498	77.56
482.717	82.56
482.935	94.56
483.153	96.56
483.372	107.56
483.59	85.56
483.808	82.56
484.027	78.56
484.245	77.56
484.463	76.56
484.681	98.56
484.9	80.56
485.118	88.56
485.336	80.56
485.554	68.56
485.772	84.56
485.99	91.56
486.209	80.56
486.427	95.56
486.645	71.56
486.863	78.56
487.081	76.56
487.299	80.56
487.517	78.56
487.735	91.56
487.953	95.56
488.171	83.56
488.389	76.56
488.607	81.56
488.825	92.56
489.043	91.56
489.261	78.56
489.479	84.56
489.696	85.56
489.914	73.56
490.132	84.56
490.35	104.56
490.568	97.56
490.786	69.56
491.003	89.56
491.221	93.56
491.439	97.56
491.657	87.56
491.874	69.56
492.092	107.56
492.31	93.56
492.527	95.56
492.745	99.56
492.963	107.56
493.18	86.56
493.398	97.56
493.615	86.56
493.833	86.56
494.05	84.56
494.268	96.56
494.485	93.56
494.703	83.56
494.92	99.56
495.138	91.56
495.355	101.56
495.573	86.56
495.79	77.56
496.008	93.56
496.225	79.56
496.442	85.56
496.66	83.56
496.877	99.56
497.094	80.56
497.312	87.56
497.529	94.56
497.746	99.56
497.963	81.56
498.181	86.56
498.398	81.56
498.615	83.56
498.832	84.56
499.049	83.56
499.267	67.56
499.484	85.56
499.701	84.56
499.918	91.56
500.135	93.56
500.352	89.56
500.569	84.56
500.786	86.56
501.003	72.56
501.22	80.56
501.437	80.56
501.654	75.56
501.871	84.56
502.088	96.56
502.305	98.56
502.522	83.56
502.739	80.56
502.956	102.56
503.172	93.56
503.389	83.56
503.606	74.56
503.823	88.56
504.04	91.56
504.256	87.56
504.473	88.56
504.69	86.56
504.907	80.56
505.123	78.56
505.34	92.56
505.557	88.56
505.773	89.56
505.99	75.56
506.207	86.56
506.423	75.56
506.64	70.56
506.856	84.56
507.073	85.56
507.289	96.56
507.506	85.56
507.722	95.56
507.939	94.56
508.155	78.56
508.372	87.56
508.588	83.56
508.805	92.56
509.021	91.56
509.238	96.56
509.454	91.56
509.67	78.56
509.887	75.56
510.103	87.56
510.319	86.56
510.536	93.56
510.752	73.56
510.968	79.56
511.184	78.56
511.401	98.56
511.617	86.56
511.833	79.56
512.049	82.56
512.265	75.56
512.481	81.56
512.698	84.56
512.914	84.56
513.13	93.56
513.346	83.56
513.562	81.56
513.778	77.56
513.994	81.56
514.21	73.56
514.426	86.56
514.642	104.56
514.858	77.56
515.074	86.56
515.29	74.56
515.506	92.56
515.721	94.56
515.937	96.56
516.153	92.56
516.369	88.56
516.585	75.56
516.801	95.56
517.016	90.56
517.232	88.56
517.448	68.56
517.664	61.56
517.879	93.56
518.095	93.56
518.311	76.56
518.527	83.56
518.742	75.56
518.958	82.56
519.173	81.56
519.389	83.56
519.605	75.56
