Data from Alignment_HRD10591_00015.txt Node
Date: Fri Dec 27 14:18:38 EST 2024
User: Yrep
Spectrometer: HR+D1059
Trigger mode: 1
Integration Time (sec): 1.000000E-1
Scans to average: 1
Electric dark correction enabled: true
Nonlinearity correction enabled: false
Boxcar width: 0
XAxis mode: Wavelengths
Number of Pixels in Spectrum: 2048
>>>>>Begin Spectral Data<<<<<
223.165	-6.5
223.4	-6.5
223.635	-6.5
223.869	-29.5
224.104	-18.5
224.338	-2.5
224.573	-14.5
224.808	-23.5
225.042	-1.5
225.277	-9.5
225.511	-6.5
225.746	8.5
225.98	6.5
226.215	0.5
226.449	14.5
226.683	25.5
226.918	23.5
227.152	33.5
227.387	30.5
227.621	42.5
227.856	55.5
228.09	43.5
228.324	56.5
228.559	64.5
228.793	72.5
229.027	55.5
229.262	81.5
229.496	68.5
229.73	76.5
229.964	78.5
230.199	73.5
230.433	70.5
230.667	93.5
230.901	77.5
231.136	72.5
231.37	85.5
231.604	90.5
231.838	98.5
232.072	83.5
232.306	90.5
232.541	86.5
232.775	78.5
233.009	91.5
233.243	83.5
233.477	82.5
233.711	61.5
233.945	83.5
234.179	90.5
234.413	91.5
234.647	76.5
234.881	81.5
235.115	75.5
235.349	73.5
235.583	74.5
235.817	85.5
236.051	90.5
236.285	73.5
236.519	86.5
236.753	83.5
236.987	80.5
237.221	75.5
237.455	83.5
237.689	82.5
237.922	84.5
238.156	72.5
238.39	74.5
238.624	64.5
238.858	79.5
239.091	86.5
239.325	71.5
239.559	70.5
239.793	95.5
240.027	98.5
240.26	84.5
240.494	62.5
240.728	73.5
240.961	72.5
241.195	78.5
241.429	79.5
241.662	75.5
241.896	78.5
242.13	69.5
242.363	77.5
242.597	70.5
242.83	72.5
243.064	86.5
243.298	73.5
243.531	80.5
243.765	87.5
243.998	81.5
244.232	93.5
244.465	79.5
244.699	72.5
244.932	79.5
245.166	69.5
245.399	82.5
245.633	80.5
245.866	78.5
246.099	89.5
246.333	90.5
246.566	65.5
246.8	73.5
247.033	93.5
247.266	74.5
247.5	80.5
247.733	85.5
247.966	84.5
248.2	71.5
248.433	86.5
248.666	65.5
248.899	70.5
249.133	85.5
249.366	76.5
249.599	84.5
249.832	102.5
250.066	90.5
250.299	82.5
250.532	87.5
250.765	71.5
250.998	87.5
251.231	73.5
251.465	69.5
251.698	71.5
251.931	84.5
252.164	87.5
252.397	84.5
252.63	86.5
252.863	82.5
253.096	72.5
253.329	77.5
253.562	67.5
253.795	79.5
254.028	95.5
254.261	77.5
254.494	82.5
254.727	81.5
254.96	75.5
255.193	84.5
255.426	80.5
255.659	75.5
255.892	77.5
256.124	89.5
256.357	79.5
256.59	82.5
256.823	90.5
257.056	80.5
257.289	88.5
257.521	72.5
257.754	71.5
257.987	75.5
258.22	92.5
258.452	75.5
258.685	88.5
258.918	83.5
259.151	79.5
259.383	85.5
259.616	86.5
259.849	75.5
260.081	81.5
260.314	74.5
260.547	79.5
260.779	78.5
261.012	94.5
261.244	75.5
261.477	103.5
261.71	88.5
261.942	77.5
262.175	59.5
262.407	74.5
262.64	82.5
262.872	79.5
263.105	78.5
263.337	89.5
263.57	90.5
263.802	90.5
264.035	80.5
264.267	69.5
264.499	73.5
264.732	66.5
264.964	86.5
265.197	72.5
265.429	76.5
265.661	92.5
265.894	74.5
266.126	87.5
266.358	82.5
266.591	72.5
266.823	83.5
267.055	75.5
267.287	83.5
267.52	69.5
267.752	84.5
267.984	68.5
268.216	80.5
268.448	89.5
268.681	82.5
268.913	87.5
269.145	101.5
269.377	67.5
269.609	94.5
269.841	87.5
270.073	77.5
270.306	86.5
270.538	79.5
270.77	68.5
271.002	70.5
271.234	80.5
271.466	78.5
271.698	86.5
271.93	73.5
272.162	67.5
272.394	90.5
272.626	79.5
272.858	90.5
273.09	98.5
273.322	81.5
273.553	78.5
273.785	93.5
274.017	82.5
274.249	94.5
274.481	79.5
274.713	84.5
274.945	95.5
275.176	101.5
275.408	87.5
275.64	68.5
275.872	72.5
276.104	94.5
276.335	85.5
276.567	87.5
276.799	88.5
277.031	86.5
277.262	83.5
277.494	77.5
277.726	69.5
277.957	87.5
278.189	74.5
278.421	77.5
278.652	85.5
278.884	85.5
279.115	90.5
279.347	87.5
279.579	90.5
279.81	98.5
280.042	81.5
280.273	86.5
280.505	89.5
280.736	79.5
280.968	78.5
281.199	79.5
281.431	93.5
281.662	81.5
281.894	85.5
282.125	70.5
282.356	81.5
282.588	81.5
282.819	82.5
283.051	87.5
283.282	83.5
283.513	86.5
283.745	82.5
283.976	90.5
284.207	87.5
284.439	85.5
284.67	90.5
284.901	80.5
285.132	98.5
285.364	90.5
285.595	82.5
285.826	70.5
286.057	89.5
286.288	70.5
286.52	90.5
286.751	83.5
286.982	75.5
287.213	72.5
287.444	84.5
287.675	90.5
287.906	102.5
288.138	79.5
288.369	71.5
288.6	79.5
288.831	91.5
289.062	90.5
289.293	89.5
289.524	95.5
289.755	83.5
289.986	83.5
290.217	82.5
290.448	94.5
290.679	86.5
290.91	74.5
291.141	81.5
291.371	93.5
291.602	88.5
291.833	89.5
292.064	78.5
292.295	78.5
292.526	83.5
292.757	97.5
292.987	93.5
293.218	88.5
293.449	93.5
293.68	82.5
293.91	84.5
294.141	94.5
294.372	78.5
294.603	100.5
294.833	93.5
295.064	89.5
295.295	86.5
295.525	84.5
295.756	86.5
295.987	103.5
296.217	75.5
296.448	88.5
296.679	91.5
296.909	75.5
297.14	68.5
297.37	81.5
297.601	85.5
297.831	85.5
298.062	93.5
298.292	84.5
298.523	81.5
298.753	86.5
298.984	81.5
299.214	94.5
299.445	85.5
299.675	90.5
299.905	86.5
300.136	83.5
300.366	91.5
300.597	71.5
300.827	81.5
301.057	86.5
301.288	87.5
301.518	80.5
301.748	78.5
301.979	104.5
302.209	99.5
302.439	79.5
302.669	95.5
302.9	82.5
303.13	93.5
303.36	90.5
303.59	96.5
303.82	82.5
304.051	81.5
304.281	78.5
304.511	85.5
304.741	91.5
304.971	75.5
305.201	83.5
305.431	81.5
305.661	94.5
305.891	80.5
306.121	102.5
306.352	68.5
306.582	80.5
306.812	83.5
307.042	66.5
307.272	85.5
307.502	101.5
307.731	86.5
307.961	84.5
308.191	88.5
308.421	79.5
308.651	80.5
308.881	97.5
309.111	85.5
309.341	99.5
309.571	77.5
309.8	87.5
310.03	83.5
310.26	83.5
310.49	87.5
310.72	88.5
310.949	93.5
311.179	77.5
311.409	79.5
311.639	75.5
311.868	84.5
312.098	95.5
312.328	96.5
312.557	94.5
312.787	72.5
313.017	89.5
313.246	87.5
313.476	98.5
313.706	82.5
313.935	91.5
314.165	101.5
314.394	99.5
314.624	83.5
314.853	85.5
315.083	87.5
315.312	91.5
315.542	93.5
315.771	82.5
316.001	88.5
316.23	77.5
316.46	84.5
316.689	83.5
316.919	85.5
317.148	76.5
317.377	94.5
317.607	97.5
317.836	94.5
318.065	89.5
318.295	85.5
318.524	83.5
318.753	87.5
318.983	96.5
319.212	95.5
319.441	86.5
319.67	112.5
319.9	87.5
320.129	86.5
320.358	89.5
320.587	80.5
320.816	91.5
321.046	85.5
321.275	83.5
321.504	78.5
321.733	97.5
321.962	95.5
322.191	76.5
322.42	88.5
322.649	95.5
322.878	79.5
323.108	81.5
323.337	72.5
323.566	81.5
323.795	75.5
324.024	94.5
324.253	90.5
324.482	95.5
324.71	89.5
324.939	103.5
325.168	86.5
325.397	93.5
325.626	90.5
325.855	75.5
326.084	69.5
326.313	84.5
326.542	80.5
326.77	91.5
326.999	82.5
327.228	81.5
327.457	84.5
327.686	78.5
327.914	96.5
328.143	87.5
328.372	73.5
328.6	72.5
328.829	94.5
329.058	80.5
329.287	87.5
329.515	81.5
329.744	92.5
329.972	84.5
330.201	78.5
330.43	79.5
330.658	78.5
330.887	77.5
331.115	83.5
331.344	89.5
331.572	83.5
331.801	85.5
332.03	85.5
332.258	96.5
332.486	77.5
332.715	85.5
332.943	86.5
333.172	90.5
333.4	75.5
333.629	94.5
333.857	86.5
334.085	77.5
334.314	97.5
334.542	83.5
334.771	79.5
334.999	72.5
335.227	98.5
335.455	82.5
335.684	81.5
335.912	89.5
336.14	94.5
336.369	89.5
336.597	79.5
336.825	97.5
337.053	89.5
337.281	75.5
337.51	87.5
337.738	74.5
337.966	88.5
338.194	79.5
338.422	77.5
338.65	90.5
338.878	88.5
339.106	87.5
339.334	87.5
339.562	89.5
339.79	90.5
340.018	88.5
340.246	82.5
340.474	88.5
340.702	87.5
340.93	96.5
341.158	97.5
341.386	86.5
341.614	71.5
341.842	81.5
342.07	79.5
342.298	104.5
342.526	84.5
342.754	93.5
342.981	87.5
343.209	80.5
343.437	87.5
343.665	82.5
343.893	99.5
344.12	90.5
344.348	98.5
344.576	94.5
344.804	80.5
345.031	81.5
345.259	78.5
345.487	87.5
345.714	86.5
345.942	79.5
346.17	85.5
346.397	76.5
346.625	83.5
346.853	96.5
347.08	97.5
347.308	96.5
347.535	87.5
347.763	80.5
347.99	93.5
348.218	82.5
348.445	74.5
348.673	90.5
348.9	86.5
349.128	89.5
349.355	92.5
349.583	89.5
349.81	82.5
350.037	80.5
350.265	102.5
350.492	99.5
350.72	80.5
350.947	87.5
351.174	81.5
351.402	84.5
351.629	74.5
351.856	92.5
352.083	94.5
352.311	80.5
352.538	83.5
352.765	84.5
352.992	97.5
353.22	87.5
353.447	81.5
353.674	79.5
353.901	86.5
354.128	77.5
354.355	80.5
354.583	79.5
354.81	75.5
355.037	81.5
355.264	83.5
355.491	78.5
355.718	73.5
355.945	76.5
356.172	87.5
356.399	78.5
356.626	83.5
356.853	84.5
357.08	103.5
357.307	70.5
357.534	91.5
357.761	91.5
357.988	84.5
358.215	98.5
358.441	83.5
358.668	75.5
358.895	79.5
359.122	85.5
359.349	92.5
359.576	85.5
359.802	93.5
360.029	73.5
360.256	90.5
360.483	86.5
360.709	82.5
360.936	93.5
361.163	80.5
361.39	70.5
361.616	69.5
361.843	95.5
362.07	87.5
362.296	83.5
362.523	83.5
362.749	82.5
362.976	89.5
363.203	97.5
363.429	85.5
363.656	92.5
363.882	97.5
364.109	78.5
364.335	77.5
364.562	97.5
364.788	96.5
365.015	85.5
365.241	72.5
365.468	81.5
365.694	84.5
365.92	74.5
366.147	90.5
366.373	90.5
366.599	88.5
366.826	96.5
367.052	78.5
367.278	81.5
367.505	80.5
367.731	99.5
367.957	91.5
368.184	79.5
368.41	87.5
368.636	82.5
368.862	76.5
369.089	88.5
369.315	82.5
369.541	79.5
369.767	86.5
369.993	92.5
370.219	75.5
370.445	89.5
370.672	66.5
370.898	76.5
371.124	105.5
371.35	76.5
371.576	91.5
371.802	78.5
372.028	93.5
372.254	99.5
372.48	90.5
372.706	93.5
372.932	73.5
373.158	85.5
373.384	72.5
373.61	90.5
373.835	75.5
374.061	74.5
374.287	82.5
374.513	94.5
374.739	93.5
374.965	90.5
375.191	77.5
375.416	101.5
375.642	88.5
375.868	93.5
376.094	75.5
376.319	93.5
376.545	88.5
376.771	73.5
376.997	89.5
377.222	89.5
377.448	83.5
377.674	93.5
377.899	78.5
378.125	65.5
378.35	88.5
378.576	91.5
378.802	73.5
379.027	74.5
379.253	71.5
379.478	85.5
379.704	81.5
379.929	89.5
380.155	86.5
380.38	98.5
380.606	84.5
380.831	83.5
381.057	90.5
381.282	87.5
381.507	76.5
381.733	81.5
381.958	76.5
382.184	100.5
382.409	75.5
382.634	89.5
382.86	85.5
383.085	97.5
383.31	65.5
383.535	77.5
383.761	87.5
383.986	86.5
384.211	93.5
384.436	69.5
384.662	81.5
384.887	89.5
385.112	83.5
385.337	73.5
385.562	92.5
385.787	89.5
386.013	86.5
386.238	89.5
386.463	89.5
386.688	100.5
386.913	84.5
387.138	89.5
387.363	83.5
387.588	81.5
387.813	81.5
388.038	77.5
388.263	81.5
388.488	89.5
388.713	86.5
388.938	102.5
389.163	77.5
389.387	77.5
389.612	93.5
389.837	87.5
390.062	96.5
390.287	83.5
390.512	77.5
390.736	82.5
390.961	74.5
391.186	77.5
391.411	81.5
391.636	83.5
391.86	70.5
392.085	85.5
392.31	71.5
392.534	76.5
392.759	83.5
392.984	89.5
393.208	96.5
393.433	94.5
393.658	99.5
393.882	65.5
394.107	85.5
394.331	75.5
394.556	73.5
394.78	76.5
395.005	82.5
395.229	97.5
395.454	92.5
395.678	90.5
395.903	90.5
396.127	86.5
396.352	81.5
396.576	80.5
396.801	94.5
397.025	93.5
397.249	97.5
397.474	94.5
397.698	81.5
397.922	91.5
398.147	88.5
398.371	75.5
398.595	74.5
398.82	86.5
399.044	83.5
399.268	94.5
399.492	85.5
399.717	94.5
399.941	90.5
400.165	87.5
400.389	80.5
400.613	86.5
400.837	71.5
401.062	77.5
401.286	80.5
401.51	89.5
401.734	79.5
401.958	83.5
402.182	87.5
402.406	95.5
402.63	86.5
402.854	95.5
403.078	81.5
403.302	88.5
403.526	106.5
403.75	74.5
403.974	97.5
404.198	81.5
404.422	83.5
404.645	88.5
404.869	75.5
405.093	100.5
405.317	86.5
405.541	88.5
405.765	82.5
405.988	85.5
406.212	86.5
406.436	94.5
406.66	73.5
406.883	87.5
407.107	95.5
407.331	89.5
407.555	93.5
407.778	87.5
408.002	94.5
408.226	88.5
408.449	90.5
408.673	75.5
408.896	83.5
409.12	88.5
409.344	82.5
409.567	85.5
409.791	78.5
410.014	89.5
410.238	73.5
410.461	88.5
410.685	87.5
410.908	81.5
411.132	95.5
411.355	86.5
411.578	86.5
411.802	84.5
412.025	75.5
412.249	84.5
412.472	91.5
412.695	74.5
412.919	87.5
413.142	74.5
413.365	72.5
413.589	83.5
413.812	82.5
414.035	90.5
414.258	84.5
414.482	82.5
414.705	75.5
414.928	81.5
415.151	92.5
415.374	83.5
415.597	88.5
415.821	89.5
416.044	71.5
416.267	98.5
416.49	86.5
416.713	82.5
416.936	99.5
417.159	83.5
417.382	69.5
417.605	91.5
417.828	98.5
418.051	85.5
418.274	89.5
418.497	78.5
418.72	85.5
418.943	86.5
419.166	81.5
419.389	79.5
419.611	87.5
419.834	86.5
420.057	85.5
420.28	79.5
420.503	79.5
420.726	79.5
420.948	94.5
421.171	76.5
421.394	73.5
421.617	83.5
421.839	102.5
422.062	76.5
422.285	96.5
422.507	85.5
422.73	82.5
422.953	97.5
423.175	77.5
423.398	77.5
423.621	88.5
423.843	78.5
424.066	77.5
424.288	92.5
424.511	93.5
424.733	87.5
424.956	86.5
425.178	85.5
425.401	77.5
425.623	82.5
425.846	77.5
426.068	82.5
426.291	78.5
426.513	83.5
426.735	84.5
426.958	93.5
427.18	102.5
427.402	90.5
427.625	85.5
427.847	83.5
428.069	71.5
428.292	91.5
428.514	96.5
428.736	89.5
428.958	89.5
429.181	99.5
429.403	95.5
429.625	89.5
429.847	85.5
430.069	87.5
430.292	97.5
430.514	86.5
430.736	100.5
430.958	98.5
431.18	82.5
431.402	86.5
431.624	93.5
431.846	73.5
432.068	96.5
432.29	81.5
432.512	93.5
432.734	90.5
432.956	93.5
433.178	91.5
433.4	90.5
433.622	89.5
433.844	94.5
434.066	79.5
434.287	84.5
434.509	84.5
434.731	79.5
434.953	88.5
435.175	84.5
435.397	84.5
435.618	85.5
435.84	80.5
436.062	83.5
436.284	86.5
436.505	79.5
436.727	84.5
436.949	92.5
437.17	79.5
437.392	85.5
437.614	79.5
437.835	87.5
438.057	80.5
438.278	83.5
438.5	79.5
438.721	93.5
438.943	73.5
439.165	91.5
439.386	82.5
439.608	95.5
439.829	95.5
440.05	92.5
440.272	90.5
440.493	97.5
440.715	84.5
440.936	80.5
441.158	85.5
441.379	79.5
441.6	87.5
441.822	93.5
442.043	96.5
442.264	78.5
442.486	83.5
442.707	76.5
442.928	79.5
443.149	85.5
443.371	80.5
443.592	81.5
443.813	89.5
444.034	96.5
444.255	97.5
444.476	94.5
444.698	88.5
444.919	88.5
445.14	153.5
445.361	121.5
445.582	89.5
445.803	92.5
446.024	79.5
446.245	101.5
446.466	75.5
446.687	86.5
446.908	87.5
447.129	95.5
447.35	98.5
447.571	85.5
447.792	82.5
448.013	78.5
448.234	78.5
448.455	85.5
448.675	90.5
448.896	81.5
449.117	85.5
449.338	78.5
449.559	86.5
449.779	101.5
450	89.5
450.221	100.5
450.442	98.5
450.662	93.5
450.883	81.5
451.104	74.5
451.324	87.5
451.545	84.5
451.766	82.5
451.986	86.5
452.207	101.5
452.428	101.5
452.648	78.5
452.869	93.5
453.089	81.5
453.31	90.5
453.53	81.5
453.751	110.5
453.971	95.5
454.192	89.5
454.412	85.5
454.633	101.5
454.853	71.5
455.073	88.5
455.294	90.5
455.514	102.5
455.734	70.5
455.955	90.5
456.175	85.5
456.395	81.5
456.616	83.5
456.836	83.5
457.056	87.5
457.276	63.5
457.497	86.5
457.717	95.5
457.937	77.5
458.157	85.5
458.377	81.5
458.598	83.5
458.818	86.5
459.038	87.5
459.258	90.5
459.478	87.5
459.698	81.5
459.918	88.5
460.138	90.5
460.358	81.5
460.578	87.5
460.798	87.5
461.018	84.5
461.238	86.5
461.458	78.5
461.678	87.5
461.898	72.5
462.118	93.5
462.338	86.5
462.558	87.5
462.777	90.5
462.997	81.5
463.217	75.5
463.437	79.5
463.657	82.5
463.876	90.5
464.096	87.5
464.316	101.5
464.536	88.5
464.755	75.5
464.975	82.5
465.195	85.5
465.414	83.5
465.634	80.5
465.854	96.5
466.073	92.5
466.293	82.5
466.512	89.5
466.732	91.5
466.951	81.5
467.171	77.5
467.391	79.5
467.61	91.5
467.829	85.5
468.049	77.5
468.268	87.5
468.488	86.5
468.707	82.5
468.927	89.5
469.146	86.5
469.365	92.5
469.585	91.5
469.804	90.5
470.023	77.5
470.243	87.5
470.462	89.5
470.681	88.5
470.901	100.5
471.12	80.5
471.339	72.5
471.558	81.5
471.777	80.5
471.997	84.5
472.216	96.5
472.435	78.5
472.654	99.5
472.873	83.5
473.092	69.5
473.311	77.5
473.53	88.5
473.749	85.5
473.968	95.5
474.187	82.5
474.406	94.5
474.625	84.5
474.844	83.5
475.063	96.5
475.282	101.5
475.501	95.5
475.72	88.5
475.939	105.5
476.158	71.5
476.377	81.5
476.596	95.5
476.814	93.5
477.033	88.5
477.252	107.5
477.471	89.5
477.69	85.5
477.908	88.5
478.127	97.5
478.346	100.5
478.564	82.5
478.783	82.5
479.002	78.5
479.22	87.5
479.439	97.5
479.658	103.5
479.876	88.5
480.095	89.5
480.313	85.5
480.532	94.5
480.751	89.5
480.969	87.5
481.188	82.5
481.406	97.5
481.624	87.5
481.843	90.5
482.061	78.5
482.28	82.5
482.498	78.5
482.717	70.5
482.935	81.5
483.153	100.5
483.372	91.5
483.59	93.5
483.808	91.5
484.027	89.5
484.245	90.5
484.463	93.5
484.681	83.5
484.9	77.5
485.118	93.5
485.336	69.5
485.554	93.5
485.772	87.5
485.99	82.5
486.209	82.5
486.427	75.5
486.645	82.5
486.863	96.5
487.081	109.5
487.299	91.5
487.517	85.5
487.735	93.5
487.953	91.5
488.171	96.5
488.389	75.5
488.607	81.5
488.825	73.5
489.043	82.5
489.261	96.5
489.479	75.5
489.696	93.5
489.914	86.5
490.132	91.5
490.35	83.5
490.568	84.5
490.786	87.5
491.003	82.5
491.221	100.5
491.439	99.5
491.657	96.5
491.874	80.5
492.092	89.5
492.31	81.5
492.527	86.5
492.745	78.5
492.963	96.5
493.18	83.5
493.398	90.5
493.615	93.5
493.833	87.5
494.05	105.5
494.268	95.5
494.485	93.5
494.703	102.5
494.92	82.5
495.138	93.5
495.355	87.5
495.573	96.5
495.79	87.5
496.008	93.5
496.225	104.5
496.442	104.5
496.66	90.5
496.877	98.5
497.094	93.5
497.312	93.5
497.529	91.5
497.746	95.5
497.963	89.5
498.181	97.5
498.398	90.5
498.615	84.5
498.832	93.5
499.049	89.5
499.267	77.5
499.484	83.5
499.701	93.5
499.918	103.5
500.135	88.5
500.352	87.5
500.569	86.5
500.786	104.5
501.003	103.5
501.22	90.5
501.437	94.5
501.654	86.5
501.871	79.5
502.088	85.5
502.305	93.5
502.522	82.5
502.739	93.5
502.956	99.5
503.172	86.5
503.389	93.5
503.606	77.5
503.823	85.5
504.04	89.5
504.256	79.5
504.473	75.5
504.69	71.5
504.907	86.5
505.123	86.5
505.34	74.5
505.557	87.5
505.773	89.5
505.99	83.5
506.207	85.5
506.423	82.5
506.64	87.5
506.856	90.5
507.073	70.5
507.289	85.5
507.506	91.5
507.722	84.5
507.939	78.5
508.155	95.5
508.372	90.5
508.588	71.5
508.805	82.5
509.021	83.5
509.238	72.5
509.454	85.5
509.67	77.5
509.887	91.5
510.103	95.5
510.319	79.5
510.536	90.5
510.752	83.5
510.968	89.5
511.184	80.5
511.401	85.5
511.617	83.5
511.833	83.5
512.049	95.5
512.265	87.5
512.481	94.5
512.698	91.5
512.914	84.5
513.13	84.5
513.346	89.5
513.562	83.5
513.778	91.5
513.994	102.5
514.21	88.5
514.426	97.5
514.642	88.5
514.858	65.5
515.074	76.5
515.29	91.5
515.506	88.5
515.721	78.5
515.937	91.5
516.153	84.5
516.369	86.5
516.585	80.5
516.801	85.5
517.016	73.5
517.232	77.5
517.448	81.5
517.664	79.5
517.879	78.5
518.095	101.5
518.311	86.5
518.527	95.5
518.742	86.5
518.958	80.5
519.173	81.5
519.389	87.5
519.605	90.5
519.82	94.5
520.036	85.5
520.251	90.5
520.467	85.5
520.682	78.5
520.898	86.5
521.113	103.5
521.329	87.5
521.544	93.5
521.76	88.5
521.975	77.5
522.19	102.5
522.406	92.5
522.621	80.5
522.836	75.5
523.052	99.5
523.267	83.5
523.482	63.5
523.698	69.5
523.913	84.5
524.128	95.5
524.343	94.5
524.559	96.5
524.774	86.5
524.989	91.5
525.204	97.5
525.419	82.5
525.634	86.5
525.849	88.5
526.064	96.5
526.28	96.5
526.495	100.5
526.71	75.5
526.925	77.5
527.14	88.5
527.355	79.5
527.57	72.5
527.785	80.5
527.999	85.5
528.214	95.5
528.429	88.5
528.644	94.5
528.859	76.5
529.074	101.5
529.289	78.5
529.503	88.5
529.718	71.5
529.933	88.5
530.148	69.5
530.363	83.5
530.577	79.5
530.792	94.5
531.007	87.5
531.221	85.5
531.436	77.5
531.651	79.5
531.865	82.5
532.08	92.5
532.295	69.5
532.509	85.5
532.724	90.5
532.938	81.5
533.153	97.5
533.367	77.5
533.582	83.5
533.796	72.5
534.011	79.5
534.225	89.5
534.44	89.5
534.654	96.5
534.868	84.5
535.083	88.5
535.297	88.5
535.511	99.5
535.726	95.5
535.94	75.5
536.154	89.5
536.369	92.5
536.583	81.5
536.797	77.5
537.011	82.5
537.225	75.5
537.44	83.5
537.654	80.5
537.868	97.5
538.082	88.5
538.296	101.5
538.51	91.5
538.724	85.5
538.938	82.5
539.153	99.5
539.367	100.5
539.581	100.5
539.795	95.5
