Data from Alignment_HRD10591_00002.txt Node
Date: Fri Dec 27 14:18:25 EST 2024
User: Yrep
Spectrometer: HR+D1059
Trigger mode: 1
Integration Time (sec): 1.000000E-1
Scans to average: 1
Electric dark correction enabled: true
Nonlinearity correction enabled: false
Boxcar width: 0
XAxis mode: Wavelengths
Number of Pixels in Spectrum: 2048
>>>>>Begin Spectral Data<<<<<
223.165	-18.56
223.4	-18.56
223.635	-18.56
223.869	-13.56
224.104	-13.56
224.338	-13.56
224.573	-21.56
224.808	-18.56
225.042	3.44
225.277	-3.56
225.511	-3.56
225.746	1.44
225.98	6.44
226.215	6.44
226.449	14.44
226.683	14.44
226.918	27.44
227.152	32.44
227.387	42.44
227.621	27.44
227.856	29.44
228.09	36.44
228.324	49.44
228.559	47.44
228.793	51.44
229.027	52.44
229.262	67.44
229.496	70.44
229.73	58.44
229.964	70.44
230.199	80.44
230.433	66.44
230.667	60.44
230.901	68.44
231.136	77.44
231.37	78.44
231.604	71.44
231.838	73.44
232.072	72.44
232.306	73.44
232.541	83.44
232.775	92.44
233.009	70.44
233.243	64.44
233.477	75.44
233.711	71.44
233.945	73.44
234.179	82.44
234.413	76.44
234.647	85.44
234.881	63.44
235.115	70.44
235.349	80.44
235.583	61.44
235.817	74.44
236.051	72.44
236.285	71.44
236.519	63.44
236.753	72.44
236.987	77.44
237.221	81.44
237.455	79.44
237.689	84.44
237.922	71.44
238.156	74.44
238.39	67.44
238.624	63.44
238.858	82.44
239.091	67.44
239.325	75.44
239.559	71.44
239.793	81.44
240.027	84.44
240.26	57.44
240.494	70.44
240.728	71.44
240.961	68.44
241.195	73.44
241.429	59.44
241.662	73.44
241.896	74.44
242.13	66.44
242.363	59.44
242.597	75.44
242.83	76.44
243.064	78.44
243.298	59.44
243.531	69.44
243.765	57.44
243.998	64.44
244.232	67.44
244.465	80.44
244.699	72.44
244.932	82.44
245.166	65.44
245.399	76.44
245.633	64.44
245.866	78.44
246.099	72.44
246.333	88.44
246.566	81.44
246.8	83.44
247.033	73.44
247.266	75.44
247.5	67.44
247.733	76.44
247.966	83.44
248.2	79.44
248.433	75.44
248.666	71.44
248.899	57.44
249.133	76.44
249.366	79.44
249.599	87.44
249.832	76.44
250.066	81.44
250.299	81.44
250.532	78.44
250.765	71.44
250.998	77.44
251.231	67.44
251.465	69.44
251.698	59.44
251.931	75.44
252.164	65.44
252.397	75.44
252.63	80.44
252.863	70.44
253.096	79.44
253.329	80.44
253.562	92.44
253.795	83.44
254.028	73.44
254.261	75.44
254.494	66.44
254.727	72.44
254.96	78.44
255.193	75.44
255.426	68.44
255.659	72.44
255.892	68.44
256.124	73.44
256.357	77.44
256.59	79.44
256.823	90.44
257.056	66.44
257.289	75.44
257.521	66.44
257.754	82.44
257.987	70.44
258.22	69.44
258.452	76.44
258.685	70.44
258.918	80.44
259.151	86.44
259.383	75.44
259.616	80.44
259.849	84.44
260.081	81.44
260.314	95.44
260.547	82.44
260.779	73.44
261.012	68.44
261.244	78.44
261.477	77.44
261.71	80.44
261.942	69.44
262.175	90.44
262.407	72.44
262.64	81.44
262.872	76.44
263.105	78.44
263.337	74.44
263.57	71.44
263.802	83.44
264.035	82.44
264.267	84.44
264.499	72.44
264.732	77.44
264.964	80.44
265.197	72.44
265.429	64.44
265.661	72.44
265.894	76.44
266.126	92.44
266.358	81.44
266.591	83.44
266.823	73.44
267.055	65.44
267.287	79.44
267.52	74.44
267.752	77.44
267.984	78.44
268.216	83.44
268.448	76.44
268.681	81.44
268.913	69.44
269.145	75.44
269.377	88.44
269.609	64.44
269.841	76.44
270.073	83.44
270.306	72.44
270.538	81.44
270.77	66.44
271.002	82.44
271.234	75.44
271.466	76.44
271.698	75.44
271.93	84.44
272.162	72.44
272.394	77.44
272.626	80.44
272.858	71.44
273.09	90.44
273.322	102.44
273.553	74.44
273.785	74.44
274.017	75.44
274.249	65.44
274.481	72.44
274.713	81.44
274.945	72.44
275.176	86.44
275.408	92.44
275.64	86.44
275.872	88.44
276.104	82.44
276.335	70.44
276.567	74.44
276.799	74.44
277.031	71.44
277.262	82.44
277.494	79.44
277.726	74.44
277.957	76.44
278.189	83.44
278.421	77.44
278.652	80.44
278.884	68.44
279.115	90.44
279.347	74.44
279.579	88.44
279.81	86.44
280.042	75.44
280.273	80.44
280.505	83.44
280.736	69.44
280.968	82.44
281.199	83.44
281.431	85.44
281.662	78.44
281.894	68.44
282.125	89.44
282.356	64.44
282.588	77.44
282.819	83.44
283.051	70.44
283.282	76.44
283.513	84.44
283.745	80.44
283.976	77.44
284.207	78.44
284.439	77.44
284.67	77.44
284.901	87.44
285.132	91.44
285.364	83.44
285.595	72.44
285.826	75.44
286.057	94.44
286.288	77.44
286.52	64.44
286.751	80.44
286.982	78.44
287.213	71.44
287.444	74.44
287.675	78.44
287.906	87.44
288.138	80.44
288.369	81.44
288.6	90.44
288.831	75.44
289.062	85.44
289.293	91.44
289.524	74.44
289.755	84.44
289.986	75.44
290.217	88.44
290.448	89.44
290.679	78.44
290.91	88.44
291.141	88.44
291.371	77.44
291.602	62.44
291.833	81.44
292.064	79.44
292.295	87.44
292.526	83.44
292.757	73.44
292.987	73.44
293.218	87.44
293.449	78.44
293.68	85.44
293.91	66.44
294.141	80.44
294.372	79.44
294.603	72.44
294.833	74.44
295.064	87.44
295.295	76.44
295.525	80.44
295.756	84.44
295.987	95.44
296.217	89.44
296.448	75.44
296.679	77.44
296.909	92.44
297.14	84.44
297.37	82.44
297.601	70.44
297.831	77.44
298.062	71.44
298.292	88.44
298.523	78.44
298.753	82.44
298.984	71.44
299.214	64.44
299.445	82.44
299.675	87.44
299.905	71.44
300.136	68.44
300.366	64.44
300.597	67.44
300.827	77.44
301.057	86.44
301.288	78.44
301.518	78.44
301.748	92.44
301.979	95.44
302.209	90.44
302.439	77.44
302.669	70.44
302.9	87.44
303.13	80.44
303.36	73.44
303.59	69.44
303.82	77.44
304.051	83.44
304.281	76.44
304.511	90.44
304.741	83.44
304.971	83.44
305.201	66.44
305.431	81.44
305.661	79.44
305.891	81.44
306.121	76.44
306.352	80.44
306.582	83.44
306.812	72.44
307.042	71.44
307.272	60.44
307.502	71.44
307.731	88.44
307.961	72.44
308.191	68.44
308.421	80.44
308.651	86.44
308.881	76.44
309.111	74.44
309.341	79.44
309.571	83.44
309.8	68.44
310.03	80.44
310.26	71.44
310.49	72.44
310.72	62.44
310.949	74.44
311.179	76.44
311.409	77.44
311.639	86.44
311.868	76.44
312.098	82.44
312.328	79.44
312.557	81.44
312.787	76.44
313.017	82.44
313.246	82.44
313.476	84.44
313.706	82.44
313.935	75.44
314.165	81.44
314.394	77.44
314.624	87.44
314.853	84.44
315.083	71.44
315.312	87.44
315.542	78.44
315.771	88.44
316.001	81.44
316.23	83.44
316.46	74.44
316.689	86.44
316.919	81.44
317.148	76.44
317.377	79.44
317.607	72.44
317.836	80.44
318.065	91.44
318.295	75.44
318.524	86.44
318.753	76.44
318.983	74.44
319.212	76.44
319.441	78.44
319.67	72.44
319.9	73.44
320.129	88.44
320.358	86.44
320.587	84.44
320.816	73.44
321.046	86.44
321.275	86.44
321.504	89.44
321.733	75.44
321.962	84.44
322.191	84.44
322.42	90.44
322.649	82.44
322.878	94.44
323.108	84.44
323.337	80.44
323.566	81.44
323.795	71.44
324.024	82.44
324.253	67.44
324.482	75.44
324.71	92.44
324.939	77.44
325.168	91.44
325.397	75.44
325.626	70.44
325.855	73.44
326.084	90.44
326.313	76.44
326.542	78.44
326.77	78.44
326.999	79.44
327.228	82.44
327.457	100.44
327.686	86.44
327.914	79.44
328.143	79.44
328.372	74.44
328.6	91.44
328.829	81.44
329.058	85.44
329.287	79.44
329.515	81.44
329.744	90.44
329.972	81.44
330.201	78.44
330.43	80.44
330.658	69.44
330.887	80.44
331.115	80.44
331.344	69.44
331.572	76.44
331.801	65.44
332.03	83.44
332.258	83.44
332.486	69.44
332.715	71.44
332.943	72.44
333.172	76.44
333.4	82.44
333.629	97.44
333.857	72.44
334.085	80.44
334.314	87.44
334.542	78.44
334.771	79.44
334.999	79.44
335.227	74.44
335.455	71.44
335.684	73.44
335.912	83.44
336.14	84.44
336.369	63.44
336.597	84.44
336.825	72.44
337.053	79.44
337.281	81.44
337.51	68.44
337.738	82.44
337.966	82.44
338.194	78.44
338.422	85.44
338.65	86.44
338.878	90.44
339.106	73.44
339.334	94.44
339.562	82.44
339.79	69.44
340.018	62.44
340.246	82.44
340.474	90.44
340.702	89.44
340.93	87.44
341.158	78.44
341.386	68.44
341.614	72.44
341.842	82.44
342.07	72.44
342.298	87.44
342.526	81.44
342.754	68.44
342.981	79.44
343.209	79.44
343.437	83.44
343.665	75.44
343.893	75.44
344.12	83.44
344.348	87.44
344.576	80.44
344.804	82.44
345.031	95.44
345.259	95.44
345.487	78.44
345.714	69.44
345.942	85.44
346.17	79.44
346.397	82.44
346.625	76.44
346.853	87.44
347.08	83.44
347.308	87.44
347.535	86.44
347.763	76.44
347.99	76.44
348.218	85.44
348.445	68.44
348.673	84.44
348.9	64.44
349.128	90.44
349.355	95.44
349.583	79.44
349.81	80.44
350.037	69.44
350.265	67.44
350.492	66.44
350.72	76.44
350.947	74.44
351.174	78.44
351.402	77.44
351.629	87.44
351.856	80.44
352.083	72.44
352.311	84.44
352.538	77.44
352.765	92.44
352.992	88.44
353.22	80.44
353.447	84.44
353.674	90.44
353.901	79.44
354.128	76.44
354.355	70.44
354.583	78.44
354.81	100.44
355.037	86.44
355.264	74.44
355.491	96.44
355.718	67.44
355.945	87.44
356.172	80.44
356.399	86.44
356.626	69.44
356.853	67.44
357.08	75.44
357.307	91.44
357.534	76.44
357.761	70.44
357.988	83.44
358.215	96.44
358.441	66.44
358.668	75.44
358.895	76.44
359.122	77.44
359.349	94.44
359.576	68.44
359.802	64.44
360.029	77.44
360.256	83.44
360.483	89.44
360.709	72.44
360.936	86.44
361.163	78.44
361.39	77.44
361.616	64.44
361.843	68.44
362.07	89.44
362.296	72.44
362.523	72.44
362.749	78.44
362.976	87.44
363.203	97.44
363.429	73.44
363.656	75.44
363.882	76.44
364.109	73.44
364.335	79.44
364.562	74.44
364.788	74.44
365.015	84.44
365.241	77.44
365.468	76.44
365.694	88.44
365.92	81.44
366.147	79.44
366.373	78.44
366.599	74.44
366.826	74.44
367.052	77.44
367.278	79.44
367.505	88.44
367.731	91.44
367.957	74.44
368.184	68.44
368.41	76.44
368.636	71.44
368.862	89.44
369.089	75.44
369.315	80.44
369.541	68.44
369.767	81.44
369.993	81.44
370.219	82.44
370.445	72.44
370.672	88.44
370.898	90.44
371.124	72.44
371.35	81.44
371.576	62.44
371.802	70.44
372.028	70.44
372.254	88.44
372.48	88.44
372.706	82.44
372.932	80.44
373.158	82.44
373.384	76.44
373.61	78.44
373.835	74.44
374.061	67.44
374.287	71.44
374.513	79.44
374.739	74.44
374.965	77.44
375.191	69.44
375.416	87.44
375.642	75.44
375.868	80.44
376.094	67.44
376.319	76.44
376.545	84.44
376.771	79.44
376.997	77.44
377.222	78.44
377.448	69.44
377.674	74.44
377.899	88.44
378.125	57.44
378.35	75.44
378.576	81.44
378.802	90.44
379.027	87.44
379.253	76.44
379.478	71.44
379.704	72.44
379.929	83.44
380.155	66.44
380.38	81.44
380.606	83.44
380.831	64.44
381.057	63.44
381.282	79.44
381.507	93.44
381.733	79.44
381.958	71.44
382.184	67.44
382.409	88.44
382.634	79.44
382.86	83.44
383.085	73.44
383.31	64.44
383.535	69.44
383.761	77.44
383.986	78.44
384.211	76.44
384.436	71.44
384.662	76.44
384.887	75.44
385.112	83.44
385.337	85.44
385.562	73.44
385.787	77.44
386.013	61.44
386.238	77.44
386.463	91.44
386.688	86.44
386.913	92.44
387.138	78.44
387.363	70.44
387.588	69.44
387.813	71.44
388.038	98.44
388.263	86.44
388.488	73.44
388.713	71.44
388.938	75.44
389.163	64.44
389.387	74.44
389.612	68.44
389.837	61.44
390.062	81.44
390.287	73.44
390.512	81.44
390.736	95.44
390.961	74.44
391.186	74.44
391.411	73.44
391.636	88.44
391.86	80.44
392.085	89.44
392.31	82.44
392.534	83.44
392.759	70.44
392.984	75.44
393.208	86.44
393.433	81.44
393.658	87.44
393.882	76.44
394.107	75.44
394.331	84.44
394.556	73.44
394.78	77.44
395.005	83.44
395.229	75.44
395.454	76.44
395.678	82.44
395.903	75.44
396.127	95.44
396.352	90.44
396.576	57.44
396.801	71.44
397.025	71.44
397.249	82.44
397.474	81.44
397.698	67.44
397.922	71.44
398.147	77.44
398.371	89.44
398.595	84.44
398.82	71.44
399.044	82.44
399.268	62.44
399.492	75.44
399.717	75.44
399.941	79.44
400.165	73.44
400.389	83.44
400.613	72.44
400.837	65.44
401.062	87.44
401.286	73.44
401.51	74.44
401.734	83.44
401.958	83.44
402.182	81.44
402.406	83.44
402.63	76.44
402.854	84.44
403.078	71.44
403.302	79.44
403.526	75.44
403.75	65.44
403.974	72.44
404.198	67.44
404.422	74.44
404.645	66.44
404.869	78.44
405.093	76.44
405.317	81.44
405.541	64.44
405.765	59.44
405.988	77.44
406.212	70.44
406.436	68.44
406.66	72.44
406.883	77.44
407.107	70.44
407.331	79.44
407.555	80.44
407.778	75.44
408.002	73.44
408.226	84.44
408.449	63.44
408.673	89.44
408.896	86.44
409.12	69.44
409.344	80.44
409.567	97.44
409.791	67.44
410.014	70.44
410.238	76.44
410.461	89.44
410.685	78.44
410.908	79.44
411.132	88.44
411.355	81.44
411.578	75.44
411.802	67.44
412.025	73.44
412.249	82.44
412.472	66.44
412.695	87.44
412.919	71.44
413.142	76.44
413.365	97.44
413.589	92.44
413.812	80.44
414.035	78.44
414.258	71.44
414.482	78.44
414.705	76.44
414.928	74.44
415.151	80.44
415.374	81.44
415.597	74.44
415.821	74.44
416.044	90.44
416.267	70.44
416.49	76.44
416.713	76.44
416.936	78.44
417.159	86.44
417.382	75.44
417.605	72.44
417.828	73.44
418.051	73.44
418.274	86.44
418.497	76.44
418.72	67.44
418.943	70.44
419.166	85.44
419.389	82.44
419.611	86.44
419.834	78.44
420.057	75.44
420.28	81.44
420.503	91.44
420.726	86.44
420.948	84.44
421.171	86.44
421.394	68.44
421.617	70.44
421.839	76.44
422.062	74.44
422.285	70.44
422.507	68.44
422.73	74.44
422.953	72.44
423.175	75.44
423.398	76.44
423.621	68.44
423.843	66.44
424.066	78.44
424.288	82.44
424.511	85.44
424.733	63.44
424.956	67.44
425.178	59.44
425.401	73.44
425.623	76.44
425.846	81.44
426.068	73.44
426.291	75.44
426.513	69.44
426.735	73.44
426.958	78.44
427.18	76.44
427.402	81.44
427.625	82.44
427.847	84.44
428.069	74.44
428.292	71.44
428.514	67.44
428.736	81.44
428.958	83.44
429.181	70.44
429.403	75.44
429.625	82.44
429.847	83.44
430.069	74.44
430.292	83.44
430.514	76.44
430.736	93.44
430.958	69.44
431.18	74.44
431.402	71.44
431.624	68.44
431.846	78.44
432.068	82.44
432.29	74.44
432.512	82.44
432.734	83.44
432.956	76.44
433.178	71.44
433.4	74.44
433.622	90.44
433.844	83.44
434.066	75.44
434.287	84.44
434.509	72.44
434.731	59.44
434.953	76.44
435.175	83.44
435.397	79.44
435.618	88.44
435.84	82.44
436.062	78.44
436.284	88.44
436.505	71.44
436.727	71.44
436.949	82.44
437.17	88.44
437.392	77.44
437.614	74.44
437.835	91.44
438.057	81.44
438.278	88.44
438.5	86.44
438.721	78.44
438.943	73.44
439.165	87.44
439.386	67.44
439.608	88.44
439.829	76.44
440.05	102.44
440.272	76.44
440.493	77.44
440.715	71.44
440.936	89.44
441.158	65.44
441.379	72.44
441.6	93.44
441.822	93.44
442.043	74.44
442.264	94.44
442.486	83.44
442.707	90.44
442.928	79.44
443.149	62.44
443.371	80.44
443.592	73.44
443.813	88.44
444.034	81.44
444.255	91.44
444.476	71.44
444.698	71.44
444.919	79.44
445.14	133.44
445.361	108.44
445.582	67.44
445.803	89.44
446.024	72.44
446.245	82.44
446.466	71.44
446.687	76.44
446.908	73.44
447.129	79.44
447.35	88.44
447.571	91.44
447.792	82.44
448.013	77.44
448.234	81.44
448.455	75.44
448.675	71.44
448.896	75.44
449.117	87.44
449.338	75.44
449.559	71.44
449.779	87.44
450	75.44
450.221	79.44
450.442	90.44
450.662	89.44
450.883	67.44
451.104	78.44
451.324	65.44
451.545	72.44
451.766	73.44
451.986	75.44
452.207	80.44
452.428	78.44
452.648	87.44
452.869	83.44
453.089	75.44
453.31	74.44
453.53	73.44
453.751	78.44
453.971	75.44
454.192	74.44
454.412	79.44
454.633	67.44
454.853	80.44
455.073	88.44
455.294	74.44
455.514	81.44
455.734	72.44
455.955	63.44
456.175	68.44
456.395	75.44
456.616	68.44
456.836	75.44
457.056	90.44
457.276	80.44
457.497	86.44
457.717	84.44
457.937	86.44
458.157	72.44
458.377	72.44
458.598	73.44
458.818	81.44
459.038	82.44
459.258	77.44
459.478	73.44
459.698	77.44
459.918	65.44
460.138	74.44
460.358	63.44
460.578	83.44
460.798	57.44
461.018	73.44
461.238	94.44
461.458	90.44
461.678	79.44
461.898	74.44
462.118	79.44
462.338	81.44
462.558	82.44
462.777	78.44
462.997	74.44
463.217	71.44
463.437	76.44
463.657	85.44
463.876	74.44
464.096	76.44
464.316	61.44
464.536	75.44
464.755	79.44
464.975	79.44
465.195	86.44
465.414	81.44
465.634	75.44
465.854	83.44
466.073	86.44
466.293	86.44
466.512	70.44
466.732	83.44
466.951	75.44
467.171	87.44
467.391	89.44
467.61	93.44
467.829	86.44
468.049	75.44
468.268	78.44
468.488	66.44
468.707	74.44
468.927	67.44
469.146	71.44
469.365	71.44
469.585	81.44
469.804	90.44
470.023	66.44
470.243	77.44
470.462	84.44
470.681	81.44
470.901	82.44
471.12	74.44
471.339	80.44
471.558	82.44
471.777	81.44
471.997	70.44
472.216	73.44
472.435	80.44
472.654	74.44
472.873	93.44
473.092	90.44
473.311	64.44
473.53	80.44
473.749	80.44
473.968	86.44
474.187	68.44
474.406	76.44
474.625	59.44
474.844	82.44
475.063	85.44
475.282	94.44
475.501	86.44
475.72	83.44
475.939	71.44
476.158	92.44
476.377	88.44
476.596	69.44
476.814	70.44
477.033	68.44
477.252	67.44
477.471	79.44
477.69	78.44
477.908	83.44
478.127	78.44
478.346	59.44
478.564	73.44
478.783	70.44
479.002	86.44
479.22	71.44
479.439	75.44
479.658	67.44
479.876	72.44
480.095	64.44
480.313	65.44
480.532	74.44
480.751	82.44
480.969	66.44
481.188	73.44
481.406	77.44
481.624	71.44
481.843	93.44
482.061	68.44
482.28	75.44
482.498	82.44
482.717	67.44
482.935	76.44
483.153	78.44
483.372	83.44
483.59	83.44
483.808	63.44
484.027	75.44
484.245	75.44
484.463	82.44
484.681	91.44
484.9	84.44
485.118	74.44
485.336	69.44
485.554	91.44
485.772	84.44
485.99	77.44
486.209	71.44
486.427	79.44
486.645	74.44
486.863	78.44
487.081	89.44
487.299	81.44
487.517	78.44
487.735	82.44
487.953	79.44
488.171	81.44
488.389	87.44
488.607	76.44
488.825	65.44
489.043	70.44
489.261	87.44
489.479	85.44
489.696	96.44
489.914	79.44
490.132	77.44
490.35	97.44
490.568	91.44
490.786	75.44
491.003	88.44
491.221	75.44
491.439	83.44
491.657	83.44
491.874	80.44
492.092	86.44
492.31	79.44
492.527	73.44
492.745	84.44
492.963	85.44
493.18	90.44
493.398	88.44
493.615	105.44
493.833	73.44
494.05	69.44
494.268	76.44
494.485	90.44
494.703	88.44
494.92	73.44
495.138	95.44
495.355	84.44
495.573	82.44
495.79	78.44
496.008	74.44
496.225	66.44
496.442	88.44
496.66	94.44
496.877	71.44
497.094	96.44
497.312	83.44
497.529	82.44
497.746	80.44
497.963	77.44
498.181	78.44
498.398	91.44
498.615	92.44
498.832	68.44
499.049	71.44
499.267	86.44
499.484	73.44
499.701	93.44
499.918	79.44
500.135	88.44
500.352	65.44
500.569	83.44
500.786	80.44
501.003	63.44
501.22	78.44
501.437	54.44
501.654	78.44
501.871	81.44
502.088	76.44
502.305	74.44
502.522	86.44
502.739	83.44
502.956	86.44
503.172	93.44
503.389	78.44
503.606	75.44
503.823	80.44
504.04	73.44
504.256	78.44
504.473	84.44
504.69	77.44
504.907	93.44
505.123	84.44
505.34	77.44
505.557	74.44
505.773	88.44
505.99	90.44
506.207	64.44
506.423	87.44
506.64	74.44
506.856	71.44
507.073	86.44
507.289	84.44
507.506	76.44
507.722	79.44
507.939	78.44
508.155	88.44
508.372	85.44
508.588	86.44
508.805	79.44
509.021	76.44
509.238	92.44
509.454	73.44
509.67	81.44
509.887	94.44
510.103	77.44
510.319	79.44
510.536	63.44
510.752	87.44
510.968	78.44
511.184	66.44
511.401	67.44
511.617	72.44
511.833	81.44
512.049	68.44
512.265	78.44
512.481	78.44
512.698	73.44
512.914	76.44
513.13	88.44
513.346	88.44
513.562	95.44
513.778	69.44
513.994	79.44
514.21	76.44
514.426	83.44
514.642	74.44
514.858	86.44
515.074	87.44
515.29	94.44
515.506	90.44
515.721	81.44
515.937	70.44
516.153	86.44
516.369	86.44
516.585	87.44
516.801	72.44
517.016	82.44
517.232	66.44
517.448	86.44
517.664	70.44
517.879	82.44
518.095	75.44
518.311	64.44
518.527	79.44
518.742	70.44
518.958	79.44
519.173	74.44
519.389	79.44
519.605	73.44
519.82	82.44
520.036	70.44
520.251	79.44
