Data from Alignment_HRD10591_00008.txt Node
Date: Fri Dec 27 14:18:31 EST 2024
User: Yrep
Spectrometer: HR+D1059
Trigger mode: 1
Integration Time (sec): 1.000000E-1
Scans to average: 1
Electric dark correction enabled: true
Nonlinearity correction enabled: false
Boxcar width: 0
XAxis mode: Wavelengths
Number of Pixels in Spectrum: 2048
>>>>>Begin Spectral Data<<<<<
223.165	-6.06
223.4	-6.06
223.635	-6.06
223.869	-20.06
224.104	-11.06
224.338	-20.06
224.573	-23.06
224.808	-22.06
225.042	-17.06
225.277	-18.06
225.511	-8.06
225.746	5.94
225.98	3.94
226.215	11.94
226.449	19.94
226.683	21.94
226.918	44.94
227.152	36.94
227.387	21.94
227.621	39.94
227.856	48.94
228.09	60.94
228.324	47.94
228.559	52.94
228.793	53.94
229.027	68.94
229.262	68.94
229.496	78.94
229.73	73.94
229.964	67.94
230.199	76.94
230.433	74.94
230.667	65.94
230.901	83.94
231.136	65.94
231.37	74.94
231.604	81.94
231.838	76.94
232.072	82.94
232.306	78.94
232.541	80.94
232.775	86.94
233.009	70.94
233.243	86.94
233.477	91.94
233.711	81.94
233.945	80.94
234.179	66.94
234.413	84.94
234.647	91.94
234.881	77.94
235.115	73.94
235.349	75.94
235.583	82.94
235.817	86.94
236.051	74.94
236.285	82.94
236.519	100.94
236.753	76.94
236.987	64.94
237.221	79.94
237.455	79.94
237.689	78.94
237.922	72.94
238.156	70.94
238.39	82.94
238.624	82.94
238.858	76.94
239.091	62.94
239.325	77.94
239.559	86.94
239.793	76.94
240.027	81.94
240.26	83.94
240.494	79.94
240.728	73.94
240.961	62.94
241.195	64.94
241.429	65.94
241.662	73.94
241.896	62.94
242.13	79.94
242.363	83.94
242.597	83.94
242.83	88.94
243.064	88.94
243.298	74.94
243.531	79.94
243.765	83.94
243.998	76.94
244.232	79.94
244.465	80.94
244.699	85.94
244.932	79.94
245.166	67.94
245.399	89.94
245.633	90.94
245.866	75.94
246.099	90.94
246.333	80.94
246.566	61.94
246.8	72.94
247.033	77.94
247.266	69.94
247.5	78.94
247.733	75.94
247.966	72.94
248.2	95.94
248.433	81.94
248.666	90.94
248.899	66.94
249.133	72.94
249.366	72.94
249.599	75.94
249.832	76.94
250.066	76.94
250.299	75.94
250.532	73.94
250.765	80.94
250.998	65.94
251.231	77.94
251.465	70.94
251.698	78.94
251.931	75.94
252.164	74.94
252.397	81.94
252.63	79.94
252.863	82.94
253.096	83.94
253.329	88.94
253.562	80.94
253.795	83.94
254.028	91.94
254.261	83.94
254.494	80.94
254.727	91.94
254.96	71.94
255.193	80.94
255.426	77.94
255.659	74.94
255.892	65.94
256.124	55.94
256.357	76.94
256.59	61.94
256.823	86.94
257.056	76.94
257.289	82.94
257.521	70.94
257.754	77.94
257.987	70.94
258.22	84.94
258.452	78.94
258.685	76.94
258.918	80.94
259.151	80.94
259.383	81.94
259.616	74.94
259.849	85.94
260.081	75.94
260.314	90.94
260.547	73.94
260.779	90.94
261.012	69.94
261.244	79.94
261.477	78.94
261.71	80.94
261.942	84.94
262.175	86.94
262.407	76.94
262.64	84.94
262.872	71.94
263.105	77.94
263.337	95.94
263.57	76.94
263.802	72.94
264.035	80.94
264.267	80.94
264.499	82.94
264.732	75.94
264.964	84.94
265.197	82.94
265.429	91.94
265.661	76.94
265.894	98.94
266.126	85.94
266.358	96.94
266.591	71.94
266.823	96.94
267.055	69.94
267.287	76.94
267.52	74.94
267.752	78.94
267.984	81.94
268.216	87.94
268.448	83.94
268.681	90.94
268.913	93.94
269.145	74.94
269.377	77.94
269.609	86.94
269.841	76.94
270.073	69.94
270.306	77.94
270.538	75.94
270.77	77.94
271.002	88.94
271.234	90.94
271.466	86.94
271.698	68.94
271.93	79.94
272.162	73.94
272.394	82.94
272.626	85.94
272.858	90.94
273.09	79.94
273.322	82.94
273.553	83.94
273.785	88.94
274.017	82.94
274.249	88.94
274.481	60.94
274.713	79.94
274.945	86.94
275.176	74.94
275.408	80.94
275.64	77.94
275.872	78.94
276.104	76.94
276.335	84.94
276.567	74.94
276.799	99.94
277.031	80.94
277.262	73.94
277.494	80.94
277.726	77.94
277.957	74.94
278.189	72.94
278.421	88.94
278.652	84.94
278.884	82.94
279.115	89.94
279.347	75.94
279.579	84.94
279.81	77.94
280.042	87.94
280.273	83.94
280.505	88.94
280.736	94.94
280.968	79.94
281.199	85.94
281.431	73.94
281.662	79.94
281.894	86.94
282.125	85.94
282.356	88.94
282.588	95.94
282.819	91.94
283.051	96.94
283.282	82.94
283.513	67.94
283.745	79.94
283.976	67.94
284.207	85.94
284.439	73.94
284.67	78.94
284.901	82.94
285.132	82.94
285.364	78.94
285.595	90.94
285.826	85.94
286.057	85.94
286.288	84.94
286.52	78.94
286.751	97.94
286.982	81.94
287.213	82.94
287.444	89.94
287.675	73.94
287.906	63.94
288.138	85.94
288.369	91.94
288.6	80.94
288.831	80.94
289.062	81.94
289.293	77.94
289.524	71.94
289.755	93.94
289.986	79.94
290.217	87.94
290.448	76.94
290.679	85.94
290.91	88.94
291.141	76.94
291.371	71.94
291.602	81.94
291.833	92.94
292.064	83.94
292.295	85.94
292.526	82.94
292.757	78.94
292.987	83.94
293.218	81.94
293.449	80.94
293.68	79.94
293.91	84.94
294.141	97.94
294.372	84.94
294.603	78.94
294.833	94.94
295.064	70.94
295.295	84.94
295.525	78.94
295.756	86.94
295.987	88.94
296.217	93.94
296.448	81.94
296.679	84.94
296.909	79.94
297.14	88.94
297.37	82.94
297.601	79.94
297.831	80.94
298.062	79.94
298.292	93.94
298.523	83.94
298.753	84.94
298.984	89.94
299.214	92.94
299.445	92.94
299.675	82.94
299.905	92.94
300.136	81.94
300.366	91.94
300.597	88.94
300.827	90.94
301.057	97.94
301.288	90.94
301.518	75.94
301.748	80.94
301.979	94.94
302.209	80.94
302.439	81.94
302.669	83.94
302.9	83.94
303.13	91.94
303.36	90.94
303.59	92.94
303.82	104.94
304.051	91.94
304.281	98.94
304.511	81.94
304.741	92.94
304.971	79.94
305.201	90.94
305.431	78.94
305.661	88.94
305.891	92.94
306.121	84.94
306.352	77.94
306.582	81.94
306.812	92.94
307.042	84.94
307.272	90.94
307.502	86.94
307.731	84.94
307.961	91.94
308.191	78.94
308.421	84.94
308.651	74.94
308.881	90.94
309.111	85.94
309.341	96.94
309.571	80.94
309.8	83.94
310.03	100.94
310.26	76.94
310.49	93.94
310.72	92.94
310.949	78.94
311.179	78.94
311.409	82.94
311.639	82.94
311.868	100.94
312.098	73.94
312.328	85.94
312.557	98.94
312.787	90.94
313.017	77.94
313.246	87.94
313.476	92.94
313.706	73.94
313.935	90.94
314.165	88.94
314.394	88.94
314.624	74.94
314.853	88.94
315.083	85.94
315.312	81.94
315.542	74.94
315.771	74.94
316.001	83.94
316.23	81.94
316.46	84.94
316.689	90.94
316.919	77.94
317.148	81.94
317.377	76.94
317.607	75.94
317.836	68.94
318.065	88.94
318.295	85.94
318.524	84.94
318.753	88.94
318.983	76.94
319.212	100.94
319.441	82.94
319.67	79.94
319.9	65.94
320.129	89.94
320.358	83.94
320.587	73.94
320.816	92.94
321.046	64.94
321.275	76.94
321.504	83.94
321.733	78.94
321.962	83.94
322.191	84.94
322.42	78.94
322.649	79.94
322.878	95.94
323.108	88.94
323.337	80.94
323.566	84.94
323.795	83.94
324.024	93.94
324.253	77.94
324.482	92.94
324.71	95.94
324.939	95.94
325.168	89.94
325.397	96.94
325.626	91.94
325.855	81.94
326.084	78.94
326.313	77.94
326.542	76.94
326.77	75.94
326.999	79.94
327.228	96.94
327.457	82.94
327.686	73.94
327.914	76.94
328.143	92.94
328.372	90.94
328.6	83.94
328.829	100.94
329.058	77.94
329.287	92.94
329.515	84.94
329.744	76.94
329.972	75.94
330.201	94.94
330.43	61.94
330.658	85.94
330.887	78.94
331.115	80.94
331.344	86.94
331.572	88.94
331.801	75.94
332.03	80.94
332.258	90.94
332.486	74.94
332.715	75.94
332.943	72.94
333.172	99.94
333.4	98.94
333.629	92.94
333.857	76.94
334.085	81.94
334.314	85.94
334.542	73.94
334.771	80.94
334.999	82.94
335.227	93.94
335.455	89.94
335.684	80.94
335.912	78.94
336.14	89.94
336.369	69.94
336.597	97.94
336.825	74.94
337.053	75.94
337.281	76.94
337.51	80.94
337.738	90.94
337.966	69.94
338.194	81.94
338.422	76.94
338.65	73.94
338.878	79.94
339.106	90.94
339.334	77.94
339.562	80.94
339.79	78.94
340.018	92.94
340.246	85.94
340.474	76.94
340.702	75.94
340.93	82.94
341.158	62.94
341.386	69.94
341.614	78.94
341.842	92.94
342.07	76.94
342.298	80.94
342.526	77.94
342.754	78.94
342.981	83.94
343.209	77.94
343.437	90.94
343.665	84.94
343.893	76.94
344.12	98.94
344.348	76.94
344.576	81.94
344.804	73.94
345.031	90.94
345.259	96.94
345.487	80.94
345.714	73.94
345.942	81.94
346.17	91.94
346.397	88.94
346.625	93.94
346.853	83.94
347.08	94.94
347.308	88.94
347.535	77.94
347.763	78.94
347.99	83.94
348.218	88.94
348.445	93.94
348.673	83.94
348.9	100.94
349.128	90.94
349.355	86.94
349.583	72.94
349.81	95.94
350.037	74.94
350.265	84.94
350.492	93.94
350.72	80.94
350.947	92.94
351.174	80.94
351.402	84.94
351.629	74.94
351.856	92.94
352.083	85.94
352.311	88.94
352.538	77.94
352.765	74.94
352.992	89.94
353.22	78.94
353.447	72.94
353.674	88.94
353.901	83.94
354.128	81.94
354.355	84.94
354.583	78.94
354.81	76.94
355.037	85.94
355.264	84.94
355.491	104.94
355.718	73.94
355.945	77.94
356.172	77.94
356.399	75.94
356.626	93.94
356.853	89.94
357.08	82.94
357.307	70.94
357.534	87.94
357.761	91.94
357.988	78.94
358.215	66.94
358.441	80.94
358.668	68.94
358.895	73.94
359.122	84.94
359.349	93.94
359.576	92.94
359.802	74.94
360.029	68.94
360.256	85.94
360.483	81.94
360.709	59.94
360.936	79.94
361.163	94.94
361.39	88.94
361.616	81.94
361.843	76.94
362.07	88.94
362.296	72.94
362.523	65.94
362.749	86.94
362.976	93.94
363.203	96.94
363.429	84.94
363.656	80.94
363.882	78.94
364.109	74.94
364.335	77.94
364.562	82.94
364.788	79.94
365.015	90.94
365.241	72.94
365.468	87.94
365.694	93.94
365.92	79.94
366.147	93.94
366.373	77.94
366.599	71.94
366.826	91.94
367.052	92.94
367.278	72.94
367.505	89.94
367.731	80.94
367.957	73.94
368.184	85.94
368.41	80.94
368.636	82.94
368.862	73.94
369.089	73.94
369.315	90.94
369.541	74.94
369.767	72.94
369.993	82.94
370.219	91.94
370.445	84.94
370.672	54.94
370.898	76.94
371.124	89.94
371.35	81.94
371.576	82.94
371.802	82.94
372.028	80.94
372.254	86.94
372.48	81.94
372.706	87.94
372.932	65.94
373.158	80.94
373.384	92.94
373.61	61.94
373.835	80.94
374.061	88.94
374.287	88.94
374.513	84.94
374.739	81.94
374.965	78.94
375.191	94.94
375.416	80.94
375.642	80.94
375.868	91.94
376.094	90.94
376.319	74.94
376.545	84.94
376.771	73.94
376.997	77.94
377.222	70.94
377.448	73.94
377.674	67.94
377.899	86.94
378.125	77.94
378.35	92.94
378.576	77.94
378.802	88.94
379.027	85.94
379.253	82.94
379.478	80.94
379.704	75.94
379.929	84.94
380.155	81.94
380.38	83.94
380.606	70.94
380.831	88.94
381.057	95.94
381.282	82.94
381.507	72.94
381.733	84.94
381.958	63.94
382.184	79.94
382.409	83.94
382.634	82.94
382.86	78.94
383.085	78.94
383.31	69.94
383.535	84.94
383.761	85.94
383.986	82.94
384.211	85.94
384.436	80.94
384.662	83.94
384.887	84.94
385.112	70.94
385.337	94.94
385.562	88.94
385.787	88.94
386.013	78.94
386.238	82.94
386.463	81.94
386.688	88.94
386.913	87.94
387.138	81.94
387.363	89.94
387.588	79.94
387.813	86.94
388.038	76.94
388.263	62.94
388.488	82.94
388.713	72.94
388.938	82.94
389.163	93.94
389.387	80.94
389.612	94.94
389.837	81.94
390.062	62.94
390.287	64.94
390.512	68.94
390.736	76.94
390.961	87.94
391.186	81.94
391.411	90.94
391.636	91.94
391.86	81.94
392.085	79.94
392.31	66.94
392.534	72.94
392.759	80.94
392.984	72.94
393.208	72.94
393.433	85.94
393.658	95.94
393.882	83.94
394.107	74.94
394.331	83.94
394.556	75.94
394.78	75.94
395.005	80.94
395.229	68.94
395.454	79.94
395.678	92.94
395.903	82.94
396.127	81.94
396.352	74.94
396.576	77.94
396.801	81.94
397.025	75.94
397.249	82.94
397.474	100.94
397.698	62.94
397.922	76.94
398.147	89.94
398.371	80.94
398.595	81.94
398.82	83.94
399.044	81.94
399.268	83.94
399.492	86.94
399.717	83.94
399.941	79.94
400.165	74.94
400.389	77.94
400.613	69.94
400.837	69.94
401.062	76.94
401.286	78.94
401.51	76.94
401.734	78.94
401.958	81.94
402.182	92.94
402.406	76.94
402.63	83.94
402.854	85.94
403.078	79.94
403.302	86.94
403.526	84.94
403.75	79.94
403.974	78.94
404.198	87.94
404.422	88.94
404.645	78.94
404.869	76.94
405.093	77.94
405.317	82.94
405.541	81.94
405.765	93.94
405.988	73.94
406.212	73.94
406.436	85.94
406.66	88.94
406.883	83.94
407.107	85.94
407.331	78.94
407.555	75.94
407.778	80.94
408.002	83.94
408.226	66.94
408.449	82.94
408.673	77.94
408.896	84.94
409.12	67.94
409.344	94.94
409.567	88.94
409.791	97.94
410.014	89.94
410.238	86.94
410.461	80.94
410.685	86.94
410.908	73.94
411.132	74.94
411.355	70.94
411.578	85.94
411.802	76.94
412.025	94.94
412.249	84.94
412.472	90.94
412.695	85.94
412.919	77.94
413.142	80.94
413.365	83.94
413.589	89.94
413.812	85.94
414.035	80.94
414.258	83.94
414.482	77.94
414.705	86.94
414.928	77.94
415.151	71.94
415.374	68.94
415.597	76.94
415.821	75.94
416.044	74.94
416.267	80.94
416.49	92.94
416.713	84.94
416.936	85.94
417.159	83.94
417.382	66.94
417.605	77.94
417.828	82.94
418.051	71.94
418.274	91.94
418.497	82.94
418.72	71.94
418.943	81.94
419.166	93.94
419.389	82.94
419.611	74.94
419.834	75.94
420.057	92.94
420.28	74.94
420.503	81.94
420.726	90.94
420.948	85.94
421.171	74.94
421.394	84.94
421.617	78.94
421.839	77.94
422.062	81.94
422.285	76.94
422.507	78.94
422.73	81.94
422.953	77.94
423.175	84.94
423.398	90.94
423.621	68.94
423.843	79.94
424.066	80.94
424.288	94.94
424.511	78.94
424.733	81.94
424.956	85.94
425.178	91.94
425.401	70.94
425.623	78.94
425.846	82.94
426.068	93.94
426.291	74.94
426.513	76.94
426.735	85.94
426.958	90.94
427.18	82.94
427.402	92.94
427.625	87.94
427.847	84.94
428.069	83.94
428.292	70.94
428.514	85.94
428.736	78.94
428.958	79.94
429.181	83.94
429.403	85.94
429.625	76.94
429.847	89.94
430.069	88.94
430.292	82.94
430.514	73.94
430.736	88.94
430.958	92.94
431.18	82.94
431.402	81.94
431.624	81.94
431.846	93.94
432.068	84.94
432.29	85.94
432.512	83.94
432.734	80.94
432.956	91.94
433.178	92.94
433.4	94.94
433.622	73.94
433.844	71.94
434.066	102.94
434.287	88.94
434.509	92.94
434.731	84.94
434.953	80.94
435.175	83.94
435.397	101.94
435.618	92.94
435.84	85.94
436.062	86.94
436.284	67.94
436.505	74.94
436.727	85.94
436.949	76.94
437.17	91.94
437.392	92.94
437.614	75.94
437.835	82.94
438.057	85.94
438.278	79.94
438.5	96.94
438.721	86.94
438.943	75.94
439.165	79.94
439.386	83.94
439.608	83.94
439.829	84.94
440.05	76.94
440.272	84.94
440.493	73.94
440.715	81.94
440.936	76.94
441.158	85.94
441.379	84.94
441.6	87.94
441.822	82.94
442.043	76.94
442.264	101.94
442.486	76.94
442.707	82.94
442.928	74.94
443.149	70.94
443.371	81.94
443.592	80.94
443.813	77.94
444.034	69.94
444.255	65.94
444.476	81.94
444.698	90.94
444.919	100.94
445.14	148.94
445.361	114.94
445.582	88.94
445.803	71.94
446.024	84.94
446.245	90.94
446.466	85.94
446.687	80.94
446.908	81.94
447.129	85.94
447.35	89.94
447.571	90.94
447.792	81.94
448.013	88.94
448.234	76.94
448.455	88.94
448.675	86.94
448.896	82.94
449.117	81.94
449.338	84.94
449.559	81.94
449.779	83.94
450	76.94
450.221	74.94
450.442	78.94
450.662	77.94
450.883	79.94
451.104	86.94
451.324	89.94
451.545	92.94
451.766	67.94
451.986	78.94
452.207	70.94
452.428	84.94
452.648	88.94
452.869	84.94
453.089	70.94
453.31	75.94
453.53	82.94
453.751	84.94
453.971	86.94
454.192	81.94
454.412	81.94
454.633	79.94
454.853	80.94
455.073	79.94
455.294	78.94
455.514	67.94
455.734	76.94
455.955	85.94
456.175	93.94
456.395	80.94
456.616	72.94
456.836	82.94
457.056	79.94
457.276	91.94
457.497	96.94
457.717	78.94
457.937	79.94
458.157	81.94
458.377	91.94
458.598	80.94
458.818	80.94
459.038	89.94
459.258	98.94
459.478	76.94
459.698	92.94
459.918	79.94
460.138	81.94
460.358	98.94
460.578	81.94
460.798	61.94
461.018	69.94
461.238	80.94
461.458	72.94
461.678	74.94
461.898	85.94
462.118	78.94
462.338	77.94
462.558	73.94
462.777	93.94
462.997	83.94
463.217	63.94
463.437	88.94
463.657	81.94
463.876	85.94
464.096	90.94
464.316	83.94
464.536	67.94
464.755	84.94
464.975	89.94
465.195	77.94
465.414	88.94
465.634	98.94
465.854	82.94
466.073	70.94
466.293	84.94
466.512	97.94
466.732	92.94
466.951	77.94
467.171	78.94
467.391	92.94
467.61	84.94
467.829	86.94
468.049	85.94
468.268	71.94
468.488	80.94
468.707	87.94
468.927	83.94
469.146	92.94
469.365	91.94
469.585	79.94
469.804	80.94
470.023	95.94
470.243	71.94
470.462	86.94
470.681	92.94
470.901	77.94
471.12	80.94
471.339	92.94
471.558	82.94
471.777	98.94
471.997	90.94
472.216	81.94
472.435	75.94
472.654	68.94
472.873	70.94
473.092	77.94
473.311	92.94
473.53	83.94
473.749	80.94
473.968	81.94
474.187	83.94
474.406	74.94
474.625	90.94
474.844	82.94
475.063	80.94
475.282	72.94
475.501	65.94
475.72	88.94
475.939	64.94
476.158	68.94
476.377	93.94
476.596	73.94
476.814	84.94
477.033	81.94
477.252	72.94
477.471	69.94
477.69	76.94
477.908	90.94
478.127	82.94
478.346	94.94
478.564	80.94
478.783	88.94
479.002	83.94
479.22	70.94
479.439	84.94
479.658	83.94
479.876	85.94
480.095	84.94
480.313	85.94
480.532	83.94
480.751	84.94
480.969	77.94
481.188	82.94
481.406	69.94
481.624	82.94
481.843	83.94
482.061	71.94
482.28	75.94
482.498	84.94
482.717	70.94
482.935	88.94
483.153	76.94
483.372	81.94
483.59	82.94
483.808	84.94
484.027	86.94
484.245	80.94
484.463	75.94
484.681	83.94
484.9	89.94
485.118	81.94
485.336	91.94
485.554	80.94
485.772	76.94
485.99	82.94
486.209	69.94
486.427	65.94
486.645	65.94
486.863	68.94
487.081	90.94
487.299	94.94
487.517	83.94
487.735	98.94
487.953	88.94
488.171	82.94
488.389	84.94
488.607	80.94
488.825	84.94
489.043	82.94
489.261	94.94
489.479	88.94
489.696	92.94
489.914	77.94
490.132	86.94
490.35	93.94
490.568	95.94
490.786	98.94
491.003	88.94
491.221	84.94
491.439	85.94
491.657	91.94
491.874	88.94
492.092	93.94
492.31	77.94
492.527	94.94
492.745	88.94
492.963	98.94
493.18	78.94
493.398	92.94
493.615	74.94
493.833	81.94
494.05	92.94
494.268	77.94
494.485	74.94
494.703	93.94
494.92	85.94
495.138	83.94
495.355	89.94
495.573	79.94
495.79	74.94
496.008	89.94
496.225	94.94
496.442	74.94
496.66	85.94
496.877	97.94
497.094	96.94
497.312	82.94
497.529	72.94
497.746	92.94
497.963	96.94
498.181	88.94
498.398	78.94
498.615	83.94
498.832	66.94
499.049	78.94
499.267	102.94
499.484	88.94
499.701	93.94
499.918	89.94
500.135	95.94
500.352	70.94
500.569	90.94
500.786	82.94
501.003	82.94
501.22	81.94
501.437	89.94
501.654	76.94
501.871	72.94
502.088	85.94
502.305	73.94
502.522	90.94
502.739	92.94
502.956	75.94
503.172	90.94
503.389	79.94
503.606	96.94
503.823	98.94
504.04	91.94
504.256	70.94
504.473	87.94
504.69	70.94
504.907	87.94
505.123	75.94
505.34	70.94
505.557	66.94
505.773	85.94
505.99	84.94
506.207	84.94
506.423	88.94
506.64	86.94
506.856	97.94
507.073	98.94
507.289	91.94
507.506	75.94
507.722	75.94
507.939	89.94
508.155	78.94
508.372	101.94
508.588	100.94
508.805	80.94
509.021	82.94
509.238	66.94
509.454	76.94
509.67	69.94
509.887	83.94
510.103	89.94
510.319	85.94
510.536	74.94
510.752	88.94
510.968	71.94
511.184	79.94
511.401	91.94
511.617	89.94
511.833	83.94
512.049	79.94
512.265	92.94
512.481	86.94
512.698	81.94
512.914	85.94
513.13	73.94
513.346	85.94
513.562	75.94
513.778	97.94
513.994	79.94
514.21	76.94
514.426	92.94
514.642	82.94
514.858	85.94
515.074	90.94
515.29	78.94
515.506	82.94
515.721	83.94
515.937	82.94
516.153	85.94
516.369	76.94
516.585	62.94
516.801	86.94
517.016	91.94
517.232	80.94
517.448	97.94
517.664	81.94
517.879	92.94
518.095	85.94
518.311	94.94
518.527	89.94
518.742	77.94
518.958	88.94
519.173	93.94
519.389	78.94
519.605	77.94
519.82	83.94
520.036	90.94
