Data from Alignment_HRD10591_00020.txt Node
Date: Fri Dec 27 14:18:43 EST 2024
User: Yrep
Spectrometer: HR+D1059
Trigger mode: 1
Integration Time (sec): 1.000000E-1
Scans to average: 1
Electric dark correction enabled: true
Nonlinearity correction enabled: false
Boxcar width: 0
XAxis mode: Wavelengths
Number of Pixels in Spectrum: 2048
>>>>>Begin Spectral Data<<<<<
223.165	-35.31
223.4	-35.31
223.635	-35.31
223.869	-11.31
224.104	-11.31
224.338	-15.31
224.573	-6.31
224.808	-5.31
225.042	-14.31
225.277	-9.31
225.511	-5.31
225.746	2.69
225.98	11.69
226.215	0.69
226.449	23.69
226.683	20.69
226.918	20.69
227.152	33.69
227.387	26.69
227.621	36.69
227.856	32.69
228.09	35.69
228.324	48.69
228.559	58.69
228.793	54.69
229.027	57.69
229.262	60.69
229.496	57.69
229.73	63.69
229.964	73.69
230.199	65.69
230.433	73.69
230.667	69.69
230.901	77.69
231.136	64.69
231.37	84.69
231.604	69.69
231.838	68.69
232.072	85.69
232.306	78.69
232.541	73.69
232.775	74.69
233.009	68.69
233.243	68.69
233.477	83.69
233.711	67.69
233.945	84.69
234.179	68.69
234.413	83.69
234.647	90.69
234.881	76.69
235.115	73.69
235.349	66.69
235.583	92.69
235.817	75.69
236.051	69.69
236.285	85.69
236.519	64.69
236.753	67.69
236.987	63.69
237.221	71.69
237.455	85.69
237.689	79.69
237.922	74.69
238.156	67.69
238.39	73.69
238.624	68.69
238.858	75.69
239.091	64.69
239.325	74.69
239.559	82.69
239.793	76.69
240.027	72.69
240.26	61.69
240.494	76.69
240.728	60.69
240.961	81.69
241.195	92.69
241.429	66.69
241.662	64.69
241.896	73.69
242.13	79.69
242.363	78.69
242.597	53.69
242.83	74.69
243.064	78.69
243.298	66.69
243.531	79.69
243.765	73.69
243.998	58.69
244.232	74.69
244.465	75.69
244.699	75.69
244.932	65.69
245.166	72.69
245.399	59.69
245.633	56.69
245.866	62.69
246.099	84.69
246.333	76.69
246.566	65.69
246.8	88.69
247.033	65.69
247.266	83.69
247.5	86.69
247.733	80.69
247.966	79.69
248.2	80.69
248.433	77.69
248.666	65.69
248.899	64.69
249.133	62.69
249.366	76.69
249.599	77.69
249.832	78.69
250.066	77.69
250.299	70.69
250.532	74.69
250.765	81.69
250.998	67.69
251.231	62.69
251.465	68.69
251.698	67.69
251.931	82.69
252.164	83.69
252.397	86.69
252.63	73.69
252.863	73.69
253.096	82.69
253.329	80.69
253.562	70.69
253.795	79.69
254.028	88.69
254.261	70.69
254.494	78.69
254.727	59.69
254.96	77.69
255.193	67.69
255.426	82.69
255.659	84.69
255.892	67.69
256.124	58.69
256.357	65.69
256.59	86.69
256.823	76.69
257.056	77.69
257.289	80.69
257.521	80.69
257.754	76.69
257.987	73.69
258.22	77.69
258.452	60.69
258.685	80.69
258.918	78.69
259.151	62.69
259.383	92.69
259.616	71.69
259.849	62.69
260.081	74.69
260.314	84.69
260.547	84.69
260.779	81.69
261.012	87.69
261.244	68.69
261.477	66.69
261.71	73.69
261.942	78.69
262.175	70.69
262.407	69.69
262.64	73.69
262.872	79.69
263.105	73.69
263.337	80.69
263.57	80.69
263.802	90.69
264.035	79.69
264.267	88.69
264.499	84.69
264.732	73.69
264.964	91.69
265.197	72.69
265.429	78.69
265.661	83.69
265.894	79.69
266.126	67.69
266.358	73.69
266.591	70.69
266.823	59.69
267.055	68.69
267.287	79.69
267.52	64.69
267.752	78.69
267.984	82.69
268.216	88.69
268.448	70.69
268.681	88.69
268.913	75.69
269.145	81.69
269.377	64.69
269.609	78.69
269.841	70.69
270.073	70.69
270.306	75.69
270.538	88.69
270.77	98.69
271.002	80.69
271.234	86.69
271.466	89.69
271.698	78.69
271.93	78.69
272.162	77.69
272.394	63.69
272.626	82.69
272.858	65.69
273.09	81.69
273.322	76.69
273.553	74.69
273.785	80.69
274.017	79.69
274.249	77.69
274.481	77.69
274.713	74.69
274.945	91.69
275.176	69.69
275.408	73.69
275.64	93.69
275.872	90.69
276.104	84.69
276.335	64.69
276.567	79.69
276.799	73.69
277.031	77.69
277.262	92.69
277.494	75.69
277.726	83.69
277.957	64.69
278.189	73.69
278.421	86.69
278.652	71.69
278.884	68.69
279.115	83.69
279.347	74.69
279.579	75.69
279.81	95.69
280.042	81.69
280.273	76.69
280.505	72.69
280.736	71.69
280.968	87.69
281.199	80.69
281.431	80.69
281.662	76.69
281.894	84.69
282.125	86.69
282.356	72.69
282.588	84.69
282.819	71.69
283.051	78.69
283.282	91.69
283.513	80.69
283.745	69.69
283.976	88.69
284.207	75.69
284.439	80.69
284.67	88.69
284.901	71.69
285.132	70.69
285.364	72.69
285.595	76.69
285.826	87.69
286.057	82.69
286.288	91.69
286.52	82.69
286.751	80.69
286.982	71.69
287.213	74.69
287.444	80.69
287.675	77.69
287.906	80.69
288.138	82.69
288.369	79.69
288.6	71.69
288.831	73.69
289.062	74.69
289.293	82.69
289.524	82.69
289.755	75.69
289.986	70.69
290.217	92.69
290.448	80.69
290.679	74.69
290.91	74.69
291.141	72.69
291.371	88.69
291.602	81.69
291.833	72.69
292.064	59.69
292.295	73.69
292.526	65.69
292.757	81.69
292.987	77.69
293.218	79.69
293.449	80.69
293.68	75.69
293.91	80.69
294.141	80.69
294.372	73.69
294.603	80.69
294.833	76.69
295.064	91.69
295.295	81.69
295.525	77.69
295.756	86.69
295.987	76.69
296.217	74.69
296.448	77.69
296.679	80.69
296.909	81.69
297.14	70.69
297.37	80.69
297.601	86.69
297.831	86.69
298.062	78.69
298.292	77.69
298.523	84.69
298.753	72.69
298.984	92.69
299.214	65.69
299.445	83.69
299.675	71.69
299.905	72.69
300.136	70.69
300.366	76.69
300.597	94.69
300.827	92.69
301.057	63.69
301.288	74.69
301.518	84.69
301.748	74.69
301.979	102.69
302.209	88.69
302.439	76.69
302.669	94.69
302.9	78.69
303.13	68.69
303.36	89.69
303.59	96.69
303.82	88.69
304.051	81.69
304.281	79.69
304.511	75.69
304.741	77.69
304.971	88.69
305.201	80.69
305.431	71.69
305.661	78.69
305.891	88.69
306.121	90.69
306.352	72.69
306.582	63.69
306.812	91.69
307.042	73.69
307.272	86.69
307.502	92.69
307.731	79.69
307.961	75.69
308.191	78.69
308.421	79.69
308.651	87.69
308.881	80.69
309.111	57.69
309.341	70.69
309.571	75.69
309.8	68.69
310.03	74.69
310.26	82.69
310.49	81.69
310.72	70.69
310.949	78.69
311.179	72.69
311.409	82.69
311.639	81.69
311.868	90.69
312.098	81.69
312.328	86.69
312.557	78.69
312.787	68.69
313.017	92.69
313.246	90.69
313.476	76.69
313.706	84.69
313.935	74.69
314.165	77.69
314.394	76.69
314.624	74.69
314.853	96.69
315.083	70.69
315.312	60.69
315.542	68.69
315.771	72.69
316.001	75.69
316.23	76.69
316.46	78.69
316.689	80.69
316.919	91.69
317.148	79.69
317.377	73.69
317.607	95.69
317.836	81.69
318.065	62.69
318.295	73.69
318.524	93.69
318.753	86.69
318.983	79.69
319.212	77.69
319.441	82.69
319.67	72.69
319.9	73.69
320.129	75.69
320.358	82.69
320.587	89.69
320.816	77.69
321.046	89.69
321.275	79.69
321.504	78.69
321.733	62.69
321.962	79.69
322.191	73.69
322.42	65.69
322.649	78.69
322.878	71.69
323.108	77.69
323.337	80.69
323.566	86.69
323.795	68.69
324.024	82.69
324.253	79.69
324.482	86.69
324.71	88.69
324.939	94.69
325.168	77.69
325.397	74.69
325.626	64.69
325.855	73.69
326.084	83.69
326.313	82.69
326.542	82.69
326.77	73.69
326.999	71.69
327.228	80.69
327.457	55.69
327.686	66.69
327.914	75.69
328.143	78.69
328.372	74.69
328.6	66.69
328.829	75.69
329.058	90.69
329.287	73.69
329.515	82.69
329.744	71.69
329.972	68.69
330.201	64.69
330.43	84.69
330.658	74.69
330.887	91.69
331.115	72.69
331.344	80.69
331.572	75.69
331.801	72.69
332.03	86.69
332.258	70.69
332.486	72.69
332.715	74.69
332.943	73.69
333.172	73.69
333.4	74.69
333.629	75.69
333.857	78.69
334.085	79.69
334.314	79.69
334.542	73.69
334.771	89.69
334.999	73.69
335.227	85.69
335.455	71.69
335.684	90.69
335.912	86.69
336.14	62.69
336.369	76.69
336.597	84.69
336.825	72.69
337.053	77.69
337.281	79.69
337.51	76.69
337.738	84.69
337.966	74.69
338.194	84.69
338.422	74.69
338.65	68.69
338.878	81.69
339.106	81.69
339.334	90.69
339.562	82.69
339.79	86.69
340.018	81.69
340.246	72.69
340.474	92.69
340.702	59.69
340.93	88.69
341.158	70.69
341.386	79.69
341.614	86.69
341.842	92.69
342.07	72.69
342.298	87.69
342.526	67.69
342.754	70.69
342.981	75.69
343.209	86.69
343.437	74.69
343.665	84.69
343.893	74.69
344.12	83.69
344.348	81.69
344.576	70.69
344.804	65.69
345.031	67.69
345.259	71.69
345.487	76.69
345.714	72.69
345.942	77.69
346.17	76.69
346.397	77.69
346.625	65.69
346.853	71.69
347.08	73.69
347.308	80.69
347.535	79.69
347.763	71.69
347.99	78.69
348.218	77.69
348.445	84.69
348.673	81.69
348.9	73.69
349.128	84.69
349.355	71.69
349.583	82.69
349.81	63.69
350.037	75.69
350.265	79.69
350.492	76.69
350.72	86.69
350.947	67.69
351.174	77.69
351.402	88.69
351.629	72.69
351.856	86.69
352.083	76.69
352.311	76.69
352.538	82.69
352.765	73.69
352.992	60.69
353.22	83.69
353.447	75.69
353.674	81.69
353.901	86.69
354.128	68.69
354.355	74.69
354.583	80.69
354.81	65.69
355.037	77.69
355.264	60.69
355.491	83.69
355.718	78.69
355.945	88.69
356.172	68.69
356.399	77.69
356.626	90.69
356.853	75.69
357.08	72.69
357.307	71.69
357.534	67.69
357.761	86.69
357.988	68.69
358.215	77.69
358.441	81.69
358.668	68.69
358.895	75.69
359.122	75.69
359.349	74.69
359.576	80.69
359.802	89.69
360.029	78.69
360.256	90.69
360.483	70.69
360.709	65.69
360.936	77.69
361.163	71.69
361.39	81.69
361.616	73.69
361.843	75.69
362.07	83.69
362.296	81.69
362.523	70.69
362.749	76.69
362.976	77.69
363.203	81.69
363.429	83.69
363.656	83.69
363.882	80.69
364.109	81.69
364.335	93.69
364.562	76.69
364.788	68.69
365.015	66.69
365.241	77.69
365.468	59.69
365.694	82.69
365.92	85.69
366.147	80.69
366.373	75.69
366.599	75.69
366.826	73.69
367.052	86.69
367.278	73.69
367.505	61.69
367.731	68.69
367.957	56.69
368.184	83.69
368.41	78.69
368.636	80.69
368.862	75.69
369.089	69.69
369.315	68.69
369.541	86.69
369.767	81.69
369.993	74.69
370.219	69.69
370.445	69.69
370.672	77.69
370.898	64.69
371.124	72.69
371.35	83.69
371.576	70.69
371.802	88.69
372.028	83.69
372.254	95.69
372.48	91.69
372.706	66.69
372.932	76.69
373.158	80.69
373.384	65.69
373.61	81.69
373.835	81.69
374.061	70.69
374.287	69.69
374.513	81.69
374.739	76.69
374.965	81.69
375.191	76.69
375.416	72.69
375.642	72.69
375.868	79.69
376.094	75.69
376.319	66.69
376.545	73.69
376.771	76.69
376.997	86.69
377.222	76.69
377.448	68.69
377.674	70.69
377.899	74.69
378.125	77.69
378.35	77.69
378.576	71.69
378.802	73.69
379.027	70.69
379.253	87.69
379.478	66.69
379.704	84.69
379.929	87.69
380.155	77.69
380.38	86.69
380.606	60.69
380.831	77.69
381.057	93.69
381.282	82.69
381.507	74.69
381.733	78.69
381.958	56.69
382.184	82.69
382.409	76.69
382.634	71.69
382.86	79.69
383.085	76.69
383.31	77.69
383.535	74.69
383.761	69.69
383.986	74.69
384.211	93.69
384.436	80.69
384.662	76.69
384.887	70.69
385.112	73.69
385.337	75.69
385.562	83.69
385.787	78.69
386.013	73.69
386.238	79.69
386.463	82.69
386.688	81.69
386.913	73.69
387.138	77.69
387.363	72.69
387.588	79.69
387.813	84.69
388.038	87.69
388.263	81.69
388.488	66.69
388.713	79.69
388.938	71.69
389.163	72.69
389.387	76.69
389.612	81.69
389.837	88.69
390.062	66.69
390.287	90.69
390.512	72.69
390.736	73.69
390.961	78.69
391.186	64.69
391.411	81.69
391.636	74.69
391.86	73.69
392.085	57.69
392.31	70.69
392.534	59.69
392.759	75.69
392.984	83.69
393.208	75.69
393.433	80.69
393.658	79.69
393.882	91.69
394.107	77.69
394.331	73.69
394.556	78.69
394.78	73.69
395.005	82.69
395.229	63.69
395.454	73.69
395.678	82.69
395.903	93.69
396.127	96.69
396.352	82.69
396.576	87.69
396.801	89.69
397.025	99.69
397.249	90.69
397.474	73.69
397.698	62.69
397.922	74.69
398.147	67.69
398.371	74.69
398.595	83.69
398.82	78.69
399.044	66.69
399.268	83.69
399.492	76.69
399.717	71.69
399.941	70.69
400.165	81.69
400.389	76.69
400.613	96.69
400.837	86.69
401.062	71.69
401.286	71.69
401.51	69.69
401.734	79.69
401.958	78.69
402.182	73.69
402.406	96.69
402.63	88.69
402.854	77.69
403.078	78.69
403.302	73.69
403.526	83.69
403.75	77.69
403.974	77.69
404.198	93.69
404.422	82.69
404.645	70.69
404.869	81.69
405.093	68.69
405.317	91.69
405.541	57.69
405.765	70.69
405.988	70.69
406.212	66.69
406.436	81.69
406.66	82.69
406.883	80.69
407.107	76.69
407.331	80.69
407.555	81.69
407.778	75.69
408.002	86.69
408.226	79.69
408.449	73.69
408.673	77.69
408.896	62.69
409.12	86.69
409.344	64.69
409.567	66.69
409.791	80.69
410.014	79.69
410.238	72.69
410.461	86.69
410.685	86.69
410.908	86.69
411.132	79.69
411.355	61.69
411.578	80.69
411.802	75.69
412.025	79.69
412.249	73.69
412.472	73.69
412.695	73.69
412.919	74.69
413.142	74.69
413.365	74.69
413.589	70.69
413.812	74.69
414.035	79.69
414.258	81.69
414.482	97.69
414.705	88.69
414.928	78.69
415.151	81.69
415.374	88.69
415.597	79.69
415.821	81.69
416.044	76.69
416.267	65.69
416.49	71.69
416.713	70.69
416.936	72.69
417.159	76.69
417.382	71.69
417.605	72.69
417.828	89.69
418.051	68.69
418.274	76.69
418.497	85.69
418.72	82.69
418.943	90.69
419.166	88.69
419.389	94.69
419.611	70.69
419.834	83.69
420.057	87.69
420.28	76.69
420.503	96.69
420.726	77.69
420.948	88.69
421.171	79.69
421.394	72.69
421.617	79.69
421.839	76.69
422.062	81.69
422.285	87.69
422.507	75.69
422.73	65.69
422.953	72.69
423.175	80.69
423.398	59.69
423.621	80.69
423.843	95.69
424.066	94.69
424.288	90.69
424.511	81.69
424.733	68.69
424.956	75.69
425.178	79.69
425.401	91.69
425.623	80.69
425.846	86.69
426.068	79.69
426.291	80.69
426.513	76.69
426.735	76.69
426.958	93.69
427.18	75.69
427.402	90.69
427.625	77.69
427.847	79.69
428.069	79.69
428.292	70.69
428.514	71.69
428.736	80.69
428.958	74.69
429.181	78.69
429.403	98.69
429.625	81.69
429.847	79.69
430.069	79.69
430.292	74.69
430.514	83.69
430.736	78.69
430.958	89.69
431.18	67.69
431.402	80.69
431.624	86.69
431.846	79.69
432.068	78.69
432.29	78.69
432.512	78.69
432.734	83.69
432.956	72.69
433.178	85.69
433.4	84.69
433.622	82.69
433.844	74.69
434.066	79.69
434.287	69.69
434.509	84.69
434.731	72.69
434.953	71.69
435.175	60.69
435.397	72.69
435.618	70.69
435.84	83.69
436.062	74.69
436.284	75.69
436.505	70.69
436.727	82.69
436.949	74.69
437.17	83.69
437.392	77.69
437.614	79.69
437.835	71.69
438.057	82.69
438.278	84.69
438.5	86.69
438.721	62.69
438.943	69.69
439.165	82.69
439.386	75.69
439.608	84.69
439.829	78.69
440.05	85.69
440.272	73.69
440.493	67.69
440.715	65.69
440.936	74.69
441.158	70.69
441.379	65.69
441.6	80.69
441.822	80.69
442.043	81.69
442.264	79.69
442.486	86.69
442.707	78.69
442.928	72.69
443.149	74.69
443.371	79.69
443.592	76.69
443.813	80.69
444.034	71.69
444.255	97.69
444.476	77.69
444.698	78.69
444.919	86.69
445.14	144.69
445.361	108.69
445.582	86.69
445.803	66.69
446.024	70.69
446.245	91.69
446.466	82.69
446.687	72.69
446.908	79.69
447.129	83.69
447.35	60.69
447.571	74.69
447.792	84.69
448.013	80.69
448.234	92.69
448.455	72.69
448.675	74.69
448.896	75.69
449.117	68.69
449.338	90.69
449.559	79.69
449.779	89.69
450	82.69
450.221	79.69
450.442	77.69
450.662	80.69
450.883	85.69
451.104	72.69
451.324	75.69
451.545	78.69
451.766	85.69
451.986	69.69
452.207	66.69
452.428	74.69
452.648	78.69
452.869	78.69
453.089	83.69
453.31	83.69
453.53	75.69
453.751	67.69
453.971	77.69
454.192	77.69
454.412	71.69
454.633	86.69
454.853	79.69
455.073	68.69
455.294	87.69
455.514	80.69
455.734	87.69
455.955	83.69
456.175	87.69
456.395	74.69
456.616	68.69
456.836	71.69
457.056	70.69
457.276	78.69
457.497	87.69
457.717	75.69
457.937	82.69
458.157	70.69
458.377	77.69
458.598	75.69
458.818	84.69
459.038	80.69
459.258	83.69
459.478	67.69
459.698	78.69
459.918	76.69
460.138	72.69
460.358	77.69
460.578	78.69
460.798	81.69
461.018	62.69
461.238	89.69
461.458	82.69
461.678	82.69
461.898	79.69
462.118	75.69
462.338	86.69
462.558	73.69
462.777	71.69
462.997	73.69
463.217	82.69
463.437	75.69
463.657	77.69
463.876	68.69
464.096	73.69
464.316	79.69
464.536	78.69
464.755	87.69
464.975	76.69
465.195	74.69
465.414	74.69
465.634	82.69
465.854	75.69
466.073	82.69
466.293	74.69
466.512	87.69
466.732	86.69
466.951	86.69
467.171	81.69
467.391	73.69
467.61	81.69
467.829	77.69
468.049	79.69
468.268	91.69
468.488	81.69
468.707	75.69
468.927	86.69
469.146	81.69
469.365	64.69
469.585	76.69
469.804	76.69
470.023	90.69
470.243	94.69
470.462	88.69
470.681	86.69
470.901	63.69
471.12	70.69
471.339	87.69
471.558	81.69
471.777	70.69
471.997	67.69
472.216	82.69
472.435	76.69
472.654	79.69
472.873	77.69
473.092	77.69
473.311	83.69
473.53	91.69
473.749	86.69
473.968	76.69
474.187	100.69
474.406	63.69
474.625	77.69
474.844	89.69
475.063	73.69
475.282	83.69
475.501	87.69
475.72	73.69
475.939	73.69
476.158	76.69
476.377	74.69
476.596	72.69
476.814	73.69
477.033	75.69
477.252	85.69
477.471	80.69
477.69	70.69
477.908	86.69
478.127	72.69
478.346	80.69
478.564	88.69
478.783	86.69
479.002	83.69
479.22	72.69
479.439	76.69
479.658	80.69
479.876	82.69
480.095	67.69
480.313	76.69
480.532	75.69
480.751	76.69
480.969	78.69
481.188	64.69
481.406	90.69
481.624	85.69
481.843	82.69
482.061	86.69
482.28	84.69
482.498	84.69
482.717	79.69
482.935	70.69
483.153	98.69
483.372	88.69
483.59	82.69
483.808	68.69
484.027	83.69
484.245	83.69
484.463	68.69
484.681	80.69
484.9	73.69
485.118	83.69
485.336	75.69
485.554	80.69
485.772	77.69
485.99	88.69
486.209	88.69
486.427	86.69
486.645	86.69
486.863	86.69
487.081	87.69
487.299	82.69
487.517	64.69
487.735	92.69
487.953	79.69
488.171	99.69
488.389	82.69
488.607	74.69
488.825	74.69
489.043	71.69
489.261	82.69
489.479	91.69
489.696	84.69
489.914	68.69
490.132	89.69
490.35	81.69
490.568	90.69
490.786	87.69
491.003	81.69
491.221	60.69
491.439	64.69
491.657	85.69
491.874	74.69
492.092	90.69
492.31	89.69
492.527	76.69
492.745	100.69
492.963	82.69
493.18	94.69
493.398	91.69
493.615	101.69
493.833	81.69
494.05	95.69
494.268	96.69
494.485	83.69
494.703	80.69
494.92	86.69
495.138	99.69
495.355	84.69
495.573	95.69
495.79	83.69
496.008	73.69
496.225	78.69
496.442	86.69
496.66	86.69
496.877	94.69
497.094	71.69
497.312	77.69
497.529	89.69
497.746	87.69
497.963	83.69
498.181	81.69
498.398	93.69
498.615	91.69
498.832	81.69
499.049	86.69
499.267	77.69
499.484	78.69
499.701	81.69
499.918	81.69
500.135	87.69
500.352	82.69
500.569	94.69
500.786	71.69
501.003	74.69
501.22	65.69
501.437	78.69
501.654	88.69
501.871	88.69
502.088	65.69
502.305	94.69
502.522	71.69
502.739	84.69
502.956	84.69
503.172	80.69
503.389	72.69
503.606	80.69
503.823	86.69
504.04	86.69
504.256	85.69
504.473	73.69
504.69	77.69
504.907	82.69
505.123	91.69
505.34	90.69
505.557	76.69
505.773	87.69
505.99	57.69
506.207	92.69
506.423	76.69
506.64	72.69
506.856	85.69
507.073	81.69
507.289	81.69
507.506	85.69
507.722	63.69
507.939	79.69
508.155	91.69
508.372	75.69
508.588	78.69
508.805	72.69
509.021	72.69
509.238	61.69
509.454	78.69
509.67	83.69
509.887	80.69
510.103	88.69
510.319	90.69
510.536	78.69
510.752	68.69
510.968	71.69
511.184	90.69
511.401	81.69
511.617	70.69
511.833	87.69
512.049	84.69
512.265	84.69
512.481	77.69
512.698	87.69
512.914	96.69
513.13	80.69
513.346	72.69
513.562	67.69
513.778	70.69
513.994	75.69
514.21	87.69
514.426	74.69
514.642	81.69
514.858	72.69
515.074	66.69
515.29	83.69
515.506	81.69
515.721	68.69
515.937	81.69
516.153	77.69
516.369	67.69
516.585	80.69
516.801	82.69
517.016	99.69
517.232	71.69
517.448	87.69
517.664	83.69
517.879	80.69
518.095	87.69
518.311	78.69
518.527	77.69
518.742	87.69
518.958	82.69
519.173	79.69
519.389	86.69
519.605	81.69
519.82	76.69
520.036	85.69
520.251	80.69
