Data from Alignment_HRD10591_00005.txt Node
Date: Fri Dec 27 14:18:28 EST 2024
User: Yrep
Spectrometer: HR+D1059
Trigger mode: 1
Integration Time (sec): 1.000000E-1
Scans to average: 1
Electric dark correction enabled: true
Nonlinearity correction enabled: false
Boxcar width: 0
XAxis mode: Wavelengths
Number of Pixels in Spectrum: 2048
>>>>>Begin Spectral Data<<<<<
223.165	-6.81
223.4	-6.81
223.635	-6.81
223.869	-27.81
224.104	-24.81
224.338	-7.81
224.573	-19.81
224.808	2.19
225.042	5.19
225.277	-7.81
225.511	2.19
225.746	-1.81
225.98	-3.81
226.215	9.19
226.449	8.19
226.683	21.19
226.918	19.19
227.152	33.19
227.387	40.19
227.621	47.19
227.856	33.19
228.09	42.19
228.324	55.19
228.559	56.19
228.793	49.19
229.027	62.19
229.262	65.19
229.496	60.19
229.73	57.19
229.964	76.19
230.199	68.19
230.433	76.19
230.667	77.19
230.901	69.19
231.136	68.19
231.37	66.19
231.604	70.19
231.838	73.19
232.072	101.19
232.306	78.19
232.541	88.19
232.775	90.19
233.009	74.19
233.243	79.19
233.477	90.19
233.711	91.19
233.945	66.19
234.179	69.19
234.413	73.19
234.647	79.19
234.881	96.19
235.115	87.19
235.349	65.19
235.583	93.19
235.817	72.19
236.051	92.19
236.285	79.19
236.519	66.19
236.753	72.19
236.987	67.19
237.221	76.19
237.455	75.19
237.689	88.19
237.922	88.19
238.156	74.19
238.39	77.19
238.624	77.19
238.858	67.19
239.091	72.19
239.325	69.19
239.559	90.19
239.793	67.19
240.027	88.19
240.26	83.19
240.494	64.19
240.728	80.19
240.961	66.19
241.195	76.19
241.429	80.19
241.662	71.19
241.896	79.19
242.13	72.19
242.363	76.19
242.597	79.19
242.83	68.19
243.064	76.19
243.298	76.19
243.531	70.19
243.765	92.19
243.998	71.19
244.232	66.19
244.465	73.19
244.699	76.19
244.932	72.19
245.166	80.19
245.399	77.19
245.633	67.19
245.866	75.19
246.099	75.19
246.333	80.19
246.566	76.19
246.8	73.19
247.033	79.19
247.266	71.19
247.5	72.19
247.733	72.19
247.966	77.19
248.2	68.19
248.433	89.19
248.666	80.19
248.899	87.19
249.133	68.19
249.366	88.19
249.599	74.19
249.832	79.19
250.066	64.19
250.299	78.19
250.532	86.19
250.765	79.19
250.998	81.19
251.231	95.19
251.465	57.19
251.698	72.19
251.931	72.19
252.164	81.19
252.397	73.19
252.63	88.19
252.863	70.19
253.096	77.19
253.329	75.19
253.562	68.19
253.795	73.19
254.028	80.19
254.261	82.19
254.494	88.19
254.727	81.19
254.96	76.19
255.193	75.19
255.426	77.19
255.659	84.19
255.892	84.19
256.124	65.19
256.357	70.19
256.59	77.19
256.823	83.19
257.056	78.19
257.289	72.19
257.521	90.19
257.754	85.19
257.987	69.19
258.22	71.19
258.452	72.19
258.685	79.19
258.918	77.19
259.151	86.19
259.383	77.19
259.616	85.19
259.849	85.19
260.081	74.19
260.314	66.19
260.547	69.19
260.779	83.19
261.012	67.19
261.244	85.19
261.477	97.19
261.71	59.19
261.942	72.19
262.175	74.19
262.407	79.19
262.64	64.19
262.872	80.19
263.105	81.19
263.337	92.19
263.57	82.19
263.802	79.19
264.035	81.19
264.267	70.19
264.499	72.19
264.732	80.19
264.964	82.19
265.197	64.19
265.429	89.19
265.661	91.19
265.894	85.19
266.126	81.19
266.358	81.19
266.591	79.19
266.823	87.19
267.055	80.19
267.287	76.19
267.52	65.19
267.752	85.19
267.984	93.19
268.216	81.19
268.448	83.19
268.681	92.19
268.913	74.19
269.145	71.19
269.377	88.19
269.609	84.19
269.841	79.19
270.073	86.19
270.306	81.19
270.538	82.19
270.77	79.19
271.002	95.19
271.234	73.19
271.466	74.19
271.698	91.19
271.93	72.19
272.162	95.19
272.394	80.19
272.626	89.19
272.858	90.19
273.09	99.19
273.322	93.19
273.553	70.19
273.785	73.19
274.017	96.19
274.249	97.19
274.481	93.19
274.713	95.19
274.945	81.19
275.176	84.19
275.408	78.19
275.64	82.19
275.872	67.19
276.104	78.19
276.335	81.19
276.567	86.19
276.799	86.19
277.031	81.19
277.262	88.19
277.494	67.19
277.726	83.19
277.957	80.19
278.189	76.19
278.421	80.19
278.652	75.19
278.884	84.19
279.115	78.19
279.347	98.19
279.579	80.19
279.81	80.19
280.042	86.19
280.273	84.19
280.505	79.19
280.736	99.19
280.968	95.19
281.199	75.19
281.431	88.19
281.662	92.19
281.894	81.19
282.125	63.19
282.356	68.19
282.588	80.19
282.819	84.19
283.051	76.19
283.282	65.19
283.513	73.19
283.745	65.19
283.976	83.19
284.207	84.19
284.439	82.19
284.67	74.19
284.901	74.19
285.132	75.19
285.364	82.19
285.595	86.19
285.826	74.19
286.057	83.19
286.288	85.19
286.52	78.19
286.751	76.19
286.982	74.19
287.213	76.19
287.444	76.19
287.675	81.19
287.906	79.19
288.138	81.19
288.369	73.19
288.6	86.19
288.831	86.19
289.062	79.19
289.293	83.19
289.524	89.19
289.755	85.19
289.986	88.19
290.217	81.19
290.448	85.19
290.679	77.19
290.91	75.19
291.141	69.19
291.371	95.19
291.602	93.19
291.833	75.19
292.064	91.19
292.295	89.19
292.526	64.19
292.757	89.19
292.987	96.19
293.218	78.19
293.449	91.19
293.68	91.19
293.91	98.19
294.141	95.19
294.372	76.19
294.603	76.19
294.833	75.19
295.064	73.19
295.295	83.19
295.525	77.19
295.756	92.19
295.987	80.19
296.217	79.19
296.448	86.19
296.679	99.19
296.909	81.19
297.14	90.19
297.37	78.19
297.601	81.19
297.831	79.19
298.062	58.19
298.292	70.19
298.523	70.19
298.753	91.19
298.984	90.19
299.214	87.19
299.445	98.19
299.675	87.19
299.905	92.19
300.136	73.19
300.366	89.19
300.597	82.19
300.827	88.19
301.057	74.19
301.288	68.19
301.518	89.19
301.748	88.19
301.979	95.19
302.209	92.19
302.439	88.19
302.669	89.19
302.9	91.19
303.13	81.19
303.36	82.19
303.59	85.19
303.82	90.19
304.051	92.19
304.281	75.19
304.511	84.19
304.741	59.19
304.971	82.19
305.201	84.19
305.431	80.19
305.661	88.19
305.891	79.19
306.121	86.19
306.352	88.19
306.582	88.19
306.812	76.19
307.042	78.19
307.272	79.19
307.502	81.19
307.731	73.19
307.961	80.19
308.191	96.19
308.421	84.19
308.651	94.19
308.881	75.19
309.111	91.19
309.341	89.19
309.571	73.19
309.8	95.19
310.03	80.19
310.26	84.19
310.49	84.19
310.72	74.19
310.949	85.19
311.179	70.19
311.409	82.19
311.639	95.19
311.868	90.19
312.098	76.19
312.328	86.19
312.557	82.19
312.787	73.19
313.017	79.19
313.246	76.19
313.476	76.19
313.706	77.19
313.935	82.19
314.165	88.19
314.394	68.19
314.624	98.19
314.853	83.19
315.083	70.19
315.312	88.19
315.542	88.19
315.771	84.19
316.001	90.19
316.23	85.19
316.46	88.19
316.689	82.19
316.919	96.19
317.148	87.19
317.377	91.19
317.607	88.19
317.836	80.19
318.065	75.19
318.295	83.19
318.524	96.19
318.753	85.19
318.983	86.19
319.212	85.19
319.441	85.19
319.67	76.19
319.9	92.19
320.129	81.19
320.358	98.19
320.587	68.19
320.816	79.19
321.046	83.19
321.275	92.19
321.504	88.19
321.733	85.19
321.962	87.19
322.191	90.19
322.42	92.19
322.649	95.19
322.878	84.19
323.108	85.19
323.337	69.19
323.566	90.19
323.795	90.19
324.024	79.19
324.253	88.19
324.482	89.19
324.71	83.19
324.939	96.19
325.168	78.19
325.397	81.19
325.626	87.19
325.855	84.19
326.084	88.19
326.313	90.19
326.542	78.19
326.77	86.19
326.999	90.19
327.228	76.19
327.457	77.19
327.686	83.19
327.914	85.19
328.143	82.19
328.372	83.19
328.6	69.19
328.829	72.19
329.058	76.19
329.287	94.19
329.515	98.19
329.744	84.19
329.972	77.19
330.201	78.19
330.43	76.19
330.658	68.19
330.887	77.19
331.115	90.19
331.344	86.19
331.572	79.19
331.801	80.19
332.03	79.19
332.258	71.19
332.486	76.19
332.715	77.19
332.943	74.19
333.172	86.19
333.4	83.19
333.629	70.19
333.857	93.19
334.085	84.19
334.314	85.19
334.542	82.19
334.771	84.19
334.999	84.19
335.227	76.19
335.455	80.19
335.684	83.19
335.912	89.19
336.14	83.19
336.369	81.19
336.597	68.19
336.825	66.19
337.053	78.19
337.281	82.19
337.51	74.19
337.738	82.19
337.966	75.19
338.194	79.19
338.422	79.19
338.65	88.19
338.878	88.19
339.106	83.19
339.334	74.19
339.562	80.19
339.79	80.19
340.018	76.19
340.246	84.19
340.474	73.19
340.702	77.19
340.93	91.19
341.158	90.19
341.386	79.19
341.614	74.19
341.842	78.19
342.07	92.19
342.298	71.19
342.526	72.19
342.754	78.19
342.981	82.19
343.209	78.19
343.437	101.19
343.665	80.19
343.893	62.19
344.12	98.19
344.348	80.19
344.576	100.19
344.804	90.19
345.031	83.19
345.259	88.19
345.487	76.19
345.714	95.19
345.942	86.19
346.17	89.19
346.397	91.19
346.625	91.19
346.853	93.19
347.08	82.19
347.308	95.19
347.535	68.19
347.763	76.19
347.99	83.19
348.218	91.19
348.445	87.19
348.673	90.19
348.9	81.19
349.128	78.19
349.355	96.19
349.583	73.19
349.81	84.19
350.037	85.19
350.265	81.19
350.492	79.19
350.72	91.19
350.947	77.19
351.174	76.19
351.402	79.19
351.629	89.19
351.856	84.19
352.083	79.19
352.311	85.19
352.538	91.19
352.765	94.19
352.992	99.19
353.22	78.19
353.447	87.19
353.674	76.19
353.901	80.19
354.128	80.19
354.355	75.19
354.583	74.19
354.81	73.19
355.037	96.19
355.264	67.19
355.491	86.19
355.718	78.19
355.945	88.19
356.172	73.19
356.399	74.19
356.626	72.19
356.853	72.19
357.08	86.19
357.307	86.19
357.534	63.19
357.761	73.19
357.988	92.19
358.215	79.19
358.441	79.19
358.668	78.19
358.895	83.19
359.122	70.19
359.349	79.19
359.576	66.19
359.802	85.19
360.029	99.19
360.256	76.19
360.483	74.19
360.709	83.19
360.936	77.19
361.163	85.19
361.39	77.19
361.616	75.19
361.843	88.19
362.07	70.19
362.296	78.19
362.523	77.19
362.749	80.19
362.976	75.19
363.203	92.19
363.429	84.19
363.656	84.19
363.882	81.19
364.109	80.19
364.335	70.19
364.562	83.19
364.788	78.19
365.015	68.19
365.241	76.19
365.468	96.19
365.694	79.19
365.92	83.19
366.147	80.19
366.373	69.19
366.599	78.19
366.826	81.19
367.052	82.19
367.278	78.19
367.505	80.19
367.731	89.19
367.957	94.19
368.184	74.19
368.41	95.19
368.636	88.19
368.862	94.19
369.089	82.19
369.315	78.19
369.541	83.19
369.767	85.19
369.993	73.19
370.219	83.19
370.445	66.19
370.672	93.19
370.898	87.19
371.124	78.19
371.35	96.19
371.576	88.19
371.802	91.19
372.028	85.19
372.254	84.19
372.48	72.19
372.706	82.19
372.932	74.19
373.158	82.19
373.384	77.19
373.61	81.19
373.835	81.19
374.061	82.19
374.287	71.19
374.513	99.19
374.739	68.19
374.965	70.19
375.191	82.19
375.416	79.19
375.642	98.19
375.868	83.19
376.094	75.19
376.319	87.19
376.545	82.19
376.771	78.19
376.997	79.19
377.222	81.19
377.448	84.19
377.674	76.19
377.899	81.19
378.125	74.19
378.35	79.19
378.576	78.19
378.802	83.19
379.027	77.19
379.253	98.19
379.478	76.19
379.704	81.19
379.929	77.19
380.155	72.19
380.38	84.19
380.606	99.19
380.831	88.19
381.057	82.19
381.282	78.19
381.507	79.19
381.733	78.19
381.958	67.19
382.184	83.19
382.409	65.19
382.634	76.19
382.86	80.19
383.085	87.19
383.31	72.19
383.535	77.19
383.761	72.19
383.986	73.19
384.211	82.19
384.436	94.19
384.662	88.19
384.887	79.19
385.112	91.19
385.337	61.19
385.562	77.19
385.787	78.19
386.013	81.19
386.238	67.19
386.463	75.19
386.688	81.19
386.913	82.19
387.138	75.19
387.363	82.19
387.588	81.19
387.813	83.19
388.038	69.19
388.263	80.19
388.488	71.19
388.713	80.19
388.938	81.19
389.163	75.19
389.387	84.19
389.612	80.19
389.837	64.19
390.062	79.19
390.287	73.19
390.512	83.19
390.736	73.19
390.961	75.19
391.186	75.19
391.411	102.19
391.636	82.19
391.86	79.19
392.085	62.19
392.31	93.19
392.534	71.19
392.759	78.19
392.984	82.19
393.208	90.19
393.433	75.19
393.658	94.19
393.882	99.19
394.107	104.19
394.331	83.19
394.556	91.19
394.78	88.19
395.005	88.19
395.229	64.19
395.454	81.19
395.678	85.19
395.903	84.19
396.127	84.19
396.352	73.19
396.576	90.19
396.801	74.19
397.025	85.19
397.249	80.19
397.474	75.19
397.698	82.19
397.922	84.19
398.147	80.19
398.371	89.19
398.595	83.19
398.82	70.19
399.044	74.19
399.268	91.19
399.492	84.19
399.717	82.19
399.941	73.19
400.165	82.19
400.389	85.19
400.613	71.19
400.837	88.19
401.062	82.19
401.286	85.19
401.51	80.19
401.734	82.19
401.958	86.19
402.182	82.19
402.406	95.19
402.63	90.19
402.854	89.19
403.078	76.19
403.302	81.19
403.526	80.19
403.75	82.19
403.974	77.19
404.198	86.19
404.422	88.19
404.645	81.19
404.869	77.19
405.093	89.19
405.317	91.19
405.541	85.19
405.765	67.19
405.988	83.19
406.212	85.19
406.436	99.19
406.66	88.19
406.883	91.19
407.107	76.19
407.331	79.19
407.555	83.19
407.778	59.19
408.002	79.19
408.226	70.19
408.449	69.19
408.673	72.19
408.896	92.19
409.12	95.19
409.344	90.19
409.567	81.19
409.791	88.19
410.014	72.19
410.238	81.19
410.461	68.19
410.685	81.19
410.908	77.19
411.132	92.19
411.355	82.19
411.578	80.19
411.802	81.19
412.025	77.19
412.249	79.19
412.472	92.19
412.695	81.19
412.919	76.19
413.142	73.19
413.365	66.19
413.589	73.19
413.812	83.19
414.035	79.19
414.258	74.19
414.482	84.19
414.705	85.19
414.928	78.19
415.151	88.19
415.374	85.19
415.597	79.19
415.821	84.19
416.044	94.19
416.267	84.19
416.49	97.19
416.713	81.19
416.936	74.19
417.159	88.19
417.382	83.19
417.605	82.19
417.828	87.19
418.051	81.19
418.274	84.19
418.497	89.19
418.72	78.19
418.943	82.19
419.166	77.19
419.389	85.19
419.611	68.19
419.834	83.19
420.057	72.19
420.28	75.19
420.503	84.19
420.726	75.19
420.948	68.19
421.171	69.19
421.394	96.19
421.617	79.19
421.839	91.19
422.062	85.19
422.285	72.19
422.507	90.19
422.73	79.19
422.953	84.19
423.175	83.19
423.398	90.19
423.621	86.19
423.843	90.19
424.066	88.19
424.288	84.19
424.511	69.19
424.733	71.19
424.956	96.19
425.178	69.19
425.401	69.19
425.623	81.19
425.846	90.19
426.068	69.19
426.291	73.19
426.513	75.19
426.735	89.19
426.958	90.19
427.18	76.19
427.402	78.19
427.625	77.19
427.847	77.19
428.069	65.19
428.292	83.19
428.514	88.19
428.736	86.19
428.958	73.19
429.181	82.19
429.403	91.19
429.625	80.19
429.847	81.19
430.069	74.19
430.292	80.19
430.514	88.19
430.736	76.19
430.958	79.19
431.18	95.19
431.402	86.19
431.624	84.19
431.846	77.19
432.068	73.19
432.29	78.19
432.512	85.19
432.734	81.19
432.956	84.19
433.178	79.19
433.4	99.19
433.622	77.19
433.844	78.19
434.066	82.19
434.287	73.19
434.509	90.19
434.731	90.19
434.953	82.19
435.175	78.19
435.397	85.19
435.618	69.19
435.84	91.19
436.062	93.19
436.284	95.19
436.505	72.19
436.727	64.19
436.949	85.19
437.17	80.19
437.392	73.19
437.614	73.19
437.835	73.19
438.057	73.19
438.278	87.19
438.5	86.19
438.721	85.19
438.943	97.19
439.165	78.19
439.386	76.19
439.608	86.19
439.829	88.19
440.05	87.19
440.272	82.19
440.493	92.19
440.715	81.19
440.936	95.19
441.158	86.19
441.379	96.19
441.6	80.19
441.822	76.19
442.043	75.19
442.264	73.19
442.486	80.19
442.707	77.19
442.928	99.19
443.149	83.19
443.371	78.19
443.592	74.19
443.813	76.19
444.034	84.19
444.255	72.19
444.476	86.19
444.698	84.19
444.919	84.19
445.14	112.19
445.361	106.19
445.582	89.19
445.803	76.19
446.024	85.19
446.245	99.19
446.466	93.19
446.687	89.19
446.908	73.19
447.129	90.19
447.35	83.19
447.571	89.19
447.792	84.19
448.013	90.19
448.234	70.19
448.455	81.19
448.675	86.19
448.896	85.19
449.117	77.19
449.338	84.19
449.559	94.19
449.779	90.19
450	86.19
450.221	88.19
450.442	76.19
450.662	89.19
450.883	83.19
451.104	83.19
451.324	79.19
451.545	83.19
451.766	91.19
451.986	85.19
452.207	72.19
452.428	73.19
452.648	83.19
452.869	94.19
453.089	84.19
453.31	83.19
453.53	84.19
453.751	80.19
453.971	79.19
454.192	77.19
454.412	78.19
454.633	78.19
454.853	88.19
455.073	91.19
455.294	89.19
455.514	78.19
455.734	85.19
455.955	93.19
456.175	77.19
456.395	86.19
456.616	77.19
456.836	86.19
457.056	88.19
457.276	78.19
457.497	70.19
457.717	76.19
457.937	89.19
458.157	74.19
458.377	86.19
458.598	84.19
458.818	76.19
459.038	81.19
459.258	88.19
459.478	82.19
459.698	74.19
459.918	82.19
460.138	85.19
460.358	92.19
460.578	89.19
460.798	87.19
461.018	82.19
461.238	86.19
461.458	94.19
461.678	92.19
461.898	88.19
462.118	86.19
462.338	76.19
462.558	76.19
462.777	81.19
462.997	85.19
463.217	70.19
463.437	74.19
463.657	68.19
463.876	75.19
464.096	79.19
464.316	79.19
464.536	88.19
464.755	60.19
464.975	78.19
465.195	92.19
465.414	81.19
465.634	78.19
465.854	83.19
466.073	76.19
466.293	72.19
466.512	91.19
466.732	91.19
466.951	100.19
467.171	78.19
467.391	89.19
467.61	87.19
467.829	80.19
468.049	87.19
468.268	82.19
468.488	95.19
468.707	78.19
468.927	85.19
469.146	85.19
469.365	95.19
469.585	84.19
469.804	100.19
470.023	79.19
470.243	84.19
470.462	87.19
470.681	103.19
470.901	81.19
471.12	79.19
471.339	84.19
471.558	60.19
471.777	82.19
471.997	86.19
472.216	76.19
472.435	72.19
472.654	70.19
472.873	86.19
473.092	97.19
473.311	81.19
473.53	89.19
473.749	77.19
473.968	80.19
474.187	80.19
474.406	86.19
474.625	90.19
474.844	78.19
475.063	79.19
475.282	81.19
475.501	86.19
475.72	91.19
475.939	80.19
476.158	82.19
476.377	85.19
476.596	77.19
476.814	83.19
477.033	79.19
477.252	77.19
477.471	83.19
477.69	77.19
477.908	83.19
478.127	81.19
478.346	78.19
478.564	82.19
478.783	86.19
479.002	84.19
479.22	82.19
479.439	92.19
479.658	86.19
479.876	88.19
480.095	81.19
480.313	92.19
480.532	81.19
480.751	93.19
480.969	94.19
481.188	86.19
481.406	86.19
481.624	74.19
481.843	75.19
482.061	88.19
482.28	79.19
482.498	98.19
482.717	84.19
482.935	90.19
483.153	87.19
483.372	88.19
483.59	80.19
483.808	100.19
484.027	83.19
484.245	77.19
484.463	88.19
484.681	90.19
484.9	85.19
485.118	98.19
485.336	102.19
485.554	106.19
485.772	99.19
485.99	88.19
486.209	80.19
486.427	78.19
486.645	92.19
486.863	80.19
487.081	80.19
487.299	85.19
487.517	89.19
487.735	96.19
487.953	92.19
488.171	80.19
488.389	104.19
488.607	92.19
488.825	76.19
489.043	75.19
489.261	96.19
489.479	89.19
489.696	84.19
489.914	94.19
490.132	80.19
490.35	72.19
490.568	81.19
490.786	91.19
491.003	86.19
491.221	71.19
491.439	87.19
491.657	98.19
491.874	79.19
492.092	92.19
492.31	78.19
492.527	82.19
492.745	98.19
492.963	85.19
493.18	77.19
493.398	92.19
493.615	84.19
493.833	89.19
494.05	91.19
494.268	81.19
494.485	99.19
494.703	88.19
494.92	94.19
495.138	91.19
495.355	90.19
495.573	85.19
495.79	86.19
496.008	91.19
496.225	78.19
496.442	81.19
496.66	83.19
496.877	96.19
497.094	96.19
497.312	76.19
497.529	89.19
497.746	86.19
497.963	78.19
498.181	78.19
498.398	92.19
498.615	76.19
498.832	77.19
499.049	70.19
499.267	98.19
499.484	57.19
499.701	82.19
499.918	94.19
500.135	85.19
500.352	90.19
500.569	82.19
500.786	92.19
501.003	90.19
501.22	88.19
501.437	90.19
501.654	74.19
501.871	86.19
502.088	83.19
502.305	98.19
502.522	81.19
502.739	81.19
502.956	75.19
503.172	77.19
503.389	89.19
503.606	89.19
503.823	70.19
504.04	82.19
504.256	85.19
504.473	92.19
504.69	84.19
504.907	95.19
505.123	78.19
505.34	82.19
505.557	82.19
505.773	85.19
505.99	84.19
506.207	87.19
506.423	100.19
506.64	81.19
506.856	82.19
507.073	81.19
507.289	74.19
507.506	86.19
507.722	91.19
507.939	88.19
508.155	94.19
508.372	89.19
508.588	84.19
508.805	79.19
509.021	72.19
509.238	74.19
509.454	73.19
509.67	90.19
509.887	79.19
510.103	75.19
510.319	89.19
510.536	97.19
510.752	79.19
510.968	88.19
511.184	81.19
511.401	82.19
511.617	84.19
511.833	92.19
512.049	83.19
512.265	85.19
512.481	68.19
512.698	77.19
512.914	74.19
513.13	79.19
513.346	85.19
513.562	80.19
513.778	91.19
513.994	78.19
514.21	83.19
514.426	84.19
514.642	84.19
514.858	90.19
515.074	81.19
515.29	88.19
515.506	74.19
515.721	75.19
515.937	76.19
516.153	81.19
516.369	70.19
516.585	89.19
516.801	86.19
517.016	99.19
517.232	83.19
517.448	71.19
517.664	75.19
517.879	72.19
518.095	92.19
518.311	77.19
518.527	77.19
518.742	88.19
518.958	73.19
519.173	81.19
519.389	88.19
519.605	92.19
519.82	78.19
520.036	94.19
520.251	85.19
