Data from Alignment_HRD10591_00006.txt Node
Date: Fri Dec 27 14:18:29 EST 2024
User: Yrep
Spectrometer: HR+D1059
Trigger mode: 1
Integration Time (sec): 1.000000E-1
Scans to average: 1
Electric dark correction enabled: true
Nonlinearity correction enabled: false
Boxcar width: 0
XAxis mode: Wavelengths
Number of Pixels in Spectrum: 2048
>>>>>Begin Spectral Data<<<<<
223.165	-12.06
223.4	-12.06
223.635	-12.06
223.869	-17.06
224.104	-30.06
224.338	-9.06
224.573	-12.06
224.808	-9.06
225.042	-15.06
225.277	4.94
225.511	-8.06
225.746	-3.06
225.98	6.94
226.215	10.94
226.449	3.94
226.683	21.94
226.918	27.94
227.152	38.94
227.387	41.94
227.621	38.94
227.856	45.94
228.09	56.94
228.324	50.94
228.559	53.94
228.793	63.94
229.027	53.94
229.262	59.94
229.496	55.94
229.73	49.94
229.964	73.94
230.199	74.94
230.433	85.94
230.667	81.94
230.901	78.94
231.136	85.94
231.37	76.94
231.604	85.94
231.838	73.94
232.072	76.94
232.306	72.94
232.541	84.94
232.775	70.94
233.009	85.94
233.243	83.94
233.477	79.94
233.711	76.94
233.945	90.94
234.179	82.94
234.413	68.94
234.647	77.94
234.881	57.94
235.115	82.94
235.349	79.94
235.583	81.94
235.817	83.94
236.051	76.94
236.285	76.94
236.519	72.94
236.753	74.94
236.987	68.94
237.221	72.94
237.455	68.94
237.689	86.94
237.922	89.94
238.156	82.94
238.39	74.94
238.624	76.94
238.858	88.94
239.091	76.94
239.325	84.94
239.559	74.94
239.793	86.94
240.027	90.94
240.26	80.94
240.494	92.94
240.728	68.94
240.961	74.94
241.195	68.94
241.429	78.94
241.662	69.94
241.896	75.94
242.13	77.94
242.363	64.94
242.597	82.94
242.83	75.94
243.064	80.94
243.298	74.94
243.531	73.94
243.765	72.94
243.998	86.94
244.232	72.94
244.465	68.94
244.699	75.94
244.932	74.94
245.166	75.94
245.399	72.94
245.633	78.94
245.866	68.94
246.099	82.94
246.333	89.94
246.566	65.94
246.8	67.94
247.033	84.94
247.266	70.94
247.5	69.94
247.733	77.94
247.966	68.94
248.2	65.94
248.433	79.94
248.666	88.94
248.899	72.94
249.133	68.94
249.366	77.94
249.599	73.94
249.832	78.94
250.066	77.94
250.299	70.94
250.532	88.94
250.765	84.94
250.998	74.94
251.231	85.94
251.465	70.94
251.698	66.94
251.931	75.94
252.164	70.94
252.397	76.94
252.63	62.94
252.863	83.94
253.096	61.94
253.329	85.94
253.562	79.94
253.795	70.94
254.028	76.94
254.261	75.94
254.494	77.94
254.727	76.94
254.96	77.94
255.193	59.94
255.426	78.94
255.659	84.94
255.892	75.94
256.124	84.94
256.357	59.94
256.59	77.94
256.823	76.94
257.056	90.94
257.289	77.94
257.521	72.94
257.754	80.94
257.987	83.94
258.22	78.94
258.452	73.94
258.685	78.94
258.918	80.94
259.151	74.94
259.383	89.94
259.616	80.94
259.849	88.94
260.081	82.94
260.314	76.94
260.547	81.94
260.779	73.94
261.012	69.94
261.244	83.94
261.477	79.94
261.71	71.94
261.942	75.94
262.175	69.94
262.407	85.94
262.64	86.94
262.872	70.94
263.105	83.94
263.337	97.94
263.57	69.94
263.802	64.94
264.035	72.94
264.267	76.94
264.499	76.94
264.732	69.94
264.964	83.94
265.197	76.94
265.429	90.94
265.661	70.94
265.894	92.94
266.126	83.94
266.358	85.94
266.591	79.94
266.823	85.94
267.055	64.94
267.287	84.94
267.52	72.94
267.752	83.94
267.984	86.94
268.216	68.94
268.448	72.94
268.681	78.94
268.913	95.94
269.145	72.94
269.377	78.94
269.609	79.94
269.841	76.94
270.073	90.94
270.306	76.94
270.538	70.94
270.77	88.94
271.002	83.94
271.234	74.94
271.466	92.94
271.698	84.94
271.93	76.94
272.162	76.94
272.394	79.94
272.626	90.94
272.858	82.94
273.09	92.94
273.322	75.94
273.553	87.94
273.785	84.94
274.017	100.94
274.249	82.94
274.481	76.94
274.713	82.94
274.945	82.94
275.176	80.94
275.408	82.94
275.64	83.94
275.872	93.94
276.104	78.94
276.335	81.94
276.567	85.94
276.799	71.94
277.031	76.94
277.262	93.94
277.494	86.94
277.726	95.94
277.957	100.94
278.189	86.94
278.421	90.94
278.652	83.94
278.884	70.94
279.115	93.94
279.347	98.94
279.579	80.94
279.81	74.94
280.042	73.94
280.273	82.94
280.505	70.94
280.736	78.94
280.968	88.94
281.199	78.94
281.431	83.94
281.662	90.94
281.894	90.94
282.125	83.94
282.356	88.94
282.588	74.94
282.819	83.94
283.051	64.94
283.282	69.94
283.513	76.94
283.745	86.94
283.976	94.94
284.207	75.94
284.439	85.94
284.67	79.94
284.901	75.94
285.132	80.94
285.364	78.94
285.595	82.94
285.826	88.94
286.057	92.94
286.288	91.94
286.52	75.94
286.751	75.94
286.982	76.94
287.213	76.94
287.444	73.94
287.675	69.94
287.906	81.94
288.138	93.94
288.369	66.94
288.6	68.94
288.831	75.94
289.062	80.94
289.293	79.94
289.524	94.94
289.755	84.94
289.986	75.94
290.217	75.94
290.448	85.94
290.679	90.94
290.91	81.94
291.141	82.94
291.371	83.94
291.602	98.94
291.833	79.94
292.064	90.94
292.295	77.94
292.526	93.94
292.757	80.94
292.987	90.94
293.218	88.94
293.449	81.94
293.68	100.94
293.91	74.94
294.141	92.94
294.372	78.94
294.603	77.94
294.833	96.94
295.064	77.94
295.295	76.94
295.525	79.94
295.756	77.94
295.987	83.94
296.217	98.94
296.448	88.94
296.679	74.94
296.909	91.94
297.14	88.94
297.37	94.94
297.601	75.94
297.831	79.94
298.062	84.94
298.292	95.94
298.523	87.94
298.753	80.94
298.984	79.94
299.214	80.94
299.445	89.94
299.675	98.94
299.905	89.94
300.136	76.94
300.366	64.94
300.597	86.94
300.827	85.94
301.057	69.94
301.288	78.94
301.518	86.94
301.748	92.94
301.979	106.94
302.209	84.94
302.439	65.94
302.669	76.94
302.9	75.94
303.13	89.94
303.36	76.94
303.59	85.94
303.82	80.94
304.051	81.94
304.281	87.94
304.511	78.94
304.741	76.94
304.971	89.94
305.201	77.94
305.431	78.94
305.661	81.94
305.891	78.94
306.121	93.94
306.352	90.94
306.582	81.94
306.812	96.94
307.042	84.94
307.272	85.94
307.502	82.94
307.731	70.94
307.961	94.94
308.191	85.94
308.421	86.94
308.651	74.94
308.881	90.94
309.111	62.94
309.341	68.94
309.571	80.94
309.8	77.94
310.03	91.94
310.26	72.94
310.49	83.94
310.72	83.94
310.949	77.94
311.179	81.94
311.409	67.94
311.639	94.94
311.868	90.94
312.098	82.94
312.328	85.94
312.557	87.94
312.787	92.94
313.017	73.94
313.246	86.94
313.476	82.94
313.706	74.94
313.935	82.94
314.165	83.94
314.394	80.94
314.624	74.94
314.853	101.94
315.083	85.94
315.312	79.94
315.542	88.94
315.771	78.94
316.001	85.94
316.23	90.94
316.46	72.94
316.689	83.94
316.919	84.94
317.148	86.94
317.377	78.94
317.607	75.94
317.836	77.94
318.065	90.94
318.295	88.94
318.524	85.94
318.753	77.94
318.983	89.94
319.212	93.94
319.441	76.94
319.67	77.94
319.9	77.94
320.129	91.94
320.358	81.94
320.587	79.94
320.816	88.94
321.046	89.94
321.275	91.94
321.504	93.94
321.733	99.94
321.962	86.94
322.191	88.94
322.42	77.94
322.649	90.94
322.878	93.94
323.108	73.94
323.337	68.94
323.566	92.94
323.795	80.94
324.024	89.94
324.253	74.94
324.482	83.94
324.71	80.94
324.939	78.94
325.168	85.94
325.397	85.94
325.626	83.94
325.855	80.94
326.084	73.94
326.313	90.94
326.542	88.94
326.77	99.94
326.999	95.94
327.228	83.94
327.457	70.94
327.686	92.94
327.914	77.94
328.143	80.94
328.372	85.94
328.6	71.94
328.829	93.94
329.058	81.94
329.287	84.94
329.515	75.94
329.744	86.94
329.972	82.94
330.201	83.94
330.43	64.94
330.658	70.94
330.887	94.94
331.115	85.94
331.344	87.94
331.572	86.94
331.801	82.94
332.03	82.94
332.258	80.94
332.486	89.94
332.715	78.94
332.943	86.94
333.172	76.94
333.4	65.94
333.629	97.94
333.857	77.94
334.085	77.94
334.314	81.94
334.542	77.94
334.771	65.94
334.999	89.94
335.227	81.94
335.455	89.94
335.684	78.94
335.912	76.94
336.14	96.94
336.369	88.94
336.597	89.94
336.825	86.94
337.053	90.94
337.281	84.94
337.51	86.94
337.738	79.94
337.966	92.94
338.194	87.94
338.422	93.94
338.65	96.94
338.878	88.94
339.106	86.94
339.334	84.94
339.562	90.94
339.79	92.94
340.018	75.94
340.246	81.94
340.474	80.94
340.702	86.94
340.93	86.94
341.158	75.94
341.386	75.94
341.614	89.94
341.842	94.94
342.07	92.94
342.298	73.94
342.526	84.94
342.754	75.94
342.981	78.94
343.209	79.94
343.437	97.94
343.665	89.94
343.893	83.94
344.12	82.94
344.348	62.94
344.576	102.94
344.804	69.94
345.031	91.94
345.259	83.94
345.487	92.94
345.714	73.94
345.942	66.94
346.17	90.94
346.397	87.94
346.625	98.94
346.853	73.94
347.08	86.94
347.308	88.94
347.535	90.94
347.763	91.94
347.99	89.94
348.218	69.94
348.445	73.94
348.673	90.94
348.9	90.94
349.128	99.94
349.355	83.94
349.583	73.94
349.81	77.94
350.037	76.94
350.265	75.94
350.492	81.94
350.72	73.94
350.947	80.94
351.174	84.94
351.402	75.94
351.629	73.94
351.856	83.94
352.083	83.94
352.311	89.94
352.538	79.94
352.765	89.94
352.992	82.94
353.22	76.94
353.447	79.94
353.674	84.94
353.901	88.94
354.128	76.94
354.355	88.94
354.583	76.94
354.81	85.94
355.037	101.94
355.264	76.94
355.491	80.94
355.718	84.94
355.945	83.94
356.172	88.94
356.399	81.94
356.626	84.94
356.853	91.94
357.08	82.94
357.307	87.94
357.534	84.94
357.761	78.94
357.988	80.94
358.215	81.94
358.441	80.94
358.668	82.94
358.895	75.94
359.122	83.94
359.349	69.94
359.576	77.94
359.802	77.94
360.029	88.94
360.256	75.94
360.483	68.94
360.709	77.94
360.936	74.94
361.163	76.94
361.39	78.94
361.616	78.94
361.843	87.94
362.07	80.94
362.296	90.94
362.523	83.94
362.749	83.94
362.976	80.94
363.203	73.94
363.429	85.94
363.656	82.94
363.882	83.94
364.109	83.94
364.335	97.94
364.562	98.94
364.788	88.94
365.015	96.94
365.241	80.94
365.468	77.94
365.694	79.94
365.92	90.94
366.147	79.94
366.373	69.94
366.599	82.94
366.826	92.94
367.052	76.94
367.278	66.94
367.505	81.94
367.731	90.94
367.957	74.94
368.184	76.94
368.41	93.94
368.636	92.94
368.862	91.94
369.089	94.94
369.315	91.94
369.541	84.94
369.767	85.94
369.993	88.94
370.219	92.94
370.445	91.94
370.672	78.94
370.898	78.94
371.124	84.94
371.35	85.94
371.576	85.94
371.802	79.94
372.028	94.94
372.254	96.94
372.48	90.94
372.706	85.94
372.932	77.94
373.158	65.94
373.384	82.94
373.61	90.94
373.835	94.94
374.061	79.94
374.287	96.94
374.513	75.94
374.739	74.94
374.965	76.94
375.191	98.94
375.416	80.94
375.642	84.94
375.868	81.94
376.094	90.94
376.319	88.94
376.545	85.94
376.771	79.94
376.997	81.94
377.222	69.94
377.448	78.94
377.674	91.94
377.899	90.94
378.125	79.94
378.35	88.94
378.576	86.94
378.802	88.94
379.027	84.94
379.253	84.94
379.478	76.94
379.704	74.94
379.929	86.94
380.155	78.94
380.38	72.94
380.606	83.94
380.831	80.94
381.057	81.94
381.282	81.94
381.507	86.94
381.733	83.94
381.958	76.94
382.184	74.94
382.409	86.94
382.634	68.94
382.86	76.94
383.085	75.94
383.31	83.94
383.535	77.94
383.761	80.94
383.986	77.94
384.211	69.94
384.436	83.94
384.662	76.94
384.887	82.94
385.112	81.94
385.337	96.94
385.562	74.94
385.787	86.94
386.013	89.94
386.238	84.94
386.463	64.94
386.688	82.94
386.913	74.94
387.138	78.94
387.363	69.94
387.588	80.94
387.813	69.94
388.038	76.94
388.263	86.94
388.488	91.94
388.713	73.94
388.938	86.94
389.163	79.94
389.387	80.94
389.612	88.94
389.837	90.94
390.062	85.94
390.287	83.94
390.512	81.94
390.736	79.94
390.961	81.94
391.186	76.94
391.411	80.94
391.636	86.94
391.86	77.94
392.085	73.94
392.31	80.94
392.534	83.94
392.759	75.94
392.984	76.94
393.208	82.94
393.433	76.94
393.658	69.94
393.882	71.94
394.107	81.94
394.331	77.94
394.556	86.94
394.78	74.94
395.005	85.94
395.229	80.94
395.454	66.94
395.678	61.94
395.903	79.94
396.127	80.94
396.352	98.94
396.576	90.94
396.801	88.94
397.025	82.94
397.249	66.94
397.474	78.94
397.698	82.94
397.922	81.94
398.147	87.94
398.371	80.94
398.595	75.94
398.82	94.94
399.044	82.94
399.268	76.94
399.492	70.94
399.717	77.94
399.941	72.94
400.165	74.94
400.389	79.94
400.613	77.94
400.837	81.94
401.062	80.94
401.286	73.94
401.51	90.94
401.734	89.94
401.958	77.94
402.182	90.94
402.406	88.94
402.63	88.94
402.854	82.94
403.078	74.94
403.302	87.94
403.526	84.94
403.75	77.94
403.974	80.94
404.198	78.94
404.422	80.94
404.645	62.94
404.869	95.94
405.093	86.94
405.317	84.94
405.541	72.94
405.765	62.94
405.988	85.94
406.212	84.94
406.436	73.94
406.66	83.94
406.883	85.94
407.107	69.94
407.331	72.94
407.555	81.94
407.778	75.94
408.002	69.94
408.226	85.94
408.449	78.94
408.673	90.94
408.896	72.94
409.12	85.94
409.344	78.94
409.567	80.94
409.791	79.94
410.014	94.94
410.238	74.94
410.461	76.94
410.685	88.94
410.908	88.94
411.132	77.94
411.355	84.94
411.578	81.94
411.802	82.94
412.025	80.94
412.249	81.94
412.472	83.94
412.695	84.94
412.919	86.94
413.142	66.94
413.365	93.94
413.589	88.94
413.812	72.94
414.035	77.94
414.258	66.94
414.482	74.94
414.705	99.94
414.928	88.94
415.151	92.94
415.374	79.94
415.597	92.94
415.821	80.94
416.044	92.94
416.267	75.94
416.49	80.94
416.713	73.94
416.936	83.94
417.159	77.94
417.382	88.94
417.605	80.94
417.828	80.94
418.051	76.94
418.274	94.94
418.497	94.94
418.72	74.94
418.943	81.94
419.166	81.94
419.389	78.94
419.611	99.94
419.834	81.94
420.057	86.94
420.28	90.94
420.503	71.94
420.726	78.94
420.948	97.94
421.171	80.94
421.394	70.94
421.617	84.94
421.839	65.94
422.062	92.94
422.285	91.94
422.507	83.94
422.73	74.94
422.953	81.94
423.175	83.94
423.398	86.94
423.621	78.94
423.843	70.94
424.066	76.94
424.288	72.94
424.511	85.94
424.733	75.94
424.956	74.94
425.178	83.94
425.401	81.94
425.623	76.94
425.846	78.94
426.068	79.94
426.291	85.94
426.513	69.94
426.735	86.94
426.958	85.94
427.18	93.94
427.402	85.94
427.625	88.94
427.847	89.94
428.069	84.94
428.292	80.94
428.514	76.94
428.736	72.94
428.958	76.94
429.181	92.94
429.403	79.94
429.625	78.94
429.847	88.94
430.069	93.94
430.292	98.94
430.514	84.94
430.736	94.94
430.958	81.94
431.18	88.94
431.402	80.94
431.624	87.94
431.846	79.94
432.068	77.94
432.29	70.94
432.512	92.94
432.734	89.94
432.956	67.94
433.178	85.94
433.4	78.94
433.622	89.94
433.844	63.94
434.066	84.94
434.287	82.94
434.509	85.94
434.731	81.94
434.953	62.94
435.175	81.94
435.397	78.94
435.618	77.94
435.84	90.94
436.062	93.94
436.284	73.94
436.505	97.94
436.727	82.94
436.949	64.94
437.17	80.94
437.392	80.94
437.614	80.94
437.835	86.94
438.057	85.94
438.278	88.94
438.5	81.94
438.721	86.94
438.943	84.94
439.165	80.94
439.386	86.94
439.608	72.94
439.829	87.94
440.05	87.94
440.272	84.94
440.493	89.94
440.715	90.94
440.936	86.94
441.158	94.94
441.379	87.94
441.6	81.94
441.822	81.94
442.043	91.94
442.264	78.94
442.486	73.94
442.707	82.94
442.928	75.94
443.149	96.94
443.371	86.94
443.592	79.94
443.813	83.94
444.034	72.94
444.255	93.94
444.476	76.94
444.698	77.94
444.919	76.94
445.14	130.94
445.361	92.94
445.582	76.94
445.803	85.94
446.024	69.94
446.245	88.94
446.466	85.94
446.687	82.94
446.908	95.94
447.129	89.94
447.35	74.94
447.571	78.94
447.792	80.94
448.013	80.94
448.234	76.94
448.455	83.94
448.675	83.94
448.896	88.94
449.117	76.94
449.338	73.94
449.559	93.94
449.779	98.94
450	84.94
450.221	79.94
450.442	82.94
450.662	96.94
450.883	81.94
451.104	93.94
451.324	84.94
451.545	93.94
451.766	75.94
451.986	90.94
452.207	83.94
452.428	83.94
452.648	85.94
452.869	81.94
453.089	88.94
453.31	85.94
453.53	84.94
453.751	79.94
453.971	76.94
454.192	92.94
454.412	72.94
454.633	79.94
454.853	63.94
455.073	71.94
455.294	92.94
455.514	72.94
455.734	94.94
455.955	81.94
456.175	74.94
456.395	83.94
456.616	86.94
456.836	84.94
457.056	68.94
457.276	72.94
457.497	77.94
457.717	76.94
457.937	77.94
458.157	72.94
458.377	68.94
458.598	80.94
458.818	72.94
459.038	72.94
459.258	74.94
459.478	79.94
459.698	84.94
459.918	79.94
460.138	76.94
460.358	87.94
460.578	77.94
460.798	81.94
461.018	83.94
461.238	80.94
461.458	87.94
461.678	92.94
461.898	92.94
462.118	71.94
462.338	84.94
462.558	80.94
462.777	74.94
462.997	83.94
463.217	88.94
463.437	87.94
463.657	88.94
463.876	68.94
464.096	76.94
464.316	84.94
464.536	57.94
464.755	82.94
464.975	80.94
465.195	74.94
465.414	82.94
465.634	85.94
465.854	82.94
466.073	84.94
466.293	93.94
466.512	63.94
466.732	95.94
466.951	84.94
467.171	83.94
467.391	93.94
467.61	83.94
467.829	94.94
468.049	80.94
468.268	85.94
468.488	91.94
468.707	72.94
468.927	96.94
469.146	90.94
469.365	89.94
469.585	75.94
469.804	87.94
470.023	94.94
470.243	95.94
470.462	83.94
470.681	85.94
470.901	76.94
471.12	79.94
471.339	76.94
471.558	84.94
471.777	88.94
471.997	90.94
472.216	88.94
472.435	82.94
472.654	69.94
472.873	79.94
473.092	86.94
473.311	91.94
473.53	78.94
473.749	96.94
473.968	95.94
474.187	79.94
474.406	72.94
474.625	91.94
474.844	74.94
475.063	72.94
475.282	69.94
475.501	90.94
475.72	97.94
475.939	72.94
476.158	73.94
476.377	89.94
476.596	86.94
476.814	82.94
477.033	85.94
477.252	80.94
477.471	93.94
477.69	102.94
477.908	98.94
478.127	88.94
478.346	87.94
478.564	100.94
478.783	91.94
479.002	74.94
479.22	88.94
479.439	74.94
479.658	89.94
479.876	86.94
480.095	71.94
480.313	82.94
480.532	90.94
480.751	84.94
480.969	72.94
481.188	74.94
481.406	97.94
481.624	98.94
481.843	99.94
482.061	92.94
482.28	81.94
482.498	85.94
482.717	81.94
482.935	81.94
483.153	78.94
483.372	72.94
483.59	89.94
483.808	81.94
484.027	72.94
484.245	94.94
484.463	84.94
484.681	87.94
484.9	71.94
485.118	83.94
485.336	89.94
485.554	78.94
485.772	80.94
485.99	95.94
486.209	89.94
486.427	73.94
486.645	76.94
486.863	80.94
487.081	67.94
487.299	86.94
487.517	91.94
487.735	78.94
487.953	88.94
488.171	76.94
488.389	89.94
488.607	79.94
488.825	73.94
489.043	65.94
489.261	73.94
489.479	71.94
489.696	82.94
489.914	90.94
490.132	83.94
490.35	84.94
490.568	77.94
490.786	77.94
491.003	76.94
491.221	77.94
491.439	83.94
491.657	72.94
491.874	96.94
492.092	92.94
492.31	98.94
492.527	79.94
492.745	84.94
492.963	98.94
493.18	90.94
493.398	98.94
493.615	93.94
493.833	87.94
494.05	76.94
494.268	92.94
494.485	81.94
494.703	82.94
494.92	86.94
495.138	78.94
495.355	99.94
495.573	79.94
495.79	90.94
496.008	94.94
496.225	76.94
496.442	82.94
496.66	90.94
496.877	99.94
497.094	96.94
497.312	103.94
497.529	83.94
497.746	84.94
497.963	86.94
498.181	78.94
498.398	75.94
498.615	92.94
498.832	81.94
499.049	77.94
499.267	89.94
499.484	86.94
499.701	82.94
499.918	88.94
500.135	74.94
500.352	84.94
500.569	88.94
500.786	93.94
501.003	88.94
501.22	80.94
501.437	82.94
501.654	77.94
501.871	85.94
502.088	96.94
502.305	93.94
502.522	67.94
502.739	96.94
502.956	79.94
503.172	80.94
503.389	98.94
503.606	82.94
503.823	75.94
504.04	83.94
504.256	80.94
504.473	78.94
504.69	89.94
504.907	68.94
505.123	64.94
505.34	95.94
505.557	82.94
505.773	86.94
505.99	76.94
506.207	81.94
506.423	82.94
506.64	67.94
506.856	78.94
507.073	96.94
507.289	90.94
507.506	82.94
507.722	89.94
507.939	79.94
508.155	88.94
508.372	80.94
508.588	78.94
508.805	85.94
509.021	96.94
509.238	94.94
509.454	80.94
509.67	80.94
509.887	92.94
510.103	72.94
510.319	73.94
510.536	91.94
510.752	88.94
510.968	88.94
511.184	77.94
511.401	80.94
511.617	70.94
511.833	85.94
512.049	86.94
512.265	73.94
512.481	67.94
512.698	82.94
512.914	81.94
513.13	82.94
513.346	76.94
513.562	82.94
513.778	86.94
513.994	92.94
514.21	81.94
514.426	74.94
514.642	86.94
514.858	70.94
515.074	83.94
515.29	84.94
515.506	68.94
515.721	70.94
515.937	87.94
516.153	81.94
516.369	79.94
516.585	81.94
516.801	82.94
517.016	83.94
517.232	90.94
517.448	73.94
517.664	91.94
517.879	85.94
518.095	65.94
518.311	69.94
518.527	82.94
518.742	65.94
518.958	72.94
519.173	81.94
519.389	80.94
519.605	72.94
519.82	82.94
520.036	88.94
520.251	80.94
