Data from Alignment_HRD10591_00016.txt Node
Date: Fri Dec 27 14:18:39 EST 2024
User: Yrep
Spectrometer: HR+D1059
Trigger mode: 1
Integration Time (sec): 1.000000E-1
Scans to average: 1
Electric dark correction enabled: true
Nonlinearity correction enabled: false
Boxcar width: 0
XAxis mode: Wavelengths
Number of Pixels in Spectrum: 2048
>>>>>Begin Spectral Data<<<<<
223.165	-15.56
223.4	-15.56
223.635	-15.56
223.869	-7.56
224.104	-19.56
224.338	-15.56
224.573	-12.56
224.808	-13.56
225.042	-11.56
225.277	0.44
225.511	4.44
225.746	-8.56
225.98	10.44
226.215	5.44
226.449	18.44
226.683	13.44
226.918	28.44
227.152	23.44
227.387	37.44
227.621	34.44
227.856	41.44
228.09	53.44
228.324	48.44
228.559	67.44
228.793	47.44
229.027	62.44
229.262	70.44
229.496	71.44
229.73	67.44
229.964	67.44
230.199	70.44
230.433	61.44
230.667	74.44
230.901	76.44
231.136	78.44
231.37	86.44
231.604	74.44
231.838	75.44
232.072	80.44
232.306	74.44
232.541	90.44
232.775	89.44
233.009	72.44
233.243	80.44
233.477	79.44
233.711	78.44
233.945	80.44
234.179	75.44
234.413	76.44
234.647	74.44
234.881	83.44
235.115	72.44
235.349	73.44
235.583	84.44
235.817	70.44
236.051	73.44
236.285	90.44
236.519	74.44
236.753	90.44
236.987	80.44
237.221	69.44
237.455	85.44
237.689	80.44
237.922	89.44
238.156	84.44
238.39	76.44
238.624	75.44
238.858	84.44
239.091	83.44
239.325	77.44
239.559	70.44
239.793	63.44
240.027	78.44
240.26	78.44
240.494	85.44
240.728	77.44
240.961	58.44
241.195	62.44
241.429	71.44
241.662	74.44
241.896	70.44
242.13	85.44
242.363	70.44
242.597	87.44
242.83	87.44
243.064	80.44
243.298	70.44
243.531	83.44
243.765	66.44
243.998	75.44
244.232	66.44
244.465	72.44
244.699	77.44
244.932	74.44
245.166	67.44
245.399	90.44
245.633	72.44
245.866	66.44
246.099	77.44
246.333	84.44
246.566	96.44
246.8	68.44
247.033	73.44
247.266	78.44
247.5	86.44
247.733	84.44
247.966	75.44
248.2	68.44
248.433	74.44
248.666	72.44
248.899	82.44
249.133	77.44
249.366	73.44
249.599	82.44
249.832	71.44
250.066	83.44
250.299	76.44
250.532	80.44
250.765	76.44
250.998	82.44
251.231	86.44
251.465	75.44
251.698	75.44
251.931	77.44
252.164	75.44
252.397	77.44
252.63	79.44
252.863	77.44
253.096	74.44
253.329	87.44
253.562	83.44
253.795	72.44
254.028	92.44
254.261	88.44
254.494	85.44
254.727	87.44
254.96	77.44
255.193	69.44
255.426	67.44
255.659	66.44
255.892	82.44
256.124	89.44
256.357	94.44
256.59	64.44
256.823	67.44
257.056	82.44
257.289	78.44
257.521	75.44
257.754	72.44
257.987	81.44
258.22	92.44
258.452	80.44
258.685	104.44
258.918	80.44
259.151	71.44
259.383	82.44
259.616	78.44
259.849	86.44
260.081	78.44
260.314	66.44
260.547	95.44
260.779	83.44
261.012	84.44
261.244	76.44
261.477	71.44
261.71	87.44
261.942	81.44
262.175	84.44
262.407	73.44
262.64	75.44
262.872	83.44
263.105	92.44
263.337	79.44
263.57	82.44
263.802	86.44
264.035	74.44
264.267	79.44
264.499	77.44
264.732	79.44
264.964	80.44
265.197	78.44
265.429	76.44
265.661	83.44
265.894	88.44
266.126	90.44
266.358	78.44
266.591	90.44
266.823	84.44
267.055	81.44
267.287	83.44
267.52	73.44
267.752	67.44
267.984	76.44
268.216	76.44
268.448	79.44
268.681	80.44
268.913	79.44
269.145	72.44
269.377	74.44
269.609	72.44
269.841	85.44
270.073	75.44
270.306	84.44
270.538	81.44
270.77	92.44
271.002	97.44
271.234	79.44
271.466	93.44
271.698	85.44
271.93	72.44
272.162	78.44
272.394	85.44
272.626	88.44
272.858	79.44
273.09	81.44
273.322	77.44
273.553	80.44
273.785	80.44
274.017	84.44
274.249	71.44
274.481	70.44
274.713	78.44
274.945	73.44
275.176	77.44
275.408	80.44
275.64	74.44
275.872	78.44
276.104	86.44
276.335	86.44
276.567	73.44
276.799	59.44
277.031	84.44
277.262	82.44
277.494	78.44
277.726	93.44
277.957	96.44
278.189	70.44
278.421	75.44
278.652	84.44
278.884	74.44
279.115	85.44
279.347	75.44
279.579	72.44
279.81	91.44
280.042	85.44
280.273	101.44
280.505	82.44
280.736	85.44
280.968	65.44
281.199	76.44
281.431	78.44
281.662	86.44
281.894	74.44
282.125	76.44
282.356	81.44
282.588	75.44
282.819	91.44
283.051	86.44
283.282	87.44
283.513	76.44
283.745	79.44
283.976	79.44
284.207	83.44
284.439	77.44
284.67	83.44
284.901	80.44
285.132	92.44
285.364	92.44
285.595	88.44
285.826	89.44
286.057	99.44
286.288	69.44
286.52	88.44
286.751	79.44
286.982	73.44
287.213	73.44
287.444	91.44
287.675	70.44
287.906	85.44
288.138	75.44
288.369	97.44
288.6	77.44
288.831	80.44
289.062	78.44
289.293	83.44
289.524	79.44
289.755	76.44
289.986	87.44
290.217	88.44
290.448	87.44
290.679	92.44
290.91	86.44
291.141	90.44
291.371	87.44
291.602	89.44
291.833	94.44
292.064	83.44
292.295	73.44
292.526	95.44
292.757	74.44
292.987	81.44
293.218	89.44
293.449	90.44
293.68	81.44
293.91	88.44
294.141	93.44
294.372	94.44
294.603	86.44
294.833	88.44
295.064	98.44
295.295	83.44
295.525	74.44
295.756	80.44
295.987	97.44
296.217	94.44
296.448	91.44
296.679	80.44
296.909	78.44
297.14	94.44
297.37	84.44
297.601	92.44
297.831	82.44
298.062	77.44
298.292	89.44
298.523	78.44
298.753	75.44
298.984	87.44
299.214	87.44
299.445	96.44
299.675	89.44
299.905	72.44
300.136	78.44
300.366	76.44
300.597	69.44
300.827	82.44
301.057	81.44
301.288	85.44
301.518	76.44
301.748	85.44
301.979	92.44
302.209	84.44
302.439	72.44
302.669	92.44
302.9	66.44
303.13	92.44
303.36	76.44
303.59	63.44
303.82	74.44
304.051	79.44
304.281	91.44
304.511	91.44
304.741	91.44
304.971	88.44
305.201	71.44
305.431	78.44
305.661	79.44
305.891	88.44
306.121	80.44
306.352	77.44
306.582	72.44
306.812	85.44
307.042	89.44
307.272	72.44
307.502	86.44
307.731	87.44
307.961	81.44
308.191	82.44
308.421	93.44
308.651	96.44
308.881	85.44
309.111	88.44
309.341	84.44
309.571	68.44
309.8	70.44
310.03	97.44
310.26	90.44
310.49	88.44
310.72	78.44
310.949	84.44
311.179	91.44
311.409	84.44
311.639	76.44
311.868	75.44
312.098	91.44
312.328	90.44
312.557	79.44
312.787	74.44
313.017	70.44
313.246	90.44
313.476	84.44
313.706	78.44
313.935	94.44
314.165	87.44
314.394	88.44
314.624	87.44
314.853	83.44
315.083	87.44
315.312	90.44
315.542	86.44
315.771	95.44
316.001	78.44
316.23	86.44
316.46	71.44
316.689	80.44
316.919	86.44
317.148	81.44
317.377	77.44
317.607	86.44
317.836	78.44
318.065	71.44
318.295	85.44
318.524	74.44
318.753	74.44
318.983	96.44
319.212	81.44
319.441	76.44
319.67	79.44
319.9	79.44
320.129	81.44
320.358	82.44
320.587	75.44
320.816	77.44
321.046	93.44
321.275	82.44
321.504	66.44
321.733	85.44
321.962	90.44
322.191	90.44
322.42	80.44
322.649	85.44
322.878	84.44
323.108	79.44
323.337	96.44
323.566	91.44
323.795	86.44
324.024	80.44
324.253	81.44
324.482	85.44
324.71	80.44
324.939	79.44
325.168	77.44
325.397	64.44
325.626	78.44
325.855	82.44
326.084	80.44
326.313	81.44
326.542	87.44
326.77	90.44
326.999	82.44
327.228	86.44
327.457	86.44
327.686	81.44
327.914	79.44
328.143	84.44
328.372	65.44
328.6	80.44
328.829	95.44
329.058	83.44
329.287	86.44
329.515	80.44
329.744	83.44
329.972	91.44
330.201	85.44
330.43	86.44
330.658	81.44
330.887	85.44
331.115	89.44
331.344	94.44
331.572	87.44
331.801	90.44
332.03	94.44
332.258	75.44
332.486	70.44
332.715	67.44
332.943	76.44
333.172	74.44
333.4	82.44
333.629	93.44
333.857	85.44
334.085	71.44
334.314	80.44
334.542	76.44
334.771	87.44
334.999	92.44
335.227	86.44
335.455	88.44
335.684	95.44
335.912	84.44
336.14	74.44
336.369	84.44
336.597	85.44
336.825	100.44
337.053	102.44
337.281	92.44
337.51	66.44
337.738	93.44
337.966	73.44
338.194	70.44
338.422	80.44
338.65	93.44
338.878	100.44
339.106	80.44
339.334	98.44
339.562	82.44
339.79	90.44
340.018	74.44
340.246	76.44
340.474	80.44
340.702	80.44
340.93	77.44
341.158	84.44
341.386	82.44
341.614	73.44
341.842	85.44
342.07	86.44
342.298	75.44
342.526	94.44
342.754	73.44
342.981	92.44
343.209	88.44
343.437	96.44
343.665	72.44
343.893	86.44
344.12	71.44
344.348	77.44
344.576	90.44
344.804	69.44
345.031	87.44
345.259	83.44
345.487	76.44
345.714	94.44
345.942	91.44
346.17	92.44
346.397	82.44
346.625	80.44
346.853	83.44
347.08	91.44
347.308	92.44
347.535	96.44
347.763	96.44
347.99	79.44
348.218	65.44
348.445	90.44
348.673	86.44
348.9	86.44
349.128	89.44
349.355	74.44
349.583	74.44
349.81	78.44
350.037	75.44
350.265	74.44
350.492	83.44
350.72	87.44
350.947	76.44
351.174	94.44
351.402	97.44
351.629	93.44
351.856	78.44
352.083	86.44
352.311	84.44
352.538	100.44
352.765	77.44
352.992	78.44
353.22	79.44
353.447	79.44
353.674	90.44
353.901	102.44
354.128	82.44
354.355	76.44
354.583	79.44
354.81	69.44
355.037	83.44
355.264	77.44
355.491	74.44
355.718	79.44
355.945	81.44
356.172	75.44
356.399	67.44
356.626	81.44
356.853	86.44
357.08	84.44
357.307	70.44
357.534	80.44
357.761	93.44
357.988	94.44
358.215	90.44
358.441	75.44
358.668	78.44
358.895	79.44
359.122	81.44
359.349	73.44
359.576	78.44
359.802	86.44
360.029	76.44
360.256	91.44
360.483	80.44
360.709	95.44
360.936	83.44
361.163	79.44
361.39	81.44
361.616	84.44
361.843	79.44
362.07	79.44
362.296	86.44
362.523	77.44
362.749	82.44
362.976	98.44
363.203	75.44
363.429	78.44
363.656	87.44
363.882	75.44
364.109	92.44
364.335	85.44
364.562	79.44
364.788	91.44
365.015	87.44
365.241	79.44
365.468	80.44
365.694	81.44
365.92	87.44
366.147	79.44
366.373	74.44
366.599	71.44
366.826	90.44
367.052	84.44
367.278	75.44
367.505	83.44
367.731	81.44
367.957	69.44
368.184	79.44
368.41	92.44
368.636	80.44
368.862	90.44
369.089	94.44
369.315	82.44
369.541	78.44
369.767	92.44
369.993	82.44
370.219	69.44
370.445	83.44
370.672	81.44
370.898	80.44
371.124	80.44
371.35	86.44
371.576	85.44
371.802	78.44
372.028	76.44
372.254	80.44
372.48	80.44
372.706	79.44
372.932	77.44
373.158	86.44
373.384	88.44
373.61	93.44
373.835	90.44
374.061	76.44
374.287	82.44
374.513	86.44
374.739	81.44
374.965	92.44
375.191	75.44
375.416	82.44
375.642	76.44
375.868	90.44
376.094	82.44
376.319	66.44
376.545	93.44
376.771	80.44
376.997	87.44
377.222	77.44
377.448	79.44
377.674	78.44
377.899	93.44
378.125	90.44
378.35	83.44
378.576	67.44
378.802	70.44
379.027	71.44
379.253	86.44
379.478	83.44
379.704	84.44
379.929	85.44
380.155	81.44
380.38	76.44
380.606	74.44
380.831	77.44
381.057	86.44
381.282	83.44
381.507	88.44
381.733	96.44
381.958	72.44
382.184	66.44
382.409	77.44
382.634	77.44
382.86	87.44
383.085	96.44
383.31	83.44
383.535	80.44
383.761	86.44
383.986	78.44
384.211	80.44
384.436	84.44
384.662	82.44
384.887	76.44
385.112	69.44
385.337	82.44
385.562	80.44
385.787	75.44
386.013	84.44
386.238	95.44
386.463	80.44
386.688	91.44
386.913	84.44
387.138	58.44
387.363	81.44
387.588	80.44
387.813	83.44
388.038	94.44
388.263	82.44
388.488	82.44
388.713	71.44
388.938	90.44
389.163	75.44
389.387	81.44
389.612	85.44
389.837	70.44
390.062	69.44
390.287	71.44
390.512	91.44
390.736	86.44
390.961	93.44
391.186	85.44
391.411	83.44
391.636	78.44
391.86	78.44
392.085	87.44
392.31	79.44
392.534	56.44
392.759	82.44
392.984	90.44
393.208	65.44
393.433	86.44
393.658	78.44
393.882	87.44
394.107	79.44
394.331	79.44
394.556	86.44
394.78	91.44
395.005	83.44
395.229	87.44
395.454	76.44
395.678	85.44
395.903	77.44
396.127	71.44
396.352	88.44
396.576	77.44
396.801	70.44
397.025	65.44
397.249	77.44
397.474	98.44
397.698	78.44
397.922	80.44
398.147	80.44
398.371	89.44
398.595	88.44
398.82	74.44
399.044	92.44
399.268	72.44
399.492	77.44
399.717	94.44
399.941	70.44
400.165	90.44
400.389	94.44
400.613	91.44
400.837	82.44
401.062	74.44
401.286	78.44
401.51	77.44
401.734	82.44
401.958	82.44
402.182	79.44
402.406	83.44
402.63	71.44
402.854	69.44
403.078	80.44
403.302	81.44
403.526	81.44
403.75	81.44
403.974	77.44
404.198	75.44
404.422	87.44
404.645	73.44
404.869	68.44
405.093	77.44
405.317	85.44
405.541	95.44
405.765	94.44
405.988	82.44
406.212	77.44
406.436	86.44
406.66	91.44
406.883	84.44
407.107	74.44
407.331	85.44
407.555	83.44
407.778	79.44
408.002	79.44
408.226	90.44
408.449	73.44
408.673	81.44
408.896	86.44
409.12	71.44
409.344	77.44
409.567	87.44
409.791	84.44
410.014	91.44
410.238	82.44
410.461	83.44
410.685	88.44
410.908	73.44
411.132	70.44
411.355	92.44
411.578	90.44
411.802	68.44
412.025	87.44
412.249	84.44
412.472	90.44
412.695	89.44
412.919	87.44
413.142	82.44
413.365	87.44
413.589	82.44
413.812	99.44
414.035	82.44
414.258	78.44
414.482	79.44
414.705	75.44
414.928	90.44
415.151	95.44
415.374	82.44
415.597	90.44
415.821	68.44
416.044	71.44
416.267	85.44
416.49	85.44
416.713	94.44
416.936	94.44
417.159	73.44
417.382	82.44
417.605	91.44
417.828	85.44
418.051	67.44
418.274	94.44
418.497	94.44
418.72	85.44
418.943	84.44
419.166	93.44
419.389	74.44
419.611	74.44
419.834	71.44
420.057	81.44
420.28	86.44
420.503	88.44
420.726	86.44
420.948	96.44
421.171	86.44
421.394	90.44
421.617	80.44
421.839	97.44
422.062	64.44
422.285	78.44
422.507	72.44
422.73	80.44
422.953	93.44
423.175	74.44
423.398	74.44
423.621	88.44
423.843	82.44
424.066	90.44
424.288	75.44
424.511	86.44
424.733	75.44
424.956	70.44
425.178	102.44
425.401	86.44
425.623	81.44
425.846	86.44
426.068	80.44
426.291	86.44
426.513	92.44
426.735	87.44
426.958	81.44
427.18	92.44
427.402	82.44
427.625	66.44
427.847	83.44
428.069	83.44
428.292	76.44
428.514	68.44
428.736	79.44
428.958	91.44
429.181	99.44
429.403	96.44
429.625	90.44
429.847	83.44
430.069	94.44
430.292	98.44
430.514	77.44
430.736	86.44
430.958	80.44
431.18	90.44
431.402	78.44
431.624	76.44
431.846	85.44
432.068	76.44
432.29	78.44
432.512	84.44
432.734	85.44
432.956	88.44
433.178	76.44
433.4	70.44
433.622	73.44
433.844	85.44
434.066	86.44
434.287	87.44
434.509	97.44
434.731	83.44
434.953	76.44
435.175	75.44
435.397	92.44
435.618	70.44
435.84	77.44
436.062	93.44
436.284	75.44
436.505	67.44
436.727	87.44
436.949	73.44
437.17	77.44
437.392	75.44
437.614	79.44
437.835	83.44
438.057	93.44
438.278	87.44
438.5	73.44
438.721	91.44
438.943	84.44
439.165	88.44
439.386	91.44
439.608	86.44
439.829	84.44
440.05	81.44
440.272	80.44
440.493	80.44
440.715	91.44
440.936	82.44
441.158	78.44
441.379	85.44
441.6	91.44
441.822	75.44
442.043	71.44
442.264	83.44
442.486	91.44
442.707	79.44
442.928	79.44
443.149	77.44
443.371	90.44
443.592	86.44
443.813	84.44
444.034	76.44
444.255	63.44
444.476	71.44
444.698	71.44
444.919	83.44
445.14	142.44
445.361	107.44
445.582	74.44
445.803	79.44
446.024	86.44
446.245	80.44
446.466	86.44
446.687	87.44
446.908	73.44
447.129	71.44
447.35	79.44
447.571	97.44
447.792	85.44
448.013	77.44
448.234	77.44
448.455	83.44
448.675	82.44
448.896	95.44
449.117	88.44
449.338	89.44
449.559	85.44
449.779	84.44
450	86.44
450.221	86.44
450.442	94.44
450.662	64.44
450.883	92.44
451.104	81.44
451.324	101.44
451.545	88.44
451.766	83.44
451.986	79.44
452.207	97.44
452.428	84.44
452.648	90.44
452.869	80.44
453.089	66.44
453.31	70.44
453.53	95.44
453.751	82.44
453.971	68.44
454.192	75.44
454.412	85.44
454.633	78.44
454.853	79.44
455.073	73.44
455.294	81.44
455.514	87.44
455.734	96.44
455.955	97.44
456.175	80.44
456.395	71.44
456.616	94.44
456.836	82.44
457.056	87.44
457.276	70.44
457.497	83.44
457.717	89.44
457.937	92.44
458.157	78.44
458.377	78.44
458.598	81.44
458.818	81.44
459.038	80.44
459.258	66.44
459.478	89.44
459.698	79.44
459.918	78.44
460.138	82.44
460.358	76.44
460.578	79.44
460.798	81.44
461.018	77.44
461.238	82.44
461.458	82.44
461.678	77.44
461.898	85.44
462.118	71.44
462.338	76.44
462.558	80.44
462.777	71.44
462.997	90.44
463.217	77.44
463.437	84.44
463.657	86.44
463.876	91.44
464.096	81.44
464.316	91.44
464.536	78.44
464.755	83.44
464.975	93.44
465.195	80.44
465.414	88.44
465.634	95.44
465.854	83.44
466.073	83.44
466.293	74.44
466.512	92.44
466.732	95.44
466.951	81.44
467.171	80.44
467.391	103.44
467.61	80.44
467.829	100.44
468.049	100.44
468.268	105.44
468.488	95.44
468.707	68.44
468.927	74.44
469.146	93.44
469.365	91.44
469.585	91.44
469.804	84.44
470.023	90.44
470.243	79.44
470.462	88.44
470.681	74.44
470.901	79.44
471.12	81.44
471.339	92.44
471.558	86.44
471.777	89.44
471.997	95.44
472.216	78.44
472.435	80.44
472.654	80.44
472.873	91.44
473.092	96.44
473.311	94.44
473.53	95.44
473.749	87.44
473.968	87.44
474.187	91.44
474.406	83.44
474.625	92.44
474.844	79.44
475.063	85.44
475.282	74.44
475.501	84.44
475.72	78.44
475.939	84.44
476.158	71.44
476.377	69.44
476.596	89.44
476.814	87.44
477.033	69.44
477.252	77.44
477.471	87.44
477.69	80.44
477.908	84.44
478.127	95.44
478.346	87.44
478.564	94.44
478.783	71.44
479.002	85.44
479.22	78.44
479.439	79.44
479.658	93.44
479.876	78.44
480.095	99.44
480.313	82.44
480.532	85.44
480.751	89.44
480.969	68.44
481.188	95.44
481.406	76.44
481.624	84.44
481.843	74.44
482.061	82.44
482.28	77.44
482.498	90.44
482.717	92.44
482.935	75.44
483.153	84.44
483.372	78.44
483.59	90.44
483.808	86.44
484.027	83.44
484.245	76.44
484.463	92.44
484.681	94.44
484.9	88.44
485.118	89.44
485.336	70.44
485.554	82.44
485.772	79.44
485.99	90.44
486.209	79.44
486.427	68.44
486.645	68.44
486.863	83.44
487.081	95.44
487.299	74.44
487.517	90.44
487.735	78.44
487.953	72.44
488.171	89.44
488.389	76.44
488.607	91.44
488.825	99.44
489.043	98.44
489.261	87.44
489.479	87.44
489.696	95.44
489.914	93.44
490.132	83.44
490.35	77.44
490.568	85.44
490.786	91.44
491.003	100.44
491.221	87.44
491.439	88.44
491.657	95.44
491.874	99.44
492.092	99.44
492.31	87.44
492.527	77.44
492.745	87.44
492.963	91.44
493.18	82.44
493.398	83.44
493.615	80.44
493.833	85.44
494.05	80.44
494.268	86.44
494.485	80.44
494.703	87.44
494.92	83.44
495.138	94.44
495.355	82.44
495.573	71.44
495.79	98.44
496.008	83.44
496.225	88.44
496.442	90.44
496.66	83.44
496.877	90.44
497.094	91.44
497.312	84.44
497.529	106.44
497.746	86.44
497.963	80.44
498.181	78.44
498.398	93.44
498.615	83.44
498.832	94.44
499.049	98.44
499.267	74.44
499.484	76.44
499.701	72.44
499.918	91.44
500.135	84.44
500.352	86.44
500.569	86.44
500.786	99.44
501.003	86.44
501.22	88.44
501.437	74.44
501.654	90.44
501.871	76.44
502.088	83.44
502.305	85.44
502.522	100.44
502.739	77.44
502.956	85.44
503.172	75.44
503.389	84.44
503.606	83.44
503.823	87.44
504.04	78.44
504.256	78.44
504.473	82.44
504.69	93.44
504.907	73.44
505.123	82.44
505.34	76.44
505.557	79.44
505.773	95.44
505.99	86.44
506.207	68.44
506.423	78.44
506.64	90.44
506.856	80.44
507.073	74.44
507.289	93.44
507.506	94.44
507.722	94.44
507.939	91.44
508.155	87.44
508.372	75.44
508.588	87.44
508.805	79.44
509.021	86.44
509.238	91.44
509.454	76.44
509.67	93.44
509.887	80.44
510.103	83.44
510.319	87.44
510.536	89.44
510.752	68.44
510.968	82.44
511.184	86.44
511.401	85.44
511.617	90.44
511.833	81.44
512.049	68.44
512.265	83.44
512.481	97.44
512.698	80.44
512.914	78.44
513.13	78.44
513.346	75.44
513.562	79.44
513.778	78.44
513.994	66.44
514.21	96.44
514.426	85.44
514.642	82.44
514.858	106.44
515.074	86.44
515.29	85.44
515.506	84.44
515.721	74.44
515.937	92.44
516.153	82.44
516.369	82.44
516.585	69.44
516.801	70.44
517.016	75.44
517.232	93.44
517.448	82.44
517.664	77.44
517.879	82.44
518.095	83.44
518.311	74.44
518.527	82.44
518.742	80.44
518.958	94.44
519.173	92.44
519.389	86.44
519.605	100.44
519.82	90.44
520.036	86.44
