Data from Alignment_HRD10591_00014.txt Node
Date: Fri Dec 27 14:18:37 EST 2024
User: Yrep
Spectrometer: HR+D1059
Trigger mode: 1
Integration Time (sec): 1.000000E-1
Scans to average: 1
Electric dark correction enabled: true
Nonlinearity correction enabled: false
Boxcar width: 0
XAxis mode: Wavelengths
Number of Pixels in Spectrum: 2048
>>>>>Begin Spectral Data<<<<<
223.165	-15.62
223.4	-15.62
223.635	-15.62
223.869	-28.62
224.104	-30.62
224.338	-0.62
224.573	-11.62
224.808	-10.62
225.042	-16.62
225.277	-10.62
225.511	-2.62
225.746	6.38
225.98	4.38
226.215	5.38
226.449	26.38
226.683	14.38
226.918	25.38
227.152	45.38
227.387	35.38
227.621	38.38
227.856	34.38
228.09	46.38
228.324	48.38
228.559	54.38
228.793	59.38
229.027	65.38
229.262	62.38
229.496	62.38
229.73	69.38
229.964	75.38
230.199	70.38
230.433	61.38
230.667	75.38
230.901	93.38
231.136	73.38
231.37	77.38
231.604	85.38
231.838	71.38
232.072	77.38
232.306	82.38
232.541	86.38
232.775	73.38
233.009	76.38
233.243	86.38
233.477	70.38
233.711	79.38
233.945	77.38
234.179	83.38
234.413	79.38
234.647	78.38
234.881	77.38
235.115	80.38
235.349	85.38
235.583	72.38
235.817	69.38
236.051	80.38
236.285	77.38
236.519	71.38
236.753	65.38
236.987	73.38
237.221	75.38
237.455	84.38
237.689	74.38
237.922	75.38
238.156	70.38
238.39	81.38
238.624	98.38
238.858	77.38
239.091	79.38
239.325	82.38
239.559	74.38
239.793	87.38
240.027	98.38
240.26	76.38
240.494	77.38
240.728	61.38
240.961	62.38
241.195	85.38
241.429	73.38
241.662	67.38
241.896	92.38
242.13	65.38
242.363	80.38
242.597	78.38
242.83	79.38
243.064	67.38
243.298	72.38
243.531	80.38
243.765	88.38
243.998	74.38
244.232	71.38
244.465	71.38
244.699	80.38
244.932	79.38
245.166	66.38
245.399	65.38
245.633	68.38
245.866	84.38
246.099	63.38
246.333	69.38
246.566	75.38
246.8	68.38
247.033	85.38
247.266	81.38
247.5	84.38
247.733	77.38
247.966	71.38
248.2	71.38
248.433	76.38
248.666	67.38
248.899	58.38
249.133	67.38
249.366	80.38
249.599	76.38
249.832	79.38
250.066	85.38
250.299	78.38
250.532	78.38
250.765	75.38
250.998	72.38
251.231	81.38
251.465	76.38
251.698	71.38
251.931	73.38
252.164	63.38
252.397	72.38
252.63	69.38
252.863	76.38
253.096	81.38
253.329	82.38
253.562	69.38
253.795	61.38
254.028	73.38
254.261	74.38
254.494	70.38
254.727	92.38
254.96	61.38
255.193	78.38
255.426	74.38
255.659	76.38
255.892	79.38
256.124	68.38
256.357	85.38
256.59	71.38
256.823	80.38
257.056	83.38
257.289	76.38
257.521	78.38
257.754	79.38
257.987	81.38
258.22	77.38
258.452	81.38
258.685	65.38
258.918	71.38
259.151	73.38
259.383	79.38
259.616	68.38
259.849	72.38
260.081	82.38
260.314	84.38
260.547	75.38
260.779	70.38
261.012	77.38
261.244	85.38
261.477	84.38
261.71	81.38
261.942	79.38
262.175	70.38
262.407	78.38
262.64	76.38
262.872	77.38
263.105	70.38
263.337	74.38
263.57	77.38
263.802	85.38
264.035	85.38
264.267	73.38
264.499	82.38
264.732	90.38
264.964	75.38
265.197	84.38
265.429	89.38
265.661	81.38
265.894	94.38
266.126	84.38
266.358	68.38
266.591	90.38
266.823	83.38
267.055	61.38
267.287	63.38
267.52	63.38
267.752	93.38
267.984	84.38
268.216	72.38
268.448	81.38
268.681	91.38
268.913	84.38
269.145	83.38
269.377	86.38
269.609	70.38
269.841	85.38
270.073	72.38
270.306	86.38
270.538	77.38
270.77	82.38
271.002	101.38
271.234	70.38
271.466	68.38
271.698	70.38
271.93	80.38
272.162	78.38
272.394	87.38
272.626	74.38
272.858	73.38
273.09	87.38
273.322	73.38
273.553	82.38
273.785	77.38
274.017	104.38
274.249	79.38
274.481	71.38
274.713	71.38
274.945	79.38
275.176	83.38
275.408	87.38
275.64	79.38
275.872	82.38
276.104	71.38
276.335	89.38
276.567	80.38
276.799	84.38
277.031	59.38
277.262	80.38
277.494	87.38
277.726	81.38
277.957	75.38
278.189	71.38
278.421	76.38
278.652	85.38
278.884	92.38
279.115	89.38
279.347	63.38
279.579	83.38
279.81	78.38
280.042	79.38
280.273	78.38
280.505	82.38
280.736	93.38
280.968	76.38
281.199	84.38
281.431	95.38
281.662	89.38
281.894	82.38
282.125	79.38
282.356	83.38
282.588	87.38
282.819	90.38
283.051	73.38
283.282	78.38
283.513	80.38
283.745	84.38
283.976	73.38
284.207	69.38
284.439	85.38
284.67	82.38
284.901	89.38
285.132	77.38
285.364	74.38
285.595	81.38
285.826	72.38
286.057	84.38
286.288	92.38
286.52	82.38
286.751	91.38
286.982	84.38
287.213	82.38
287.444	85.38
287.675	89.38
287.906	83.38
288.138	64.38
288.369	70.38
288.6	80.38
288.831	89.38
289.062	79.38
289.293	69.38
289.524	76.38
289.755	77.38
289.986	81.38
290.217	92.38
290.448	69.38
290.679	90.38
290.91	79.38
291.141	89.38
291.371	77.38
291.602	92.38
291.833	84.38
292.064	76.38
292.295	84.38
292.526	70.38
292.757	76.38
292.987	79.38
293.218	70.38
293.449	79.38
293.68	74.38
293.91	80.38
294.141	67.38
294.372	77.38
294.603	91.38
294.833	73.38
295.064	68.38
295.295	85.38
295.525	90.38
295.756	94.38
295.987	71.38
296.217	85.38
296.448	71.38
296.679	86.38
296.909	77.38
297.14	84.38
297.37	84.38
297.601	63.38
297.831	69.38
298.062	85.38
298.292	76.38
298.523	90.38
298.753	81.38
298.984	96.38
299.214	92.38
299.445	82.38
299.675	75.38
299.905	90.38
300.136	74.38
300.366	94.38
300.597	90.38
300.827	64.38
301.057	54.38
301.288	80.38
301.518	85.38
301.748	83.38
301.979	97.38
302.209	90.38
302.439	81.38
302.669	69.38
302.9	81.38
303.13	71.38
303.36	81.38
303.59	85.38
303.82	84.38
304.051	94.38
304.281	86.38
304.511	76.38
304.741	84.38
304.971	86.38
305.201	84.38
305.431	83.38
305.661	100.38
305.891	79.38
306.121	78.38
306.352	76.38
306.582	91.38
306.812	99.38
307.042	89.38
307.272	80.38
307.502	80.38
307.731	69.38
307.961	75.38
308.191	79.38
308.421	79.38
308.651	77.38
308.881	82.38
309.111	79.38
309.341	89.38
309.571	79.38
309.8	84.38
310.03	72.38
310.26	87.38
310.49	87.38
310.72	81.38
310.949	87.38
311.179	84.38
311.409	78.38
311.639	85.38
311.868	83.38
312.098	76.38
312.328	75.38
312.557	74.38
312.787	75.38
313.017	84.38
313.246	74.38
313.476	76.38
313.706	80.38
313.935	83.38
314.165	83.38
314.394	86.38
314.624	96.38
314.853	101.38
315.083	86.38
315.312	81.38
315.542	84.38
315.771	81.38
316.001	83.38
316.23	70.38
316.46	82.38
316.689	82.38
316.919	77.38
317.148	80.38
317.377	89.38
317.607	82.38
317.836	97.38
318.065	66.38
318.295	89.38
318.524	95.38
318.753	91.38
318.983	83.38
319.212	87.38
319.441	96.38
319.67	91.38
319.9	61.38
320.129	77.38
320.358	82.38
320.587	74.38
320.816	56.38
321.046	86.38
321.275	90.38
321.504	88.38
321.733	75.38
321.962	89.38
322.191	91.38
322.42	73.38
322.649	81.38
322.878	88.38
323.108	69.38
323.337	89.38
323.566	67.38
323.795	78.38
324.024	70.38
324.253	78.38
324.482	81.38
324.71	89.38
324.939	73.38
325.168	85.38
325.397	79.38
325.626	75.38
325.855	85.38
326.084	92.38
326.313	74.38
326.542	71.38
326.77	83.38
326.999	79.38
327.228	81.38
327.457	80.38
327.686	81.38
327.914	82.38
328.143	89.38
328.372	90.38
328.6	79.38
328.829	84.38
329.058	75.38
329.287	79.38
329.515	71.38
329.744	82.38
329.972	79.38
330.201	93.38
330.43	89.38
330.658	89.38
330.887	80.38
331.115	74.38
331.344	72.38
331.572	87.38
331.801	90.38
332.03	81.38
332.258	84.38
332.486	80.38
332.715	95.38
332.943	87.38
333.172	82.38
333.4	72.38
333.629	75.38
333.857	78.38
334.085	74.38
334.314	94.38
334.542	85.38
334.771	84.38
334.999	70.38
335.227	68.38
335.455	87.38
335.684	82.38
335.912	69.38
336.14	72.38
336.369	73.38
336.597	78.38
336.825	83.38
337.053	88.38
337.281	70.38
337.51	81.38
337.738	82.38
337.966	85.38
338.194	77.38
338.422	74.38
338.65	79.38
338.878	71.38
339.106	95.38
339.334	95.38
339.562	68.38
339.79	89.38
340.018	75.38
340.246	84.38
340.474	91.38
340.702	79.38
340.93	84.38
341.158	95.38
341.386	71.38
341.614	86.38
341.842	89.38
342.07	87.38
342.298	75.38
342.526	90.38
342.754	79.38
342.981	87.38
343.209	69.38
343.437	109.38
343.665	90.38
343.893	78.38
344.12	72.38
344.348	61.38
344.576	82.38
344.804	97.38
345.031	69.38
345.259	87.38
345.487	80.38
345.714	76.38
345.942	85.38
346.17	83.38
346.397	77.38
346.625	80.38
346.853	91.38
347.08	93.38
347.308	94.38
347.535	89.38
347.763	80.38
347.99	86.38
348.218	87.38
348.445	90.38
348.673	81.38
348.9	85.38
349.128	69.38
349.355	86.38
349.583	82.38
349.81	90.38
350.037	85.38
350.265	83.38
350.492	73.38
350.72	70.38
350.947	90.38
351.174	102.38
351.402	82.38
351.629	81.38
351.856	73.38
352.083	75.38
352.311	74.38
352.538	73.38
352.765	73.38
352.992	84.38
353.22	91.38
353.447	83.38
353.674	98.38
353.901	84.38
354.128	84.38
354.355	67.38
354.583	73.38
354.81	84.38
355.037	78.38
355.264	108.38
355.491	77.38
355.718	79.38
355.945	78.38
356.172	89.38
356.399	68.38
356.626	83.38
356.853	81.38
357.08	82.38
357.307	80.38
357.534	82.38
357.761	77.38
357.988	74.38
358.215	81.38
358.441	82.38
358.668	87.38
358.895	88.38
359.122	82.38
359.349	73.38
359.576	78.38
359.802	92.38
360.029	90.38
360.256	86.38
360.483	85.38
360.709	76.38
360.936	83.38
361.163	93.38
361.39	85.38
361.616	93.38
361.843	96.38
362.07	98.38
362.296	78.38
362.523	77.38
362.749	80.38
362.976	76.38
363.203	82.38
363.429	85.38
363.656	76.38
363.882	74.38
364.109	92.38
364.335	87.38
364.562	69.38
364.788	73.38
365.015	87.38
365.241	72.38
365.468	92.38
365.694	81.38
365.92	82.38
366.147	89.38
366.373	83.38
366.599	81.38
366.826	87.38
367.052	76.38
367.278	90.38
367.505	86.38
367.731	86.38
367.957	68.38
368.184	72.38
368.41	79.38
368.636	75.38
368.862	73.38
369.089	64.38
369.315	82.38
369.541	81.38
369.767	83.38
369.993	84.38
370.219	71.38
370.445	73.38
370.672	75.38
370.898	89.38
371.124	79.38
371.35	83.38
371.576	85.38
371.802	75.38
372.028	75.38
372.254	102.38
372.48	98.38
372.706	84.38
372.932	86.38
373.158	65.38
373.384	83.38
373.61	80.38
373.835	69.38
374.061	74.38
374.287	77.38
374.513	76.38
374.739	62.38
374.965	69.38
375.191	69.38
375.416	93.38
375.642	83.38
375.868	85.38
376.094	85.38
376.319	88.38
376.545	89.38
376.771	90.38
376.997	77.38
377.222	87.38
377.448	87.38
377.674	74.38
377.899	79.38
378.125	82.38
378.35	81.38
378.576	79.38
378.802	81.38
379.027	81.38
379.253	82.38
379.478	85.38
379.704	83.38
379.929	73.38
380.155	81.38
380.38	75.38
380.606	94.38
380.831	85.38
381.057	87.38
381.282	95.38
381.507	73.38
381.733	77.38
381.958	82.38
382.184	89.38
382.409	70.38
382.634	73.38
382.86	88.38
383.085	79.38
383.31	84.38
383.535	73.38
383.761	85.38
383.986	75.38
384.211	99.38
384.436	83.38
384.662	79.38
384.887	93.38
385.112	75.38
385.337	73.38
385.562	72.38
385.787	85.38
386.013	80.38
386.238	82.38
386.463	74.38
386.688	85.38
386.913	87.38
387.138	106.38
387.363	77.38
387.588	81.38
387.813	87.38
388.038	83.38
388.263	78.38
388.488	71.38
388.713	81.38
388.938	83.38
389.163	78.38
389.387	84.38
389.612	79.38
389.837	92.38
390.062	91.38
390.287	69.38
390.512	88.38
390.736	74.38
390.961	81.38
391.186	85.38
391.411	80.38
391.636	67.38
391.86	93.38
392.085	73.38
392.31	77.38
392.534	78.38
392.759	78.38
392.984	79.38
393.208	74.38
393.433	69.38
393.658	83.38
393.882	68.38
394.107	78.38
394.331	95.38
394.556	84.38
394.78	81.38
395.005	78.38
395.229	83.38
395.454	83.38
395.678	91.38
395.903	69.38
396.127	86.38
396.352	84.38
396.576	94.38
396.801	95.38
397.025	88.38
397.249	72.38
397.474	99.38
397.698	95.38
397.922	83.38
398.147	86.38
398.371	86.38
398.595	97.38
398.82	82.38
399.044	83.38
399.268	86.38
399.492	79.38
399.717	83.38
399.941	86.38
400.165	94.38
400.389	76.38
400.613	89.38
400.837	82.38
401.062	80.38
401.286	86.38
401.51	91.38
401.734	84.38
401.958	78.38
402.182	83.38
402.406	74.38
402.63	88.38
402.854	76.38
403.078	72.38
403.302	75.38
403.526	91.38
403.75	78.38
403.974	86.38
404.198	71.38
404.422	91.38
404.645	79.38
404.869	82.38
405.093	81.38
405.317	78.38
405.541	97.38
405.765	86.38
405.988	84.38
406.212	97.38
406.436	78.38
406.66	75.38
406.883	78.38
407.107	82.38
407.331	77.38
407.555	97.38
407.778	77.38
408.002	77.38
408.226	89.38
408.449	63.38
408.673	71.38
408.896	69.38
409.12	86.38
409.344	82.38
409.567	85.38
409.791	81.38
410.014	75.38
410.238	88.38
410.461	83.38
410.685	79.38
410.908	82.38
411.132	81.38
411.355	80.38
411.578	95.38
411.802	80.38
412.025	88.38
412.249	91.38
412.472	86.38
412.695	78.38
412.919	75.38
413.142	77.38
413.365	79.38
413.589	77.38
413.812	90.38
414.035	85.38
414.258	86.38
414.482	77.38
414.705	90.38
414.928	70.38
415.151	77.38
415.374	92.38
415.597	81.38
415.821	81.38
416.044	68.38
416.267	86.38
416.49	74.38
416.713	76.38
416.936	88.38
417.159	73.38
417.382	72.38
417.605	76.38
417.828	78.38
418.051	87.38
418.274	81.38
418.497	80.38
418.72	73.38
418.943	92.38
419.166	85.38
419.389	67.38
419.611	85.38
419.834	70.38
420.057	94.38
420.28	91.38
420.503	83.38
420.726	77.38
420.948	82.38
421.171	68.38
421.394	77.38
421.617	84.38
421.839	68.38
422.062	84.38
422.285	69.38
422.507	79.38
422.73	89.38
422.953	90.38
423.175	79.38
423.398	82.38
423.621	69.38
423.843	84.38
424.066	71.38
424.288	95.38
424.511	94.38
424.733	71.38
424.956	76.38
425.178	82.38
425.401	83.38
425.623	74.38
425.846	84.38
426.068	70.38
426.291	81.38
426.513	89.38
426.735	83.38
426.958	82.38
427.18	71.38
427.402	99.38
427.625	87.38
427.847	82.38
428.069	82.38
428.292	85.38
428.514	87.38
428.736	92.38
428.958	93.38
429.181	69.38
429.403	64.38
429.625	65.38
429.847	91.38
430.069	93.38
430.292	95.38
430.514	90.38
430.736	78.38
430.958	87.38
431.18	86.38
431.402	69.38
431.624	81.38
431.846	68.38
432.068	79.38
432.29	79.38
432.512	90.38
432.734	73.38
432.956	74.38
433.178	85.38
433.4	85.38
433.622	89.38
433.844	82.38
434.066	83.38
434.287	80.38
434.509	87.38
434.731	78.38
434.953	83.38
435.175	70.38
435.397	75.38
435.618	87.38
435.84	79.38
436.062	91.38
436.284	91.38
436.505	85.38
436.727	77.38
436.949	82.38
437.17	79.38
437.392	81.38
437.614	73.38
437.835	63.38
438.057	99.38
438.278	75.38
438.5	86.38
438.721	85.38
438.943	92.38
439.165	94.38
439.386	60.38
439.608	81.38
439.829	83.38
440.05	84.38
440.272	98.38
440.493	77.38
440.715	75.38
440.936	88.38
441.158	77.38
441.379	86.38
441.6	88.38
441.822	70.38
442.043	80.38
442.264	76.38
442.486	77.38
442.707	78.38
442.928	75.38
443.149	85.38
443.371	83.38
443.592	67.38
443.813	81.38
444.034	100.38
444.255	89.38
444.476	69.38
444.698	75.38
444.919	83.38
445.14	148.38
445.361	104.38
445.582	77.38
445.803	70.38
446.024	70.38
446.245	86.38
446.466	84.38
446.687	75.38
446.908	83.38
447.129	76.38
447.35	86.38
447.571	78.38
447.792	73.38
448.013	74.38
448.234	80.38
448.455	79.38
448.675	72.38
448.896	82.38
449.117	87.38
449.338	81.38
449.559	82.38
449.779	80.38
450	78.38
450.221	84.38
450.442	91.38
450.662	53.38
450.883	77.38
451.104	86.38
451.324	83.38
451.545	94.38
451.766	81.38
451.986	80.38
452.207	74.38
452.428	84.38
452.648	83.38
452.869	80.38
453.089	90.38
453.31	77.38
453.53	65.38
453.751	72.38
453.971	89.38
454.192	86.38
454.412	79.38
454.633	73.38
454.853	67.38
455.073	91.38
455.294	91.38
455.514	83.38
455.734	70.38
455.955	79.38
456.175	79.38
456.395	71.38
456.616	96.38
456.836	74.38
457.056	70.38
457.276	75.38
457.497	77.38
457.717	92.38
457.937	90.38
458.157	80.38
458.377	86.38
458.598	71.38
458.818	77.38
459.038	77.38
459.258	75.38
459.478	82.38
459.698	69.38
459.918	75.38
460.138	78.38
460.358	82.38
460.578	71.38
460.798	71.38
461.018	89.38
461.238	89.38
461.458	82.38
461.678	77.38
461.898	85.38
462.118	78.38
462.338	83.38
462.558	82.38
462.777	77.38
462.997	90.38
463.217	82.38
463.437	93.38
463.657	68.38
463.876	79.38
464.096	78.38
464.316	73.38
464.536	81.38
464.755	89.38
464.975	76.38
465.195	77.38
465.414	78.38
465.634	74.38
465.854	83.38
466.073	99.38
466.293	83.38
466.512	69.38
466.732	72.38
466.951	98.38
467.171	82.38
467.391	86.38
467.61	93.38
467.829	79.38
468.049	75.38
468.268	88.38
468.488	95.38
468.707	89.38
468.927	84.38
469.146	93.38
469.365	75.38
469.585	82.38
469.804	69.38
470.023	70.38
470.243	82.38
470.462	87.38
470.681	89.38
470.901	81.38
471.12	69.38
471.339	81.38
471.558	77.38
471.777	76.38
471.997	86.38
472.216	66.38
472.435	76.38
472.654	91.38
472.873	89.38
473.092	64.38
473.311	76.38
473.53	82.38
473.749	91.38
473.968	86.38
474.187	86.38
474.406	99.38
474.625	96.38
474.844	80.38
475.063	77.38
475.282	82.38
475.501	67.38
475.72	89.38
475.939	89.38
476.158	84.38
476.377	83.38
476.596	94.38
476.814	62.38
477.033	80.38
477.252	72.38
477.471	87.38
477.69	90.38
477.908	89.38
478.127	86.38
478.346	75.38
478.564	69.38
478.783	89.38
479.002	73.38
479.22	68.38
479.439	96.38
479.658	75.38
479.876	70.38
480.095	88.38
480.313	75.38
480.532	77.38
480.751	82.38
480.969	97.38
481.188	94.38
481.406	95.38
481.624	81.38
481.843	83.38
482.061	75.38
482.28	89.38
482.498	95.38
482.717	82.38
482.935	78.38
483.153	78.38
483.372	84.38
483.59	81.38
483.808	78.38
484.027	90.38
484.245	72.38
484.463	82.38
484.681	84.38
484.9	75.38
485.118	78.38
485.336	81.38
485.554	89.38
485.772	67.38
485.99	67.38
486.209	83.38
486.427	73.38
486.645	77.38
486.863	84.38
487.081	90.38
487.299	92.38
487.517	85.38
487.735	90.38
487.953	76.38
488.171	86.38
488.389	87.38
488.607	92.38
488.825	65.38
489.043	74.38
489.261	84.38
489.479	83.38
489.696	82.38
489.914	91.38
490.132	78.38
490.35	78.38
490.568	75.38
490.786	90.38
491.003	93.38
491.221	94.38
491.439	82.38
491.657	92.38
491.874	93.38
492.092	85.38
492.31	90.38
492.527	86.38
492.745	83.38
492.963	90.38
493.18	99.38
493.398	90.38
493.615	76.38
493.833	86.38
494.05	89.38
494.268	93.38
494.485	85.38
494.703	78.38
494.92	75.38
495.138	102.38
495.355	92.38
495.573	80.38
495.79	69.38
496.008	82.38
496.225	83.38
496.442	93.38
496.66	89.38
496.877	90.38
497.094	97.38
497.312	77.38
497.529	78.38
497.746	71.38
497.963	77.38
498.181	61.38
498.398	73.38
498.615	90.38
498.832	83.38
499.049	87.38
499.267	80.38
499.484	75.38
499.701	71.38
499.918	84.38
500.135	80.38
500.352	86.38
500.569	98.38
500.786	84.38
501.003	87.38
501.22	76.38
501.437	82.38
501.654	79.38
501.871	74.38
502.088	74.38
502.305	75.38
502.522	85.38
502.739	77.38
502.956	80.38
503.172	86.38
503.389	86.38
503.606	81.38
503.823	72.38
504.04	86.38
504.256	90.38
504.473	91.38
504.69	93.38
504.907	91.38
505.123	89.38
505.34	86.38
505.557	82.38
505.773	84.38
505.99	72.38
506.207	78.38
506.423	83.38
506.64	85.38
506.856	65.38
507.073	85.38
507.289	79.38
507.506	83.38
507.722	87.38
507.939	79.38
508.155	76.38
508.372	79.38
508.588	84.38
508.805	73.38
509.021	95.38
509.238	98.38
509.454	82.38
509.67	80.38
509.887	82.38
510.103	94.38
510.319	71.38
510.536	78.38
510.752	80.38
510.968	97.38
511.184	75.38
511.401	70.38
511.617	80.38
511.833	85.38
512.049	81.38
512.265	81.38
512.481	91.38
512.698	87.38
512.914	83.38
513.13	80.38
513.346	76.38
513.562	85.38
513.778	87.38
513.994	78.38
514.21	86.38
514.426	84.38
514.642	79.38
514.858	84.38
515.074	81.38
515.29	89.38
515.506	84.38
515.721	93.38
515.937	93.38
516.153	73.38
516.369	69.38
516.585	67.38
516.801	78.38
517.016	89.38
517.232	83.38
517.448	76.38
517.664	94.38
517.879	82.38
518.095	79.38
518.311	83.38
518.527	77.38
518.742	84.38
518.958	82.38
519.173	68.38
519.389	85.38
519.605	75.38
519.82	91.38
520.036	75.38
