Data from Alignment_HRD10591_00017.txt Node
Date: Fri Dec 27 14:18:40 EST 2024
User: Yrep
Spectrometer: HR+D1059
Trigger mode: 1
Integration Time (sec): 1.000000E-1
Scans to average: 1
Electric dark correction enabled: true
Nonlinearity correction enabled: false
Boxcar width: 0
XAxis mode: Wavelengths
Number of Pixels in Spectrum: 2048
>>>>>Begin Spectral Data<<<<<
223.165	-16.75
223.4	-16.75
223.635	-16.75
223.869	-29.75
224.104	-13.75
224.338	-15.75
224.573	-11.75
224.808	-6.75
225.042	-11.75
225.277	4.25
225.511	-12.75
225.746	4.25
225.98	9.25
226.215	4.25
226.449	8.25
226.683	32.25
226.918	22.25
227.152	34.25
227.387	31.25
227.621	32.25
227.856	38.25
228.09	47.25
228.324	59.25
228.559	62.25
228.793	50.25
229.027	50.25
229.262	67.25
229.496	65.25
229.73	61.25
229.964	86.25
230.199	76.25
230.433	82.25
230.667	80.25
230.901	70.25
231.136	65.25
231.37	78.25
231.604	67.25
231.838	74.25
232.072	73.25
232.306	72.25
232.541	78.25
232.775	90.25
233.009	91.25
233.243	83.25
233.477	70.25
233.711	85.25
233.945	70.25
234.179	65.25
234.413	87.25
234.647	76.25
234.881	80.25
235.115	82.25
235.349	70.25
235.583	89.25
235.817	90.25
236.051	77.25
236.285	74.25
236.519	80.25
236.753	81.25
236.987	76.25
237.221	71.25
237.455	78.25
237.689	78.25
237.922	70.25
238.156	72.25
238.39	76.25
238.624	79.25
238.858	61.25
239.091	76.25
239.325	82.25
239.559	75.25
239.793	68.25
240.027	78.25
240.26	67.25
240.494	58.25
240.728	79.25
240.961	83.25
241.195	77.25
241.429	81.25
241.662	83.25
241.896	78.25
242.13	75.25
242.363	72.25
242.597	74.25
242.83	78.25
243.064	73.25
243.298	71.25
243.531	71.25
243.765	64.25
243.998	76.25
244.232	81.25
244.465	75.25
244.699	79.25
244.932	65.25
245.166	82.25
245.399	76.25
245.633	88.25
245.866	81.25
246.099	81.25
246.333	82.25
246.566	70.25
246.8	88.25
247.033	77.25
247.266	80.25
247.5	78.25
247.733	89.25
247.966	68.25
248.2	72.25
248.433	75.25
248.666	68.25
248.899	79.25
249.133	82.25
249.366	81.25
249.599	93.25
249.832	88.25
250.066	95.25
250.299	91.25
250.532	79.25
250.765	92.25
250.998	68.25
251.231	65.25
251.465	85.25
251.698	78.25
251.931	91.25
252.164	92.25
252.397	73.25
252.63	77.25
252.863	73.25
253.096	74.25
253.329	73.25
253.562	71.25
253.795	83.25
254.028	75.25
254.261	94.25
254.494	79.25
254.727	88.25
254.96	88.25
255.193	61.25
255.426	90.25
255.659	88.25
255.892	85.25
256.124	72.25
256.357	76.25
256.59	71.25
256.823	77.25
257.056	81.25
257.289	71.25
257.521	75.25
257.754	72.25
257.987	85.25
258.22	81.25
258.452	90.25
258.685	95.25
258.918	83.25
259.151	80.25
259.383	76.25
259.616	73.25
259.849	87.25
260.081	79.25
260.314	88.25
260.547	78.25
260.779	80.25
261.012	76.25
261.244	91.25
261.477	96.25
261.71	58.25
261.942	69.25
262.175	75.25
262.407	79.25
262.64	80.25
262.872	82.25
263.105	78.25
263.337	83.25
263.57	82.25
263.802	78.25
264.035	68.25
264.267	86.25
264.499	75.25
264.732	92.25
264.964	76.25
265.197	78.25
265.429	80.25
265.661	89.25
265.894	75.25
266.126	86.25
266.358	69.25
266.591	78.25
266.823	76.25
267.055	83.25
267.287	81.25
267.52	85.25
267.752	84.25
267.984	84.25
268.216	77.25
268.448	96.25
268.681	84.25
268.913	83.25
269.145	86.25
269.377	90.25
269.609	80.25
269.841	96.25
270.073	98.25
270.306	89.25
270.538	86.25
270.77	91.25
271.002	82.25
271.234	86.25
271.466	84.25
271.698	85.25
271.93	85.25
272.162	83.25
272.394	91.25
272.626	80.25
272.858	90.25
273.09	63.25
273.322	88.25
273.553	80.25
273.785	76.25
274.017	75.25
274.249	70.25
274.481	76.25
274.713	79.25
274.945	70.25
275.176	74.25
275.408	84.25
275.64	72.25
275.872	87.25
276.104	81.25
276.335	80.25
276.567	85.25
276.799	85.25
277.031	77.25
277.262	67.25
277.494	85.25
277.726	95.25
277.957	80.25
278.189	80.25
278.421	85.25
278.652	88.25
278.884	98.25
279.115	90.25
279.347	90.25
279.579	80.25
279.81	92.25
280.042	76.25
280.273	77.25
280.505	84.25
280.736	79.25
280.968	82.25
281.199	78.25
281.431	84.25
281.662	83.25
281.894	91.25
282.125	83.25
282.356	79.25
282.588	98.25
282.819	97.25
283.051	98.25
283.282	77.25
283.513	81.25
283.745	80.25
283.976	78.25
284.207	82.25
284.439	88.25
284.67	94.25
284.901	98.25
285.132	89.25
285.364	79.25
285.595	87.25
285.826	98.25
286.057	74.25
286.288	76.25
286.52	91.25
286.751	89.25
286.982	73.25
287.213	91.25
287.444	72.25
287.675	92.25
287.906	86.25
288.138	90.25
288.369	73.25
288.6	66.25
288.831	74.25
289.062	93.25
289.293	94.25
289.524	73.25
289.755	84.25
289.986	92.25
290.217	72.25
290.448	91.25
290.679	73.25
290.91	82.25
291.141	76.25
291.371	94.25
291.602	75.25
291.833	87.25
292.064	88.25
292.295	100.25
292.526	90.25
292.757	86.25
292.987	96.25
293.218	76.25
293.449	84.25
293.68	88.25
293.91	83.25
294.141	99.25
294.372	94.25
294.603	78.25
294.833	79.25
295.064	100.25
295.295	83.25
295.525	93.25
295.756	100.25
295.987	95.25
296.217	76.25
296.448	77.25
296.679	80.25
296.909	81.25
297.14	82.25
297.37	77.25
297.601	79.25
297.831	78.25
298.062	88.25
298.292	83.25
298.523	87.25
298.753	84.25
298.984	91.25
299.214	83.25
299.445	81.25
299.675	80.25
299.905	77.25
300.136	85.25
300.366	75.25
300.597	79.25
300.827	84.25
301.057	82.25
301.288	84.25
301.518	84.25
301.748	83.25
301.979	80.25
302.209	81.25
302.439	81.25
302.669	84.25
302.9	91.25
303.13	79.25
303.36	85.25
303.59	88.25
303.82	84.25
304.051	67.25
304.281	97.25
304.511	81.25
304.741	94.25
304.971	92.25
305.201	91.25
305.431	76.25
305.661	88.25
305.891	76.25
306.121	80.25
306.352	83.25
306.582	88.25
306.812	91.25
307.042	91.25
307.272	74.25
307.502	96.25
307.731	95.25
307.961	97.25
308.191	86.25
308.421	88.25
308.651	106.25
308.881	82.25
309.111	96.25
309.341	82.25
309.571	84.25
309.8	90.25
310.03	87.25
310.26	86.25
310.49	73.25
310.72	89.25
310.949	70.25
311.179	83.25
311.409	82.25
311.639	91.25
311.868	85.25
312.098	80.25
312.328	85.25
312.557	67.25
312.787	78.25
313.017	97.25
313.246	82.25
313.476	89.25
313.706	89.25
313.935	79.25
314.165	84.25
314.394	76.25
314.624	88.25
314.853	81.25
315.083	81.25
315.312	94.25
315.542	96.25
315.771	91.25
316.001	84.25
316.23	82.25
316.46	81.25
316.689	86.25
316.919	81.25
317.148	87.25
317.377	84.25
317.607	84.25
317.836	81.25
318.065	81.25
318.295	84.25
318.524	88.25
318.753	85.25
318.983	76.25
319.212	72.25
319.441	80.25
319.67	84.25
319.9	99.25
320.129	90.25
320.358	78.25
320.587	92.25
320.816	85.25
321.046	88.25
321.275	81.25
321.504	89.25
321.733	78.25
321.962	97.25
322.191	71.25
322.42	87.25
322.649	74.25
322.878	78.25
323.108	91.25
323.337	98.25
323.566	89.25
323.795	93.25
324.024	76.25
324.253	100.25
324.482	81.25
324.71	75.25
324.939	94.25
325.168	98.25
325.397	93.25
325.626	96.25
325.855	77.25
326.084	78.25
326.313	80.25
326.542	83.25
326.77	88.25
326.999	94.25
327.228	81.25
327.457	83.25
327.686	75.25
327.914	95.25
328.143	82.25
328.372	80.25
328.6	77.25
328.829	68.25
329.058	90.25
329.287	90.25
329.515	65.25
329.744	74.25
329.972	76.25
330.201	102.25
330.43	88.25
330.658	91.25
330.887	97.25
331.115	92.25
331.344	76.25
331.572	90.25
331.801	83.25
332.03	79.25
332.258	93.25
332.486	83.25
332.715	93.25
332.943	94.25
333.172	73.25
333.4	77.25
333.629	82.25
333.857	65.25
334.085	77.25
334.314	78.25
334.542	81.25
334.771	84.25
334.999	90.25
335.227	95.25
335.455	90.25
335.684	87.25
335.912	85.25
336.14	82.25
336.369	70.25
336.597	72.25
336.825	88.25
337.053	75.25
337.281	72.25
337.51	84.25
337.738	81.25
337.966	85.25
338.194	96.25
338.422	81.25
338.65	67.25
338.878	87.25
339.106	76.25
339.334	82.25
339.562	86.25
339.79	82.25
340.018	85.25
340.246	78.25
340.474	82.25
340.702	85.25
340.93	90.25
341.158	76.25
341.386	88.25
341.614	92.25
341.842	84.25
342.07	79.25
342.298	75.25
342.526	93.25
342.754	90.25
342.981	89.25
343.209	86.25
343.437	91.25
343.665	82.25
343.893	94.25
344.12	93.25
344.348	88.25
344.576	74.25
344.804	80.25
345.031	83.25
345.259	80.25
345.487	89.25
345.714	81.25
345.942	85.25
346.17	91.25
346.397	86.25
346.625	68.25
346.853	91.25
347.08	100.25
347.308	83.25
347.535	91.25
347.763	66.25
347.99	84.25
348.218	87.25
348.445	67.25
348.673	88.25
348.9	77.25
349.128	82.25
349.355	68.25
349.583	75.25
349.81	83.25
350.037	80.25
350.265	92.25
350.492	83.25
350.72	82.25
350.947	85.25
351.174	89.25
351.402	85.25
351.629	91.25
351.856	84.25
352.083	84.25
352.311	83.25
352.538	83.25
352.765	92.25
352.992	84.25
353.22	92.25
353.447	70.25
353.674	84.25
353.901	88.25
354.128	72.25
354.355	82.25
354.583	75.25
354.81	96.25
355.037	76.25
355.264	84.25
355.491	94.25
355.718	85.25
355.945	77.25
356.172	75.25
356.399	88.25
356.626	82.25
356.853	84.25
357.08	81.25
357.307	87.25
357.534	76.25
357.761	92.25
357.988	76.25
358.215	76.25
358.441	82.25
358.668	74.25
358.895	79.25
359.122	67.25
359.349	75.25
359.576	81.25
359.802	80.25
360.029	78.25
360.256	87.25
360.483	71.25
360.709	83.25
360.936	81.25
361.163	86.25
361.39	83.25
361.616	96.25
361.843	80.25
362.07	80.25
362.296	76.25
362.523	91.25
362.749	68.25
362.976	82.25
363.203	90.25
363.429	79.25
363.656	84.25
363.882	83.25
364.109	95.25
364.335	92.25
364.562	74.25
364.788	88.25
365.015	81.25
365.241	93.25
365.468	80.25
365.694	68.25
365.92	68.25
366.147	81.25
366.373	73.25
366.599	77.25
366.826	83.25
367.052	77.25
367.278	79.25
367.505	80.25
367.731	95.25
367.957	78.25
368.184	87.25
368.41	83.25
368.636	92.25
368.862	80.25
369.089	83.25
369.315	87.25
369.541	92.25
369.767	70.25
369.993	94.25
370.219	84.25
370.445	72.25
370.672	72.25
370.898	78.25
371.124	82.25
371.35	85.25
371.576	72.25
371.802	68.25
372.028	83.25
372.254	93.25
372.48	75.25
372.706	84.25
372.932	66.25
373.158	84.25
373.384	76.25
373.61	73.25
373.835	84.25
374.061	74.25
374.287	92.25
374.513	76.25
374.739	70.25
374.965	68.25
375.191	75.25
375.416	85.25
375.642	91.25
375.868	85.25
376.094	88.25
376.319	84.25
376.545	88.25
376.771	84.25
376.997	83.25
377.222	73.25
377.448	78.25
377.674	81.25
377.899	77.25
378.125	73.25
378.35	80.25
378.576	75.25
378.802	79.25
379.027	77.25
379.253	81.25
379.478	85.25
379.704	88.25
379.929	94.25
380.155	73.25
380.38	76.25
380.606	80.25
380.831	74.25
381.057	98.25
381.282	85.25
381.507	88.25
381.733	80.25
381.958	87.25
382.184	92.25
382.409	84.25
382.634	82.25
382.86	82.25
383.085	85.25
383.31	75.25
383.535	82.25
383.761	84.25
383.986	76.25
384.211	84.25
384.436	84.25
384.662	82.25
384.887	70.25
385.112	96.25
385.337	82.25
385.562	69.25
385.787	73.25
386.013	76.25
386.238	78.25
386.463	76.25
386.688	87.25
386.913	89.25
387.138	67.25
387.363	83.25
387.588	81.25
387.813	80.25
388.038	79.25
388.263	68.25
388.488	64.25
388.713	80.25
388.938	79.25
389.163	82.25
389.387	93.25
389.612	75.25
389.837	67.25
390.062	75.25
390.287	82.25
390.512	84.25
390.736	85.25
390.961	82.25
391.186	91.25
391.411	78.25
391.636	74.25
391.86	97.25
392.085	84.25
392.31	76.25
392.534	81.25
392.759	80.25
392.984	84.25
393.208	68.25
393.433	89.25
393.658	68.25
393.882	91.25
394.107	81.25
394.331	71.25
394.556	80.25
394.78	72.25
395.005	92.25
395.229	77.25
395.454	95.25
395.678	84.25
395.903	83.25
396.127	83.25
396.352	78.25
396.576	83.25
396.801	86.25
397.025	74.25
397.249	73.25
397.474	84.25
397.698	82.25
397.922	84.25
398.147	80.25
398.371	79.25
398.595	61.25
398.82	74.25
399.044	95.25
399.268	79.25
399.492	65.25
399.717	71.25
399.941	68.25
400.165	67.25
400.389	79.25
400.613	96.25
400.837	82.25
401.062	73.25
401.286	80.25
401.51	85.25
401.734	74.25
401.958	81.25
402.182	77.25
402.406	75.25
402.63	82.25
402.854	82.25
403.078	82.25
403.302	87.25
403.526	76.25
403.75	82.25
403.974	80.25
404.198	93.25
404.422	70.25
404.645	70.25
404.869	75.25
405.093	80.25
405.317	82.25
405.541	78.25
405.765	83.25
405.988	85.25
406.212	83.25
406.436	70.25
406.66	92.25
406.883	84.25
407.107	76.25
407.331	85.25
407.555	81.25
407.778	83.25
408.002	81.25
408.226	76.25
408.449	84.25
408.673	77.25
408.896	78.25
409.12	89.25
409.344	83.25
409.567	82.25
409.791	93.25
410.014	81.25
410.238	86.25
410.461	78.25
410.685	73.25
410.908	79.25
411.132	84.25
411.355	88.25
411.578	76.25
411.802	78.25
412.025	79.25
412.249	88.25
412.472	80.25
412.695	72.25
412.919	88.25
413.142	67.25
413.365	74.25
413.589	82.25
413.812	92.25
414.035	84.25
414.258	83.25
414.482	82.25
414.705	77.25
414.928	73.25
415.151	81.25
415.374	82.25
415.597	87.25
415.821	71.25
416.044	79.25
416.267	80.25
416.49	67.25
416.713	78.25
416.936	88.25
417.159	67.25
417.382	88.25
417.605	80.25
417.828	96.25
418.051	83.25
418.274	83.25
418.497	80.25
418.72	67.25
418.943	77.25
419.166	94.25
419.389	76.25
419.611	75.25
419.834	70.25
420.057	105.25
420.28	88.25
420.503	82.25
420.726	73.25
420.948	89.25
421.171	81.25
421.394	67.25
421.617	68.25
421.839	72.25
422.062	86.25
422.285	81.25
422.507	67.25
422.73	74.25
422.953	81.25
423.175	80.25
423.398	82.25
423.621	84.25
423.843	88.25
424.066	78.25
424.288	89.25
424.511	98.25
424.733	86.25
424.956	89.25
425.178	76.25
425.401	92.25
425.623	84.25
425.846	74.25
426.068	86.25
426.291	89.25
426.513	94.25
426.735	81.25
426.958	69.25
427.18	73.25
427.402	89.25
427.625	74.25
427.847	94.25
428.069	75.25
428.292	85.25
428.514	80.25
428.736	85.25
428.958	80.25
429.181	85.25
429.403	74.25
429.625	67.25
429.847	78.25
430.069	94.25
430.292	88.25
430.514	68.25
430.736	84.25
430.958	78.25
431.18	90.25
431.402	86.25
431.624	73.25
431.846	81.25
432.068	74.25
432.29	79.25
432.512	89.25
432.734	94.25
432.956	89.25
433.178	85.25
433.4	72.25
433.622	90.25
433.844	84.25
434.066	72.25
434.287	71.25
434.509	79.25
434.731	81.25
434.953	87.25
435.175	76.25
435.397	75.25
435.618	93.25
435.84	76.25
436.062	78.25
436.284	86.25
436.505	77.25
436.727	76.25
436.949	81.25
437.17	80.25
437.392	84.25
437.614	82.25
437.835	76.25
438.057	59.25
438.278	78.25
438.5	85.25
438.721	92.25
438.943	85.25
439.165	76.25
439.386	94.25
439.608	85.25
439.829	91.25
440.05	74.25
440.272	82.25
440.493	82.25
440.715	79.25
440.936	81.25
441.158	80.25
441.379	85.25
441.6	76.25
441.822	81.25
442.043	75.25
442.264	78.25
442.486	73.25
442.707	77.25
442.928	79.25
443.149	80.25
443.371	74.25
443.592	82.25
443.813	73.25
444.034	82.25
444.255	89.25
444.476	86.25
444.698	97.25
444.919	83.25
445.14	152.25
445.361	100.25
445.582	74.25
445.803	72.25
446.024	101.25
446.245	94.25
446.466	84.25
446.687	81.25
446.908	79.25
447.129	74.25
447.35	96.25
447.571	85.25
447.792	78.25
448.013	80.25
448.234	74.25
448.455	86.25
448.675	73.25
448.896	82.25
449.117	79.25
449.338	82.25
449.559	81.25
449.779	93.25
450	89.25
450.221	94.25
450.442	87.25
450.662	86.25
450.883	88.25
451.104	95.25
451.324	81.25
451.545	81.25
451.766	91.25
451.986	76.25
452.207	90.25
452.428	80.25
452.648	85.25
452.869	96.25
453.089	77.25
453.31	89.25
453.53	83.25
453.751	80.25
453.971	77.25
454.192	87.25
454.412	78.25
454.633	80.25
454.853	73.25
455.073	78.25
455.294	78.25
455.514	72.25
455.734	78.25
455.955	81.25
456.175	77.25
456.395	92.25
456.616	75.25
456.836	74.25
457.056	88.25
457.276	63.25
457.497	76.25
457.717	84.25
457.937	95.25
458.157	70.25
458.377	96.25
458.598	88.25
458.818	80.25
459.038	80.25
459.258	88.25
459.478	76.25
459.698	83.25
459.918	83.25
460.138	61.25
460.358	68.25
460.578	76.25
460.798	89.25
461.018	85.25
461.238	64.25
461.458	81.25
461.678	83.25
461.898	76.25
462.118	91.25
462.338	82.25
462.558	90.25
462.777	68.25
462.997	81.25
463.217	81.25
463.437	76.25
463.657	86.25
463.876	75.25
464.096	70.25
464.316	77.25
464.536	62.25
464.755	84.25
464.975	82.25
465.195	67.25
465.414	99.25
465.634	64.25
465.854	91.25
466.073	81.25
466.293	82.25
466.512	84.25
466.732	77.25
466.951	83.25
467.171	92.25
467.391	81.25
467.61	92.25
467.829	85.25
468.049	88.25
468.268	82.25
468.488	95.25
468.707	89.25
468.927	70.25
469.146	92.25
469.365	74.25
469.585	81.25
469.804	92.25
470.023	93.25
470.243	86.25
470.462	96.25
470.681	66.25
470.901	72.25
471.12	67.25
471.339	80.25
471.558	83.25
471.777	92.25
471.997	81.25
472.216	85.25
472.435	78.25
472.654	72.25
472.873	88.25
473.092	90.25
473.311	91.25
473.53	81.25
473.749	79.25
473.968	87.25
474.187	94.25
474.406	84.25
474.625	66.25
474.844	86.25
475.063	81.25
475.282	86.25
475.501	85.25
475.72	80.25
475.939	71.25
476.158	80.25
476.377	92.25
476.596	83.25
476.814	92.25
477.033	83.25
477.252	78.25
477.471	92.25
477.69	89.25
477.908	94.25
478.127	107.25
478.346	86.25
478.564	82.25
478.783	73.25
479.002	80.25
479.22	79.25
479.439	100.25
479.658	76.25
479.876	77.25
480.095	74.25
480.313	79.25
480.532	90.25
480.751	85.25
480.969	80.25
481.188	83.25
481.406	90.25
481.624	74.25
481.843	72.25
482.061	82.25
482.28	80.25
482.498	75.25
482.717	83.25
482.935	70.25
483.153	78.25
483.372	96.25
483.59	94.25
483.808	82.25
484.027	90.25
484.245	78.25
484.463	82.25
484.681	92.25
484.9	78.25
485.118	90.25
485.336	93.25
485.554	85.25
485.772	72.25
485.99	70.25
486.209	81.25
486.427	68.25
486.645	79.25
486.863	99.25
487.081	85.25
487.299	78.25
487.517	85.25
487.735	91.25
487.953	80.25
488.171	82.25
488.389	76.25
488.607	82.25
488.825	81.25
489.043	84.25
489.261	85.25
489.479	89.25
489.696	80.25
489.914	85.25
490.132	83.25
490.35	83.25
490.568	92.25
490.786	85.25
491.003	84.25
491.221	93.25
491.439	97.25
491.657	77.25
491.874	93.25
492.092	79.25
492.31	75.25
492.527	101.25
492.745	76.25
492.963	110.25
493.18	98.25
493.398	90.25
493.615	97.25
493.833	93.25
494.05	72.25
494.268	77.25
494.485	78.25
494.703	102.25
494.92	81.25
495.138	93.25
495.355	80.25
495.573	94.25
495.79	77.25
496.008	79.25
496.225	87.25
496.442	72.25
496.66	73.25
496.877	93.25
497.094	91.25
497.312	84.25
497.529	85.25
497.746	94.25
497.963	94.25
498.181	83.25
498.398	88.25
498.615	77.25
498.832	96.25
499.049	76.25
499.267	82.25
499.484	73.25
499.701	75.25
499.918	81.25
500.135	76.25
500.352	75.25
500.569	79.25
500.786	96.25
501.003	76.25
501.22	92.25
501.437	85.25
501.654	85.25
501.871	83.25
502.088	84.25
502.305	82.25
502.522	89.25
502.739	85.25
502.956	91.25
503.172	82.25
503.389	82.25
503.606	82.25
503.823	77.25
504.04	91.25
504.256	94.25
504.473	89.25
504.69	88.25
504.907	82.25
505.123	88.25
505.34	80.25
505.557	89.25
505.773	96.25
505.99	96.25
506.207	76.25
506.423	76.25
506.64	81.25
506.856	89.25
507.073	85.25
507.289	92.25
507.506	88.25
507.722	80.25
507.939	82.25
508.155	81.25
508.372	77.25
508.588	81.25
508.805	90.25
509.021	65.25
509.238	80.25
509.454	93.25
509.67	70.25
509.887	86.25
510.103	85.25
510.319	91.25
510.536	88.25
510.752	83.25
510.968	81.25
511.184	92.25
511.401	88.25
511.617	79.25
511.833	76.25
512.049	69.25
512.265	76.25
512.481	80.25
512.698	93.25
512.914	84.25
513.13	79.25
513.346	96.25
513.562	82.25
513.778	79.25
513.994	83.25
514.21	81.25
514.426	99.25
514.642	81.25
514.858	78.25
515.074	73.25
515.29	97.25
515.506	83.25
515.721	87.25
515.937	88.25
516.153	81.25
516.369	85.25
516.585	88.25
516.801	74.25
517.016	84.25
517.232	73.25
517.448	86.25
517.664	91.25
517.879	78.25
518.095	76.25
518.311	74.25
518.527	92.25
518.742	59.25
518.958	88.25
519.173	82.25
519.389	82.25
519.605	94.25
519.82	86.25
520.036	74.25
