Data from Alignment_HRD10591_00011.txt Node
Date: Fri Dec 27 14:18:34 EST 2024
User: Yrep
Spectrometer: HR+D1059
Trigger mode: 1
Integration Time (sec): 1.000000E-1
Scans to average: 1
Electric dark correction enabled: true
Nonlinearity correction enabled: false
Boxcar width: 0
XAxis mode: Wavelengths
Number of Pixels in Spectrum: 2048
>>>>>Begin Spectral Data<<<<<
223.165	-16.25
223.4	-16.25
223.635	-16.25
223.869	-16.25
224.104	-21.25
224.338	-26.25
224.573	-11.25
224.808	-11.25
225.042	-10.25
225.277	-7.25
225.511	-6.25
225.746	-0.25
225.98	-6.25
226.215	7.75
226.449	26.75
226.683	32.75
226.918	31.75
227.152	33.75
227.387	36.75
227.621	46.75
227.856	36.75
228.09	42.75
228.324	48.75
228.559	57.75
228.793	59.75
229.027	65.75
229.262	83.75
229.496	72.75
229.73	67.75
229.964	67.75
230.199	76.75
230.433	58.75
230.667	74.75
230.901	66.75
231.136	86.75
231.37	76.75
231.604	86.75
231.838	67.75
232.072	85.75
232.306	85.75
232.541	77.75
232.775	87.75
233.009	78.75
233.243	75.75
233.477	66.75
233.711	79.75
233.945	75.75
234.179	89.75
234.413	81.75
234.647	82.75
234.881	77.75
235.115	66.75
235.349	67.75
235.583	84.75
235.817	66.75
236.051	80.75
236.285	83.75
236.519	79.75
236.753	88.75
236.987	69.75
237.221	72.75
237.455	85.75
237.689	70.75
237.922	69.75
238.156	64.75
238.39	64.75
238.624	77.75
238.858	88.75
239.091	80.75
239.325	80.75
239.559	70.75
239.793	77.75
240.027	75.75
240.26	77.75
240.494	70.75
240.728	81.75
240.961	79.75
241.195	83.75
241.429	80.75
241.662	67.75
241.896	80.75
242.13	73.75
242.363	79.75
242.597	92.75
242.83	72.75
243.064	67.75
243.298	88.75
243.531	86.75
243.765	80.75
243.998	83.75
244.232	72.75
244.465	77.75
244.699	75.75
244.932	69.75
245.166	76.75
245.399	77.75
245.633	74.75
245.866	61.75
246.099	75.75
246.333	73.75
246.566	77.75
246.8	69.75
247.033	80.75
247.266	68.75
247.5	82.75
247.733	81.75
247.966	83.75
248.2	64.75
248.433	85.75
248.666	77.75
248.899	63.75
249.133	69.75
249.366	76.75
249.599	79.75
249.832	93.75
250.066	76.75
250.299	83.75
250.532	79.75
250.765	82.75
250.998	73.75
251.231	86.75
251.465	68.75
251.698	85.75
251.931	83.75
252.164	67.75
252.397	88.75
252.63	91.75
252.863	71.75
253.096	90.75
253.329	83.75
253.562	86.75
253.795	78.75
254.028	82.75
254.261	74.75
254.494	73.75
254.727	75.75
254.96	79.75
255.193	72.75
255.426	60.75
255.659	91.75
255.892	82.75
256.124	84.75
256.357	55.75
256.59	73.75
256.823	80.75
257.056	76.75
257.289	91.75
257.521	80.75
257.754	81.75
257.987	75.75
258.22	77.75
258.452	100.75
258.685	81.75
258.918	69.75
259.151	87.75
259.383	71.75
259.616	86.75
259.849	81.75
260.081	84.75
260.314	77.75
260.547	84.75
260.779	77.75
261.012	81.75
261.244	91.75
261.477	97.75
261.71	85.75
261.942	76.75
262.175	77.75
262.407	75.75
262.64	69.75
262.872	72.75
263.105	85.75
263.337	87.75
263.57	86.75
263.802	94.75
264.035	88.75
264.267	85.75
264.499	91.75
264.732	76.75
264.964	95.75
265.197	65.75
265.429	72.75
265.661	96.75
265.894	89.75
266.126	78.75
266.358	73.75
266.591	76.75
266.823	89.75
267.055	84.75
267.287	75.75
267.52	82.75
267.752	80.75
267.984	89.75
268.216	82.75
268.448	81.75
268.681	97.75
268.913	92.75
269.145	77.75
269.377	77.75
269.609	81.75
269.841	96.75
270.073	84.75
270.306	74.75
270.538	78.75
270.77	81.75
271.002	89.75
271.234	95.75
271.466	91.75
271.698	83.75
271.93	72.75
272.162	82.75
272.394	97.75
272.626	89.75
272.858	78.75
273.09	72.75
273.322	68.75
273.553	69.75
273.785	82.75
274.017	80.75
274.249	84.75
274.481	75.75
274.713	75.75
274.945	83.75
275.176	81.75
275.408	91.75
275.64	87.75
275.872	83.75
276.104	86.75
276.335	93.75
276.567	75.75
276.799	80.75
277.031	85.75
277.262	82.75
277.494	88.75
277.726	77.75
277.957	86.75
278.189	76.75
278.421	92.75
278.652	77.75
278.884	75.75
279.115	78.75
279.347	81.75
279.579	80.75
279.81	70.75
280.042	82.75
280.273	72.75
280.505	81.75
280.736	85.75
280.968	83.75
281.199	89.75
281.431	90.75
281.662	91.75
281.894	64.75
282.125	90.75
282.356	88.75
282.588	75.75
282.819	83.75
283.051	79.75
283.282	80.75
283.513	103.75
283.745	87.75
283.976	78.75
284.207	95.75
284.439	75.75
284.67	85.75
284.901	89.75
285.132	80.75
285.364	71.75
285.595	81.75
285.826	82.75
286.057	77.75
286.288	70.75
286.52	86.75
286.751	81.75
286.982	78.75
287.213	84.75
287.444	95.75
287.675	81.75
287.906	94.75
288.138	74.75
288.369	95.75
288.6	87.75
288.831	95.75
289.062	99.75
289.293	72.75
289.524	86.75
289.755	84.75
289.986	61.75
290.217	84.75
290.448	89.75
290.679	80.75
290.91	93.75
291.141	81.75
291.371	98.75
291.602	81.75
291.833	82.75
292.064	81.75
292.295	74.75
292.526	84.75
292.757	86.75
292.987	84.75
293.218	75.75
293.449	68.75
293.68	95.75
293.91	79.75
294.141	92.75
294.372	78.75
294.603	80.75
294.833	77.75
295.064	84.75
295.295	82.75
295.525	83.75
295.756	88.75
295.987	95.75
296.217	86.75
296.448	96.75
296.679	74.75
296.909	86.75
297.14	78.75
297.37	94.75
297.601	86.75
297.831	83.75
298.062	82.75
298.292	93.75
298.523	91.75
298.753	95.75
298.984	77.75
299.214	76.75
299.445	79.75
299.675	105.75
299.905	74.75
300.136	75.75
300.366	77.75
300.597	95.75
300.827	87.75
301.057	81.75
301.288	100.75
301.518	82.75
301.748	75.75
301.979	95.75
302.209	78.75
302.439	83.75
302.669	98.75
302.9	80.75
303.13	79.75
303.36	94.75
303.59	69.75
303.82	85.75
304.051	86.75
304.281	74.75
304.511	88.75
304.741	79.75
304.971	78.75
305.201	95.75
305.431	100.75
305.661	95.75
305.891	92.75
306.121	88.75
306.352	89.75
306.582	97.75
306.812	67.75
307.042	78.75
307.272	82.75
307.502	80.75
307.731	70.75
307.961	87.75
308.191	88.75
308.421	66.75
308.651	77.75
308.881	95.75
309.111	86.75
309.341	80.75
309.571	81.75
309.8	67.75
310.03	78.75
310.26	83.75
310.49	79.75
310.72	81.75
310.949	94.75
311.179	68.75
311.409	78.75
311.639	86.75
311.868	99.75
312.098	87.75
312.328	77.75
312.557	93.75
312.787	77.75
313.017	81.75
313.246	92.75
313.476	83.75
313.706	105.75
313.935	97.75
314.165	94.75
314.394	94.75
314.624	85.75
314.853	81.75
315.083	94.75
315.312	85.75
315.542	84.75
315.771	93.75
316.001	103.75
316.23	87.75
316.46	85.75
316.689	86.75
316.919	82.75
317.148	93.75
317.377	85.75
317.607	90.75
317.836	83.75
318.065	91.75
318.295	76.75
318.524	87.75
318.753	76.75
318.983	83.75
319.212	84.75
319.441	85.75
319.67	75.75
319.9	83.75
320.129	80.75
320.358	83.75
320.587	92.75
320.816	79.75
321.046	89.75
321.275	102.75
321.504	81.75
321.733	89.75
321.962	92.75
322.191	96.75
322.42	86.75
322.649	80.75
322.878	78.75
323.108	87.75
323.337	75.75
323.566	72.75
323.795	79.75
324.024	70.75
324.253	88.75
324.482	88.75
324.71	98.75
324.939	76.75
325.168	83.75
325.397	88.75
325.626	87.75
325.855	91.75
326.084	87.75
326.313	76.75
326.542	93.75
326.77	79.75
326.999	88.75
327.228	86.75
327.457	78.75
327.686	79.75
327.914	85.75
328.143	80.75
328.372	72.75
328.6	88.75
328.829	86.75
329.058	83.75
329.287	92.75
329.515	100.75
329.744	85.75
329.972	80.75
330.201	72.75
330.43	89.75
330.658	89.75
330.887	92.75
331.115	90.75
331.344	84.75
331.572	87.75
331.801	83.75
332.03	96.75
332.258	72.75
332.486	81.75
332.715	81.75
332.943	75.75
333.172	75.75
333.4	88.75
333.629	89.75
333.857	85.75
334.085	79.75
334.314	67.75
334.542	72.75
334.771	92.75
334.999	80.75
335.227	75.75
335.455	99.75
335.684	81.75
335.912	82.75
336.14	86.75
336.369	94.75
336.597	85.75
336.825	96.75
337.053	83.75
337.281	84.75
337.51	77.75
337.738	88.75
337.966	78.75
338.194	71.75
338.422	83.75
338.65	79.75
338.878	96.75
339.106	79.75
339.334	91.75
339.562	80.75
339.79	85.75
340.018	81.75
340.246	77.75
340.474	71.75
340.702	70.75
340.93	81.75
341.158	84.75
341.386	79.75
341.614	77.75
341.842	85.75
342.07	77.75
342.298	86.75
342.526	82.75
342.754	84.75
342.981	79.75
343.209	92.75
343.437	94.75
343.665	95.75
343.893	73.75
344.12	94.75
344.348	80.75
344.576	81.75
344.804	72.75
345.031	92.75
345.259	93.75
345.487	94.75
345.714	81.75
345.942	80.75
346.17	74.75
346.397	85.75
346.625	85.75
346.853	80.75
347.08	80.75
347.308	78.75
347.535	81.75
347.763	76.75
347.99	81.75
348.218	94.75
348.445	93.75
348.673	73.75
348.9	87.75
349.128	86.75
349.355	72.75
349.583	82.75
349.81	88.75
350.037	77.75
350.265	81.75
350.492	75.75
350.72	81.75
350.947	82.75
351.174	70.75
351.402	76.75
351.629	81.75
351.856	98.75
352.083	77.75
352.311	84.75
352.538	71.75
352.765	65.75
352.992	91.75
353.22	79.75
353.447	84.75
353.674	94.75
353.901	77.75
354.128	95.75
354.355	100.75
354.583	83.75
354.81	93.75
355.037	85.75
355.264	97.75
355.491	88.75
355.718	88.75
355.945	71.75
356.172	62.75
356.399	88.75
356.626	87.75
356.853	71.75
357.08	89.75
357.307	87.75
357.534	80.75
357.761	81.75
357.988	91.75
358.215	87.75
358.441	79.75
358.668	84.75
358.895	87.75
359.122	99.75
359.349	84.75
359.576	93.75
359.802	82.75
360.029	77.75
360.256	86.75
360.483	79.75
360.709	86.75
360.936	78.75
361.163	85.75
361.39	79.75
361.616	78.75
361.843	76.75
362.07	87.75
362.296	82.75
362.523	73.75
362.749	76.75
362.976	79.75
363.203	93.75
363.429	68.75
363.656	95.75
363.882	77.75
364.109	90.75
364.335	82.75
364.562	72.75
364.788	87.75
365.015	83.75
365.241	86.75
365.468	87.75
365.694	77.75
365.92	73.75
366.147	78.75
366.373	82.75
366.599	70.75
366.826	78.75
367.052	74.75
367.278	75.75
367.505	77.75
367.731	92.75
367.957	80.75
368.184	93.75
368.41	75.75
368.636	86.75
368.862	85.75
369.089	92.75
369.315	98.75
369.541	75.75
369.767	87.75
369.993	76.75
370.219	83.75
370.445	80.75
370.672	72.75
370.898	85.75
371.124	84.75
371.35	84.75
371.576	81.75
371.802	87.75
372.028	95.75
372.254	72.75
372.48	66.75
372.706	84.75
372.932	83.75
373.158	63.75
373.384	84.75
373.61	97.75
373.835	86.75
374.061	87.75
374.287	95.75
374.513	83.75
374.739	95.75
374.965	71.75
375.191	85.75
375.416	84.75
375.642	71.75
375.868	73.75
376.094	85.75
376.319	95.75
376.545	85.75
376.771	81.75
376.997	80.75
377.222	80.75
377.448	91.75
377.674	86.75
377.899	91.75
378.125	75.75
378.35	94.75
378.576	69.75
378.802	86.75
379.027	70.75
379.253	79.75
379.478	89.75
379.704	80.75
379.929	68.75
380.155	85.75
380.38	77.75
380.606	95.75
380.831	80.75
381.057	86.75
381.282	78.75
381.507	92.75
381.733	92.75
381.958	102.75
382.184	82.75
382.409	69.75
382.634	78.75
382.86	78.75
383.085	78.75
383.31	84.75
383.535	81.75
383.761	86.75
383.986	72.75
384.211	80.75
384.436	87.75
384.662	88.75
384.887	89.75
385.112	81.75
385.337	83.75
385.562	78.75
385.787	81.75
386.013	77.75
386.238	85.75
386.463	84.75
386.688	101.75
386.913	73.75
387.138	75.75
387.363	88.75
387.588	95.75
387.813	83.75
388.038	76.75
388.263	84.75
388.488	79.75
388.713	71.75
388.938	78.75
389.163	95.75
389.387	67.75
389.612	78.75
389.837	89.75
390.062	82.75
390.287	91.75
390.512	91.75
390.736	83.75
390.961	85.75
391.186	81.75
391.411	84.75
391.636	83.75
391.86	86.75
392.085	104.75
392.31	90.75
392.534	85.75
392.759	98.75
392.984	93.75
393.208	96.75
393.433	79.75
393.658	75.75
393.882	64.75
394.107	79.75
394.331	81.75
394.556	73.75
394.78	76.75
395.005	85.75
395.229	87.75
395.454	77.75
395.678	88.75
395.903	93.75
396.127	91.75
396.352	81.75
396.576	87.75
396.801	89.75
397.025	81.75
397.249	73.75
397.474	69.75
397.698	75.75
397.922	76.75
398.147	70.75
398.371	81.75
398.595	86.75
398.82	72.75
399.044	75.75
399.268	80.75
399.492	84.75
399.717	88.75
399.941	95.75
400.165	70.75
400.389	93.75
400.613	78.75
400.837	88.75
401.062	87.75
401.286	81.75
401.51	86.75
401.734	77.75
401.958	92.75
402.182	80.75
402.406	75.75
402.63	85.75
402.854	76.75
403.078	63.75
403.302	92.75
403.526	77.75
403.75	79.75
403.974	79.75
404.198	77.75
404.422	82.75
404.645	83.75
404.869	80.75
405.093	68.75
405.317	71.75
405.541	90.75
405.765	99.75
405.988	81.75
406.212	91.75
406.436	82.75
406.66	79.75
406.883	92.75
407.107	81.75
407.331	72.75
407.555	84.75
407.778	88.75
408.002	61.75
408.226	79.75
408.449	93.75
408.673	92.75
408.896	87.75
409.12	91.75
409.344	99.75
409.567	81.75
409.791	102.75
410.014	80.75
410.238	107.75
410.461	88.75
410.685	78.75
410.908	93.75
411.132	90.75
411.355	81.75
411.578	84.75
411.802	88.75
412.025	77.75
412.249	70.75
412.472	89.75
412.695	89.75
412.919	85.75
413.142	83.75
413.365	71.75
413.589	76.75
413.812	88.75
414.035	89.75
414.258	91.75
414.482	77.75
414.705	84.75
414.928	73.75
415.151	87.75
415.374	90.75
415.597	81.75
415.821	76.75
416.044	81.75
416.267	80.75
416.49	88.75
416.713	80.75
416.936	80.75
417.159	96.75
417.382	92.75
417.605	99.75
417.828	76.75
418.051	77.75
418.274	77.75
418.497	72.75
418.72	80.75
418.943	87.75
419.166	80.75
419.389	84.75
419.611	88.75
419.834	78.75
420.057	74.75
420.28	68.75
420.503	75.75
420.726	91.75
420.948	75.75
421.171	72.75
421.394	83.75
421.617	93.75
421.839	75.75
422.062	75.75
422.285	83.75
422.507	83.75
422.73	84.75
422.953	79.75
423.175	80.75
423.398	80.75
423.621	86.75
423.843	72.75
424.066	89.75
424.288	70.75
424.511	73.75
424.733	98.75
424.956	91.75
425.178	85.75
425.401	81.75
425.623	73.75
425.846	85.75
426.068	81.75
426.291	82.75
426.513	84.75
426.735	97.75
426.958	72.75
427.18	77.75
427.402	80.75
427.625	75.75
427.847	79.75
428.069	100.75
428.292	90.75
428.514	67.75
428.736	76.75
428.958	81.75
429.181	94.75
429.403	99.75
429.625	76.75
429.847	78.75
430.069	88.75
430.292	78.75
430.514	79.75
430.736	87.75
430.958	85.75
431.18	77.75
431.402	69.75
431.624	65.75
431.846	76.75
432.068	84.75
432.29	74.75
432.512	85.75
432.734	83.75
432.956	83.75
433.178	93.75
433.4	86.75
433.622	91.75
433.844	86.75
434.066	88.75
434.287	79.75
434.509	76.75
434.731	89.75
434.953	74.75
435.175	83.75
435.397	62.75
435.618	83.75
435.84	84.75
436.062	78.75
436.284	86.75
436.505	89.75
436.727	86.75
436.949	79.75
437.17	75.75
437.392	95.75
437.614	87.75
437.835	65.75
438.057	70.75
438.278	87.75
438.5	82.75
438.721	87.75
438.943	88.75
439.165	94.75
439.386	96.75
439.608	88.75
439.829	83.75
440.05	77.75
440.272	70.75
440.493	65.75
440.715	70.75
440.936	82.75
441.158	76.75
441.379	87.75
441.6	84.75
441.822	73.75
442.043	73.75
442.264	86.75
442.486	72.75
442.707	76.75
442.928	82.75
443.149	85.75
443.371	91.75
443.592	88.75
443.813	79.75
444.034	70.75
444.255	75.75
444.476	85.75
444.698	80.75
444.919	81.75
445.14	169.75
445.361	101.75
445.582	92.75
445.803	78.75
446.024	88.75
446.245	84.75
446.466	86.75
446.687	78.75
446.908	96.75
447.129	101.75
447.35	81.75
447.571	83.75
447.792	81.75
448.013	75.75
448.234	81.75
448.455	86.75
448.675	72.75
448.896	89.75
449.117	83.75
449.338	82.75
449.559	90.75
449.779	84.75
450	86.75
450.221	83.75
450.442	93.75
450.662	85.75
450.883	85.75
451.104	96.75
451.324	85.75
451.545	95.75
451.766	91.75
451.986	83.75
452.207	79.75
452.428	71.75
452.648	91.75
452.869	76.75
453.089	76.75
453.31	86.75
453.53	79.75
453.751	80.75
453.971	77.75
454.192	83.75
454.412	86.75
454.633	81.75
454.853	73.75
455.073	84.75
455.294	78.75
455.514	71.75
455.734	99.75
455.955	75.75
456.175	87.75
456.395	86.75
456.616	82.75
456.836	92.75
457.056	87.75
457.276	85.75
457.497	82.75
457.717	103.75
457.937	72.75
458.157	70.75
458.377	84.75
458.598	79.75
458.818	63.75
459.038	83.75
459.258	70.75
459.478	84.75
459.698	76.75
459.918	88.75
460.138	74.75
460.358	91.75
460.578	88.75
460.798	86.75
461.018	78.75
461.238	85.75
461.458	92.75
461.678	92.75
461.898	88.75
462.118	85.75
462.338	93.75
462.558	93.75
462.777	84.75
462.997	91.75
463.217	65.75
463.437	79.75
463.657	81.75
463.876	88.75
464.096	76.75
464.316	75.75
464.536	86.75
464.755	75.75
464.975	93.75
465.195	73.75
465.414	84.75
465.634	89.75
465.854	72.75
466.073	86.75
466.293	89.75
466.512	65.75
466.732	77.75
466.951	98.75
467.171	91.75
467.391	79.75
467.61	84.75
467.829	88.75
468.049	101.75
468.268	88.75
468.488	88.75
468.707	92.75
468.927	79.75
469.146	83.75
469.365	79.75
469.585	88.75
469.804	98.75
470.023	79.75
470.243	86.75
470.462	79.75
470.681	99.75
470.901	98.75
471.12	70.75
471.339	79.75
471.558	85.75
471.777	81.75
471.997	79.75
472.216	73.75
472.435	93.75
472.654	74.75
472.873	84.75
473.092	96.75
473.311	74.75
473.53	83.75
473.749	95.75
473.968	86.75
474.187	76.75
474.406	74.75
474.625	80.75
474.844	77.75
475.063	85.75
475.282	83.75
475.501	71.75
475.72	90.75
475.939	75.75
476.158	86.75
476.377	75.75
476.596	80.75
476.814	74.75
477.033	95.75
477.252	82.75
477.471	80.75
477.69	76.75
477.908	77.75
478.127	91.75
478.346	79.75
478.564	86.75
478.783	65.75
479.002	79.75
479.22	94.75
479.439	87.75
479.658	78.75
479.876	68.75
480.095	90.75
480.313	84.75
480.532	82.75
480.751	92.75
480.969	78.75
481.188	93.75
481.406	75.75
481.624	83.75
481.843	81.75
482.061	82.75
482.28	83.75
482.498	78.75
482.717	88.75
482.935	96.75
483.153	72.75
483.372	89.75
483.59	103.75
483.808	88.75
484.027	93.75
484.245	82.75
484.463	84.75
484.681	84.75
484.9	83.75
485.118	93.75
485.336	87.75
485.554	79.75
485.772	89.75
485.99	78.75
486.209	71.75
486.427	59.75
486.645	82.75
486.863	92.75
487.081	88.75
487.299	82.75
487.517	79.75
487.735	87.75
487.953	78.75
488.171	85.75
488.389	82.75
488.607	83.75
488.825	84.75
489.043	89.75
489.261	93.75
489.479	83.75
489.696	89.75
489.914	81.75
490.132	80.75
490.35	86.75
490.568	94.75
490.786	86.75
491.003	73.75
491.221	86.75
491.439	97.75
491.657	89.75
491.874	99.75
492.092	88.75
492.31	85.75
492.527	88.75
492.745	95.75
492.963	97.75
493.18	107.75
493.398	91.75
493.615	98.75
493.833	84.75
494.05	91.75
494.268	100.75
494.485	93.75
494.703	95.75
494.92	86.75
495.138	102.75
495.355	86.75
495.573	113.75
495.79	71.75
496.008	94.75
496.225	105.75
496.442	81.75
496.66	93.75
496.877	87.75
497.094	85.75
497.312	93.75
497.529	87.75
497.746	82.75
497.963	88.75
498.181	81.75
498.398	88.75
498.615	73.75
498.832	81.75
499.049	97.75
499.267	91.75
499.484	96.75
499.701	67.75
499.918	83.75
500.135	77.75
500.352	88.75
500.569	75.75
500.786	93.75
501.003	85.75
501.22	92.75
501.437	77.75
501.654	84.75
501.871	79.75
502.088	78.75
502.305	86.75
502.522	91.75
502.739	81.75
502.956	82.75
503.172	90.75
503.389	81.75
503.606	72.75
503.823	89.75
504.04	97.75
504.256	90.75
504.473	82.75
504.69	99.75
504.907	85.75
505.123	85.75
505.34	80.75
505.557	88.75
505.773	87.75
505.99	88.75
506.207	86.75
506.423	88.75
506.64	101.75
506.856	82.75
507.073	88.75
507.289	90.75
507.506	83.75
507.722	100.75
507.939	89.75
508.155	85.75
508.372	88.75
508.588	88.75
508.805	79.75
509.021	89.75
509.238	72.75
509.454	80.75
509.67	77.75
509.887	83.75
510.103	78.75
510.319	76.75
510.536	92.75
510.752	87.75
510.968	81.75
511.184	86.75
511.401	80.75
511.617	93.75
511.833	75.75
512.049	83.75
512.265	95.75
512.481	76.75
512.698	73.75
512.914	93.75
513.13	88.75
513.346	77.75
513.562	99.75
513.778	91.75
513.994	91.75
514.21	87.75
514.426	84.75
514.642	76.75
514.858	88.75
515.074	80.75
515.29	85.75
515.506	86.75
515.721	73.75
515.937	92.75
516.153	82.75
516.369	81.75
516.585	84.75
516.801	82.75
517.016	83.75
517.232	64.75
517.448	91.75
517.664	92.75
517.879	94.75
518.095	89.75
518.311	93.75
518.527	83.75
518.742	77.75
518.958	76.75
519.173	85.75
519.389	99.75
519.605	99.75
519.82	81.75
