Data from Alignment_HRD10591_00012.txt Node
Date: Fri Dec 27 14:18:35 EST 2024
User: Yrep
Spectrometer: HR+D1059
Trigger mode: 1
Integration Time (sec): 1.000000E-1
Scans to average: 1
Electric dark correction enabled: true
Nonlinearity correction enabled: false
Boxcar width: 0
XAxis mode: Wavelengths
Number of Pixels in Spectrum: 2048
>>>>>Begin Spectral Data<<<<<
223.165	-19.06
223.4	-19.06
223.635	-19.06
223.869	-22.06
224.104	-7.06
224.338	-22.06
224.573	-15.06
224.808	-15.06
225.042	-2.06
225.277	-5.06
225.511	-1.06
225.746	12.94
225.98	8.94
226.215	-1.06
226.449	16.94
226.683	22.94
226.918	18.94
227.152	28.94
227.387	32.94
227.621	45.94
227.856	42.94
228.09	49.94
228.324	42.94
228.559	68.94
228.793	66.94
229.027	58.94
229.262	60.94
229.496	69.94
229.73	62.94
229.964	63.94
230.199	70.94
230.433	93.94
230.667	79.94
230.901	67.94
231.136	88.94
231.37	87.94
231.604	82.94
231.838	88.94
232.072	94.94
232.306	89.94
232.541	78.94
232.775	97.94
233.009	81.94
233.243	65.94
233.477	82.94
233.711	101.94
233.945	88.94
234.179	75.94
234.413	65.94
234.647	68.94
234.881	78.94
235.115	86.94
235.349	85.94
235.583	77.94
235.817	89.94
236.051	79.94
236.285	85.94
236.519	73.94
236.753	81.94
236.987	78.94
237.221	72.94
237.455	84.94
237.689	68.94
237.922	84.94
238.156	81.94
238.39	73.94
238.624	74.94
238.858	64.94
239.091	64.94
239.325	66.94
239.559	71.94
239.793	82.94
240.027	93.94
240.26	84.94
240.494	86.94
240.728	76.94
240.961	77.94
241.195	82.94
241.429	72.94
241.662	73.94
241.896	76.94
242.13	84.94
242.363	74.94
242.597	76.94
242.83	84.94
243.064	79.94
243.298	81.94
243.531	74.94
243.765	82.94
243.998	77.94
244.232	86.94
244.465	76.94
244.699	76.94
244.932	78.94
245.166	73.94
245.399	76.94
245.633	80.94
245.866	74.94
246.099	69.94
246.333	74.94
246.566	72.94
246.8	72.94
247.033	59.94
247.266	75.94
247.5	77.94
247.733	77.94
247.966	76.94
248.2	75.94
248.433	82.94
248.666	86.94
248.899	88.94
249.133	80.94
249.366	86.94
249.599	79.94
249.832	80.94
250.066	95.94
250.299	80.94
250.532	78.94
250.765	98.94
250.998	83.94
251.231	84.94
251.465	81.94
251.698	86.94
251.931	80.94
252.164	81.94
252.397	72.94
252.63	74.94
252.863	76.94
253.096	92.94
253.329	87.94
253.562	86.94
253.795	77.94
254.028	67.94
254.261	78.94
254.494	78.94
254.727	82.94
254.96	80.94
255.193	79.94
255.426	65.94
255.659	70.94
255.892	79.94
256.124	82.94
256.357	82.94
256.59	72.94
256.823	84.94
257.056	87.94
257.289	64.94
257.521	96.94
257.754	95.94
257.987	84.94
258.22	87.94
258.452	77.94
258.685	77.94
258.918	86.94
259.151	83.94
259.383	86.94
259.616	81.94
259.849	75.94
260.081	83.94
260.314	84.94
260.547	84.94
260.779	71.94
261.012	77.94
261.244	66.94
261.477	84.94
261.71	89.94
261.942	93.94
262.175	94.94
262.407	75.94
262.64	78.94
262.872	80.94
263.105	85.94
263.337	97.94
263.57	87.94
263.802	92.94
264.035	85.94
264.267	87.94
264.499	77.94
264.732	83.94
264.964	94.94
265.197	92.94
265.429	77.94
265.661	83.94
265.894	79.94
266.126	90.94
266.358	76.94
266.591	82.94
266.823	88.94
267.055	85.94
267.287	91.94
267.52	85.94
267.752	86.94
267.984	91.94
268.216	79.94
268.448	91.94
268.681	92.94
268.913	85.94
269.145	88.94
269.377	90.94
269.609	94.94
269.841	88.94
270.073	87.94
270.306	83.94
270.538	85.94
270.77	102.94
271.002	95.94
271.234	86.94
271.466	87.94
271.698	74.94
271.93	93.94
272.162	84.94
272.394	88.94
272.626	91.94
272.858	93.94
273.09	96.94
273.322	93.94
273.553	92.94
273.785	98.94
274.017	77.94
274.249	92.94
274.481	71.94
274.713	86.94
274.945	87.94
275.176	72.94
275.408	89.94
275.64	71.94
275.872	69.94
276.104	91.94
276.335	88.94
276.567	80.94
276.799	85.94
277.031	95.94
277.262	85.94
277.494	80.94
277.726	84.94
277.957	81.94
278.189	80.94
278.421	84.94
278.652	71.94
278.884	88.94
279.115	101.94
279.347	86.94
279.579	94.94
279.81	92.94
280.042	79.94
280.273	89.94
280.505	87.94
280.736	87.94
280.968	84.94
281.199	87.94
281.431	83.94
281.662	91.94
281.894	78.94
282.125	84.94
282.356	85.94
282.588	73.94
282.819	86.94
283.051	78.94
283.282	77.94
283.513	97.94
283.745	79.94
283.976	98.94
284.207	93.94
284.439	97.94
284.67	89.94
284.901	101.94
285.132	82.94
285.364	74.94
285.595	96.94
285.826	94.94
286.057	93.94
286.288	93.94
286.52	87.94
286.751	92.94
286.982	94.94
287.213	73.94
287.444	71.94
287.675	86.94
287.906	90.94
288.138	81.94
288.369	87.94
288.6	89.94
288.831	89.94
289.062	74.94
289.293	92.94
289.524	76.94
289.755	73.94
289.986	91.94
290.217	92.94
290.448	79.94
290.679	85.94
290.91	91.94
291.141	80.94
291.371	80.94
291.602	93.94
291.833	77.94
292.064	84.94
292.295	89.94
292.526	87.94
292.757	83.94
292.987	79.94
293.218	88.94
293.449	75.94
293.68	89.94
293.91	80.94
294.141	83.94
294.372	90.94
294.603	87.94
294.833	74.94
295.064	81.94
295.295	84.94
295.525	80.94
295.756	100.94
295.987	79.94
296.217	74.94
296.448	82.94
296.679	97.94
296.909	90.94
297.14	105.94
297.37	83.94
297.601	86.94
297.831	90.94
298.062	96.94
298.292	99.94
298.523	88.94
298.753	84.94
298.984	101.94
299.214	92.94
299.445	87.94
299.675	87.94
299.905	85.94
300.136	92.94
300.366	88.94
300.597	85.94
300.827	83.94
301.057	96.94
301.288	77.94
301.518	75.94
301.748	82.94
301.979	106.94
302.209	84.94
302.439	81.94
302.669	74.94
302.9	86.94
303.13	86.94
303.36	86.94
303.59	80.94
303.82	92.94
304.051	90.94
304.281	84.94
304.511	96.94
304.741	80.94
304.971	92.94
305.201	89.94
305.431	89.94
305.661	73.94
305.891	89.94
306.121	94.94
306.352	74.94
306.582	82.94
306.812	73.94
307.042	76.94
307.272	87.94
307.502	82.94
307.731	87.94
307.961	77.94
308.191	85.94
308.421	94.94
308.651	86.94
308.881	89.94
309.111	79.94
309.341	88.94
309.571	85.94
309.8	82.94
310.03	92.94
310.26	82.94
310.49	77.94
310.72	84.94
310.949	77.94
311.179	79.94
311.409	85.94
311.639	84.94
311.868	93.94
312.098	102.94
312.328	85.94
312.557	92.94
312.787	90.94
313.017	94.94
313.246	97.94
313.476	75.94
313.706	92.94
313.935	88.94
314.165	74.94
314.394	84.94
314.624	86.94
314.853	88.94
315.083	83.94
315.312	89.94
315.542	85.94
315.771	107.94
316.001	100.94
316.23	97.94
316.46	95.94
316.689	89.94
316.919	89.94
317.148	90.94
317.377	104.94
317.607	80.94
317.836	93.94
318.065	87.94
318.295	84.94
318.524	88.94
318.753	80.94
318.983	81.94
319.212	94.94
319.441	87.94
319.67	92.94
319.9	87.94
320.129	88.94
320.358	92.94
320.587	84.94
320.816	80.94
321.046	82.94
321.275	94.94
321.504	76.94
321.733	86.94
321.962	80.94
322.191	78.94
322.42	82.94
322.649	89.94
322.878	91.94
323.108	84.94
323.337	90.94
323.566	78.94
323.795	81.94
324.024	78.94
324.253	93.94
324.482	85.94
324.71	96.94
324.939	96.94
325.168	104.94
325.397	90.94
325.626	88.94
325.855	91.94
326.084	68.94
326.313	91.94
326.542	87.94
326.77	82.94
326.999	96.94
327.228	85.94
327.457	78.94
327.686	86.94
327.914	79.94
328.143	92.94
328.372	83.94
328.6	87.94
328.829	89.94
329.058	91.94
329.287	85.94
329.515	79.94
329.744	93.94
329.972	85.94
330.201	82.94
330.43	80.94
330.658	90.94
330.887	80.94
331.115	79.94
331.344	92.94
331.572	93.94
331.801	98.94
332.03	94.94
332.258	84.94
332.486	73.94
332.715	84.94
332.943	85.94
333.172	82.94
333.4	94.94
333.629	73.94
333.857	92.94
334.085	92.94
334.314	85.94
334.542	79.94
334.771	88.94
334.999	92.94
335.227	86.94
335.455	90.94
335.684	95.94
335.912	99.94
336.14	81.94
336.369	84.94
336.597	88.94
336.825	86.94
337.053	92.94
337.281	70.94
337.51	92.94
337.738	89.94
337.966	71.94
338.194	87.94
338.422	92.94
338.65	90.94
338.878	77.94
339.106	78.94
339.334	85.94
339.562	96.94
339.79	103.94
340.018	96.94
340.246	85.94
340.474	86.94
340.702	87.94
340.93	88.94
341.158	82.94
341.386	97.94
341.614	93.94
341.842	77.94
342.07	81.94
342.298	99.94
342.526	77.94
342.754	98.94
342.981	82.94
343.209	84.94
343.437	99.94
343.665	74.94
343.893	75.94
344.12	83.94
344.348	79.94
344.576	73.94
344.804	77.94
345.031	83.94
345.259	92.94
345.487	83.94
345.714	87.94
345.942	79.94
346.17	86.94
346.397	86.94
346.625	72.94
346.853	91.94
347.08	88.94
347.308	77.94
347.535	91.94
347.763	80.94
347.99	79.94
348.218	97.94
348.445	77.94
348.673	87.94
348.9	81.94
349.128	97.94
349.355	89.94
349.583	81.94
349.81	79.94
350.037	89.94
350.265	95.94
350.492	81.94
350.72	88.94
350.947	82.94
351.174	70.94
351.402	78.94
351.629	97.94
351.856	88.94
352.083	75.94
352.311	103.94
352.538	85.94
352.765	97.94
352.992	89.94
353.22	94.94
353.447	84.94
353.674	78.94
353.901	81.94
354.128	88.94
354.355	82.94
354.583	84.94
354.81	100.94
355.037	92.94
355.264	82.94
355.491	89.94
355.718	78.94
355.945	80.94
356.172	79.94
356.399	86.94
356.626	71.94
356.853	79.94
357.08	90.94
357.307	76.94
357.534	92.94
357.761	80.94
357.988	87.94
358.215	84.94
358.441	85.94
358.668	75.94
358.895	74.94
359.122	76.94
359.349	88.94
359.576	81.94
359.802	84.94
360.029	81.94
360.256	74.94
360.483	92.94
360.709	82.94
360.936	97.94
361.163	75.94
361.39	79.94
361.616	77.94
361.843	78.94
362.07	94.94
362.296	101.94
362.523	83.94
362.749	84.94
362.976	79.94
363.203	101.94
363.429	75.94
363.656	68.94
363.882	81.94
364.109	78.94
364.335	84.94
364.562	87.94
364.788	74.94
365.015	86.94
365.241	74.94
365.468	83.94
365.694	79.94
365.92	90.94
366.147	81.94
366.373	98.94
366.599	82.94
366.826	82.94
367.052	86.94
367.278	92.94
367.505	79.94
367.731	91.94
367.957	84.94
368.184	88.94
368.41	83.94
368.636	83.94
368.862	95.94
369.089	101.94
369.315	80.94
369.541	90.94
369.767	78.94
369.993	92.94
370.219	83.94
370.445	74.94
370.672	80.94
370.898	96.94
371.124	72.94
371.35	95.94
371.576	77.94
371.802	84.94
372.028	95.94
372.254	96.94
372.48	83.94
372.706	100.94
372.932	75.94
373.158	83.94
373.384	83.94
373.61	95.94
373.835	71.94
374.061	78.94
374.287	86.94
374.513	90.94
374.739	93.94
374.965	92.94
375.191	78.94
375.416	86.94
375.642	84.94
375.868	93.94
376.094	94.94
376.319	86.94
376.545	83.94
376.771	83.94
376.997	94.94
377.222	72.94
377.448	84.94
377.674	89.94
377.899	85.94
378.125	83.94
378.35	92.94
378.576	89.94
378.802	87.94
379.027	88.94
379.253	66.94
379.478	84.94
379.704	88.94
379.929	87.94
380.155	73.94
380.38	87.94
380.606	83.94
380.831	81.94
381.057	76.94
381.282	87.94
381.507	97.94
381.733	68.94
381.958	78.94
382.184	85.94
382.409	76.94
382.634	85.94
382.86	79.94
383.085	92.94
383.31	83.94
383.535	87.94
383.761	84.94
383.986	82.94
384.211	80.94
384.436	83.94
384.662	86.94
384.887	88.94
385.112	86.94
385.337	84.94
385.562	97.94
385.787	81.94
386.013	76.94
386.238	88.94
386.463	73.94
386.688	103.94
386.913	87.94
387.138	94.94
387.363	74.94
387.588	79.94
387.813	98.94
388.038	90.94
388.263	90.94
388.488	77.94
388.713	74.94
388.938	72.94
389.163	86.94
389.387	73.94
389.612	67.94
389.837	76.94
390.062	79.94
390.287	89.94
390.512	78.94
390.736	81.94
390.961	91.94
391.186	79.94
391.411	88.94
391.636	85.94
391.86	95.94
392.085	78.94
392.31	83.94
392.534	91.94
392.759	82.94
392.984	79.94
393.208	96.94
393.433	70.94
393.658	66.94
393.882	85.94
394.107	85.94
394.331	77.94
394.556	71.94
394.78	84.94
395.005	89.94
395.229	95.94
395.454	79.94
395.678	86.94
395.903	92.94
396.127	81.94
396.352	86.94
396.576	73.94
396.801	74.94
397.025	77.94
397.249	86.94
397.474	88.94
397.698	86.94
397.922	90.94
398.147	94.94
398.371	94.94
398.595	86.94
398.82	79.94
399.044	90.94
399.268	81.94
399.492	74.94
399.717	83.94
399.941	86.94
400.165	85.94
400.389	77.94
400.613	73.94
400.837	81.94
401.062	83.94
401.286	87.94
401.51	68.94
401.734	65.94
401.958	79.94
402.182	80.94
402.406	89.94
402.63	87.94
402.854	89.94
403.078	59.94
403.302	83.94
403.526	88.94
403.75	71.94
403.974	77.94
404.198	88.94
404.422	79.94
404.645	108.94
404.869	89.94
405.093	76.94
405.317	85.94
405.541	74.94
405.765	80.94
405.988	79.94
406.212	73.94
406.436	71.94
406.66	87.94
406.883	77.94
407.107	79.94
407.331	77.94
407.555	81.94
407.778	95.94
408.002	80.94
408.226	99.94
408.449	87.94
408.673	80.94
408.896	94.94
409.12	88.94
409.344	86.94
409.567	92.94
409.791	78.94
410.014	78.94
410.238	79.94
410.461	81.94
410.685	81.94
410.908	80.94
411.132	72.94
411.355	75.94
411.578	94.94
411.802	78.94
412.025	73.94
412.249	80.94
412.472	91.94
412.695	98.94
412.919	86.94
413.142	67.94
413.365	75.94
413.589	85.94
413.812	76.94
414.035	89.94
414.258	101.94
414.482	90.94
414.705	83.94
414.928	94.94
415.151	85.94
415.374	96.94
415.597	80.94
415.821	77.94
416.044	73.94
416.267	72.94
416.49	82.94
416.713	73.94
416.936	81.94
417.159	65.94
417.382	79.94
417.605	75.94
417.828	90.94
418.051	70.94
418.274	88.94
418.497	92.94
418.72	78.94
418.943	90.94
419.166	91.94
419.389	95.94
419.611	95.94
419.834	89.94
420.057	94.94
420.28	79.94
420.503	86.94
420.726	91.94
420.948	68.94
421.171	92.94
421.394	85.94
421.617	86.94
421.839	73.94
422.062	85.94
422.285	85.94
422.507	86.94
422.73	77.94
422.953	77.94
423.175	82.94
423.398	80.94
423.621	87.94
423.843	78.94
424.066	84.94
424.288	96.94
424.511	65.94
424.733	80.94
424.956	99.94
425.178	89.94
425.401	82.94
425.623	86.94
425.846	89.94
426.068	85.94
426.291	93.94
426.513	88.94
426.735	86.94
426.958	93.94
427.18	73.94
427.402	81.94
427.625	78.94
427.847	84.94
428.069	92.94
428.292	76.94
428.514	82.94
428.736	77.94
428.958	100.94
429.181	77.94
429.403	79.94
429.625	67.94
429.847	84.94
430.069	84.94
430.292	85.94
430.514	81.94
430.736	77.94
430.958	98.94
431.18	76.94
431.402	91.94
431.624	92.94
431.846	78.94
432.068	95.94
432.29	94.94
432.512	86.94
432.734	79.94
432.956	82.94
433.178	84.94
433.4	83.94
433.622	86.94
433.844	81.94
434.066	65.94
434.287	81.94
434.509	81.94
434.731	91.94
434.953	82.94
435.175	76.94
435.397	95.94
435.618	85.94
435.84	81.94
436.062	92.94
436.284	95.94
436.505	78.94
436.727	66.94
436.949	81.94
437.17	93.94
437.392	84.94
437.614	86.94
437.835	98.94
438.057	73.94
438.278	80.94
438.5	72.94
438.721	90.94
438.943	90.94
439.165	83.94
439.386	74.94
439.608	97.94
439.829	85.94
440.05	72.94
440.272	92.94
440.493	93.94
440.715	77.94
440.936	85.94
441.158	74.94
441.379	85.94
441.6	76.94
441.822	99.94
442.043	78.94
442.264	80.94
442.486	77.94
442.707	85.94
442.928	84.94
443.149	71.94
443.371	92.94
443.592	80.94
443.813	83.94
444.034	89.94
444.255	80.94
444.476	82.94
444.698	96.94
444.919	96.94
445.14	159.94
445.361	116.94
445.582	102.94
445.803	92.94
446.024	89.94
446.245	98.94
446.466	92.94
446.687	77.94
446.908	88.94
447.129	75.94
447.35	94.94
447.571	94.94
447.792	95.94
448.013	79.94
448.234	96.94
448.455	80.94
448.675	87.94
448.896	80.94
449.117	80.94
449.338	81.94
449.559	82.94
449.779	78.94
450	86.94
450.221	90.94
450.442	83.94
450.662	81.94
450.883	90.94
451.104	99.94
451.324	94.94
451.545	84.94
451.766	84.94
451.986	82.94
452.207	80.94
452.428	77.94
452.648	84.94
452.869	87.94
453.089	81.94
453.31	74.94
453.53	64.94
453.751	82.94
453.971	88.94
454.192	88.94
454.412	82.94
454.633	89.94
454.853	76.94
455.073	82.94
455.294	92.94
455.514	89.94
455.734	77.94
455.955	81.94
456.175	66.94
456.395	79.94
456.616	84.94
456.836	74.94
457.056	80.94
457.276	100.94
457.497	80.94
457.717	83.94
457.937	79.94
458.157	97.94
458.377	78.94
458.598	77.94
458.818	82.94
459.038	80.94
459.258	87.94
459.478	86.94
459.698	73.94
459.918	89.94
460.138	63.94
460.358	87.94
460.578	86.94
460.798	81.94
461.018	82.94
461.238	92.94
461.458	81.94
461.678	75.94
461.898	71.94
462.118	89.94
462.338	89.94
462.558	85.94
462.777	96.94
462.997	95.94
463.217	73.94
463.437	90.94
463.657	85.94
463.876	83.94
464.096	84.94
464.316	79.94
464.536	92.94
464.755	85.94
464.975	83.94
465.195	90.94
465.414	94.94
465.634	81.94
465.854	94.94
466.073	85.94
466.293	85.94
466.512	95.94
466.732	85.94
466.951	78.94
467.171	94.94
467.391	102.94
467.61	89.94
467.829	77.94
468.049	73.94
468.268	74.94
468.488	81.94
468.707	78.94
468.927	77.94
469.146	101.94
469.365	106.94
469.585	87.94
469.804	77.94
470.023	91.94
470.243	80.94
470.462	92.94
470.681	83.94
470.901	86.94
471.12	93.94
471.339	90.94
471.558	85.94
471.777	92.94
471.997	87.94
472.216	92.94
472.435	81.94
472.654	96.94
472.873	83.94
473.092	84.94
473.311	88.94
473.53	77.94
473.749	96.94
473.968	76.94
474.187	86.94
474.406	96.94
474.625	80.94
474.844	97.94
475.063	96.94
475.282	96.94
475.501	87.94
475.72	93.94
475.939	78.94
476.158	71.94
476.377	80.94
476.596	75.94
476.814	87.94
477.033	83.94
477.252	90.94
477.471	84.94
477.69	81.94
477.908	86.94
478.127	96.94
478.346	75.94
478.564	89.94
478.783	82.94
479.002	86.94
479.22	84.94
479.439	90.94
479.658	92.94
479.876	82.94
480.095	95.94
480.313	80.94
480.532	90.94
480.751	87.94
480.969	78.94
481.188	82.94
481.406	82.94
481.624	90.94
481.843	86.94
482.061	78.94
482.28	82.94
482.498	88.94
482.717	92.94
482.935	82.94
483.153	80.94
483.372	83.94
483.59	86.94
483.808	69.94
484.027	78.94
484.245	98.94
484.463	77.94
484.681	79.94
484.9	80.94
485.118	93.94
485.336	96.94
485.554	86.94
485.772	78.94
485.99	85.94
486.209	91.94
486.427	87.94
486.645	89.94
486.863	85.94
487.081	93.94
487.299	105.94
487.517	86.94
487.735	95.94
487.953	89.94
488.171	90.94
488.389	94.94
488.607	82.94
488.825	89.94
489.043	76.94
489.261	93.94
489.479	83.94
489.696	99.94
489.914	88.94
490.132	101.94
490.35	99.94
490.568	89.94
490.786	102.94
491.003	100.94
491.221	93.94
491.439	79.94
491.657	83.94
491.874	87.94
492.092	99.94
492.31	86.94
492.527	85.94
492.745	93.94
492.963	110.94
493.18	88.94
493.398	83.94
493.615	87.94
493.833	89.94
494.05	79.94
494.268	94.94
494.485	85.94
494.703	86.94
494.92	88.94
495.138	79.94
495.355	94.94
495.573	88.94
495.79	96.94
496.008	87.94
496.225	89.94
496.442	89.94
496.66	101.94
496.877	91.94
497.094	61.94
497.312	78.94
497.529	84.94
497.746	103.94
497.963	86.94
498.181	106.94
498.398	84.94
498.615	83.94
498.832	74.94
499.049	92.94
499.267	88.94
499.484	88.94
499.701	85.94
499.918	94.94
500.135	87.94
500.352	80.94
500.569	105.94
500.786	92.94
501.003	86.94
501.22	84.94
501.437	87.94
501.654	86.94
501.871	86.94
502.088	90.94
502.305	87.94
502.522	87.94
502.739	85.94
502.956	87.94
503.172	81.94
503.389	75.94
503.606	85.94
503.823	87.94
504.04	74.94
504.256	87.94
504.473	91.94
504.69	81.94
504.907	83.94
505.123	74.94
505.34	73.94
505.557	78.94
505.773	83.94
505.99	96.94
506.207	92.94
506.423	97.94
506.64	92.94
506.856	73.94
507.073	95.94
507.289	62.94
507.506	103.94
507.722	87.94
507.939	79.94
508.155	88.94
508.372	86.94
508.588	89.94
508.805	96.94
509.021	90.94
509.238	91.94
509.454	85.94
509.67	83.94
509.887	90.94
510.103	95.94
510.319	83.94
510.536	77.94
510.752	85.94
510.968	83.94
511.184	86.94
511.401	83.94
511.617	94.94
511.833	86.94
512.049	89.94
512.265	75.94
512.481	91.94
512.698	86.94
512.914	87.94
513.13	77.94
513.346	81.94
513.562	94.94
513.778	82.94
513.994	90.94
514.21	85.94
514.426	91.94
514.642	98.94
514.858	85.94
515.074	85.94
515.29	101.94
515.506	86.94
515.721	93.94
515.937	79.94
516.153	87.94
516.369	66.94
516.585	80.94
516.801	88.94
517.016	89.94
517.232	81.94
517.448	81.94
517.664	83.94
517.879	81.94
518.095	99.94
518.311	92.94
518.527	96.94
518.742	84.94
518.958	93.94
519.173	93.94
519.389	87.94
519.605	96.94
