Data from Alignment_HRD10591_00018.txt Node
Date: Fri Dec 27 14:18:41 EST 2024
User: Yrep
Spectrometer: HR+D1059
Trigger mode: 1
Integration Time (sec): 1.000000E-1
Scans to average: 1
Electric dark correction enabled: true
Nonlinearity correction enabled: false
Boxcar width: 0
XAxis mode: Wavelengths
Number of Pixels in Spectrum: 2048
>>>>>Begin Spectral Data<<<<<
223.165	-17.88
223.4	-17.88
223.635	-17.88
223.869	-10.88
224.104	-28.88
224.338	-9.88
224.573	-15.88
224.808	-12.88
225.042	-4.88
225.277	1.12
225.511	-22.88
225.746	4.12
225.98	12.12
226.215	2.12
226.449	21.12
226.683	20.12
226.918	29.12
227.152	34.12
227.387	40.12
227.621	34.12
227.856	46.12
228.09	34.12
228.324	41.12
228.559	55.12
228.793	65.12
229.027	65.12
229.262	50.12
229.496	56.12
229.73	64.12
229.964	83.12
230.199	75.12
230.433	70.12
230.667	61.12
230.901	80.12
231.136	66.12
231.37	78.12
231.604	77.12
231.838	72.12
232.072	70.12
232.306	81.12
232.541	84.12
232.775	68.12
233.009	72.12
233.243	79.12
233.477	90.12
233.711	76.12
233.945	84.12
234.179	75.12
234.413	74.12
234.647	82.12
234.881	74.12
235.115	62.12
235.349	74.12
235.583	87.12
235.817	74.12
236.051	80.12
236.285	67.12
236.519	77.12
236.753	78.12
236.987	78.12
237.221	80.12
237.455	76.12
237.689	96.12
237.922	60.12
238.156	69.12
238.39	74.12
238.624	62.12
238.858	75.12
239.091	79.12
239.325	74.12
239.559	76.12
239.793	77.12
240.027	54.12
240.26	74.12
240.494	81.12
240.728	70.12
240.961	68.12
241.195	81.12
241.429	78.12
241.662	72.12
241.896	68.12
242.13	78.12
242.363	71.12
242.597	68.12
242.83	72.12
243.064	73.12
243.298	65.12
243.531	76.12
243.765	71.12
243.998	66.12
244.232	76.12
244.465	75.12
244.699	73.12
244.932	77.12
245.166	77.12
245.399	78.12
245.633	75.12
245.866	77.12
246.099	91.12
246.333	82.12
246.566	74.12
246.8	68.12
247.033	76.12
247.266	77.12
247.5	64.12
247.733	83.12
247.966	73.12
248.2	65.12
248.433	66.12
248.666	82.12
248.899	67.12
249.133	80.12
249.366	76.12
249.599	72.12
249.832	70.12
250.066	67.12
250.299	77.12
250.532	77.12
250.765	75.12
250.998	80.12
251.231	73.12
251.465	66.12
251.698	77.12
251.931	76.12
252.164	74.12
252.397	78.12
252.63	71.12
252.863	62.12
253.096	79.12
253.329	83.12
253.562	69.12
253.795	73.12
254.028	76.12
254.261	80.12
254.494	77.12
254.727	73.12
254.96	76.12
255.193	80.12
255.426	82.12
255.659	71.12
255.892	86.12
256.124	74.12
256.357	78.12
256.59	76.12
256.823	69.12
257.056	73.12
257.289	79.12
257.521	73.12
257.754	83.12
257.987	74.12
258.22	80.12
258.452	66.12
258.685	65.12
258.918	78.12
259.151	70.12
259.383	72.12
259.616	80.12
259.849	89.12
260.081	82.12
260.314	79.12
260.547	86.12
260.779	67.12
261.012	93.12
261.244	73.12
261.477	80.12
261.71	65.12
261.942	80.12
262.175	81.12
262.407	90.12
262.64	77.12
262.872	81.12
263.105	82.12
263.337	73.12
263.57	67.12
263.802	77.12
264.035	79.12
264.267	92.12
264.499	78.12
264.732	78.12
264.964	82.12
265.197	87.12
265.429	83.12
265.661	84.12
265.894	70.12
266.126	80.12
266.358	96.12
266.591	80.12
266.823	75.12
267.055	77.12
267.287	81.12
267.52	70.12
267.752	73.12
267.984	80.12
268.216	93.12
268.448	68.12
268.681	76.12
268.913	80.12
269.145	69.12
269.377	78.12
269.609	80.12
269.841	73.12
270.073	69.12
270.306	86.12
270.538	81.12
270.77	81.12
271.002	81.12
271.234	90.12
271.466	91.12
271.698	78.12
271.93	63.12
272.162	72.12
272.394	84.12
272.626	79.12
272.858	80.12
273.09	79.12
273.322	75.12
273.553	76.12
273.785	85.12
274.017	64.12
274.249	77.12
274.481	80.12
274.713	96.12
274.945	90.12
275.176	78.12
275.408	90.12
275.64	82.12
275.872	71.12
276.104	88.12
276.335	64.12
276.567	89.12
276.799	76.12
277.031	82.12
277.262	74.12
277.494	79.12
277.726	96.12
277.957	77.12
278.189	72.12
278.421	88.12
278.652	91.12
278.884	76.12
279.115	56.12
279.347	83.12
279.579	84.12
279.81	81.12
280.042	92.12
280.273	92.12
280.505	74.12
280.736	92.12
280.968	81.12
281.199	77.12
281.431	79.12
281.662	79.12
281.894	93.12
282.125	92.12
282.356	67.12
282.588	88.12
282.819	85.12
283.051	70.12
283.282	76.12
283.513	87.12
283.745	90.12
283.976	73.12
284.207	88.12
284.439	88.12
284.67	95.12
284.901	75.12
285.132	71.12
285.364	85.12
285.595	82.12
285.826	85.12
286.057	80.12
286.288	89.12
286.52	100.12
286.751	88.12
286.982	75.12
287.213	80.12
287.444	92.12
287.675	88.12
287.906	80.12
288.138	65.12
288.369	78.12
288.6	78.12
288.831	87.12
289.062	86.12
289.293	56.12
289.524	79.12
289.755	84.12
289.986	83.12
290.217	90.12
290.448	54.12
290.679	98.12
290.91	85.12
291.141	83.12
291.371	80.12
291.602	92.12
291.833	74.12
292.064	78.12
292.295	74.12
292.526	88.12
292.757	96.12
292.987	93.12
293.218	80.12
293.449	64.12
293.68	84.12
293.91	80.12
294.141	78.12
294.372	84.12
294.603	91.12
294.833	90.12
295.064	92.12
295.295	91.12
295.525	89.12
295.756	82.12
295.987	85.12
296.217	84.12
296.448	73.12
296.679	81.12
296.909	90.12
297.14	78.12
297.37	89.12
297.601	69.12
297.831	81.12
298.062	80.12
298.292	88.12
298.523	84.12
298.753	70.12
298.984	75.12
299.214	83.12
299.445	78.12
299.675	80.12
299.905	89.12
300.136	66.12
300.366	80.12
300.597	77.12
300.827	75.12
301.057	78.12
301.288	82.12
301.518	72.12
301.748	84.12
301.979	104.12
302.209	89.12
302.439	93.12
302.669	87.12
302.9	82.12
303.13	85.12
303.36	86.12
303.59	97.12
303.82	90.12
304.051	89.12
304.281	94.12
304.511	84.12
304.741	73.12
304.971	75.12
305.201	71.12
305.431	94.12
305.661	90.12
305.891	74.12
306.121	79.12
306.352	73.12
306.582	86.12
306.812	79.12
307.042	87.12
307.272	76.12
307.502	79.12
307.731	80.12
307.961	85.12
308.191	80.12
308.421	85.12
308.651	96.12
308.881	72.12
309.111	76.12
309.341	79.12
309.571	79.12
309.8	88.12
310.03	73.12
310.26	77.12
310.49	81.12
310.72	72.12
310.949	82.12
311.179	101.12
311.409	75.12
311.639	80.12
311.868	99.12
312.098	91.12
312.328	69.12
312.557	98.12
312.787	78.12
313.017	77.12
313.246	77.12
313.476	83.12
313.706	81.12
313.935	78.12
314.165	92.12
314.394	78.12
314.624	82.12
314.853	75.12
315.083	78.12
315.312	78.12
315.542	84.12
315.771	71.12
316.001	86.12
316.23	89.12
316.46	84.12
316.689	90.12
316.919	83.12
317.148	81.12
317.377	98.12
317.607	97.12
317.836	89.12
318.065	90.12
318.295	84.12
318.524	70.12
318.753	72.12
318.983	84.12
319.212	89.12
319.441	81.12
319.67	69.12
319.9	83.12
320.129	72.12
320.358	84.12
320.587	78.12
320.816	88.12
321.046	85.12
321.275	75.12
321.504	83.12
321.733	75.12
321.962	89.12
322.191	90.12
322.42	76.12
322.649	80.12
322.878	90.12
323.108	75.12
323.337	95.12
323.566	76.12
323.795	73.12
324.024	80.12
324.253	83.12
324.482	77.12
324.71	92.12
324.939	76.12
325.168	77.12
325.397	97.12
325.626	77.12
325.855	76.12
326.084	81.12
326.313	71.12
326.542	77.12
326.77	84.12
326.999	73.12
327.228	88.12
327.457	65.12
327.686	88.12
327.914	94.12
328.143	78.12
328.372	83.12
328.6	83.12
328.829	83.12
329.058	81.12
329.287	64.12
329.515	76.12
329.744	88.12
329.972	80.12
330.201	76.12
330.43	81.12
330.658	83.12
330.887	62.12
331.115	83.12
331.344	64.12
331.572	88.12
331.801	96.12
332.03	72.12
332.258	78.12
332.486	93.12
332.715	83.12
332.943	75.12
333.172	68.12
333.4	79.12
333.629	91.12
333.857	85.12
334.085	77.12
334.314	83.12
334.542	94.12
334.771	85.12
334.999	80.12
335.227	64.12
335.455	69.12
335.684	88.12
335.912	84.12
336.14	63.12
336.369	77.12
336.597	83.12
336.825	76.12
337.053	69.12
337.281	76.12
337.51	70.12
337.738	90.12
337.966	88.12
338.194	63.12
338.422	83.12
338.65	75.12
338.878	78.12
339.106	72.12
339.334	64.12
339.562	85.12
339.79	77.12
340.018	79.12
340.246	89.12
340.474	77.12
340.702	89.12
340.93	81.12
341.158	85.12
341.386	75.12
341.614	57.12
341.842	79.12
342.07	81.12
342.298	85.12
342.526	83.12
342.754	73.12
342.981	82.12
343.209	83.12
343.437	84.12
343.665	96.12
343.893	61.12
344.12	87.12
344.348	81.12
344.576	84.12
344.804	86.12
345.031	83.12
345.259	90.12
345.487	91.12
345.714	70.12
345.942	81.12
346.17	75.12
346.397	76.12
346.625	92.12
346.853	73.12
347.08	65.12
347.308	77.12
347.535	83.12
347.763	82.12
347.99	90.12
348.218	92.12
348.445	73.12
348.673	72.12
348.9	82.12
349.128	74.12
349.355	79.12
349.583	75.12
349.81	76.12
350.037	90.12
350.265	76.12
350.492	80.12
350.72	88.12
350.947	82.12
351.174	69.12
351.402	82.12
351.629	90.12
351.856	69.12
352.083	72.12
352.311	69.12
352.538	75.12
352.765	80.12
352.992	90.12
353.22	79.12
353.447	78.12
353.674	81.12
353.901	76.12
354.128	77.12
354.355	76.12
354.583	86.12
354.81	76.12
355.037	73.12
355.264	92.12
355.491	74.12
355.718	84.12
355.945	91.12
356.172	81.12
356.399	73.12
356.626	73.12
356.853	75.12
357.08	71.12
357.307	93.12
357.534	71.12
357.761	76.12
357.988	80.12
358.215	85.12
358.441	69.12
358.668	78.12
358.895	85.12
359.122	89.12
359.349	84.12
359.576	78.12
359.802	81.12
360.029	88.12
360.256	68.12
360.483	80.12
360.709	73.12
360.936	84.12
361.163	82.12
361.39	93.12
361.616	82.12
361.843	92.12
362.07	78.12
362.296	84.12
362.523	77.12
362.749	83.12
362.976	93.12
363.203	90.12
363.429	72.12
363.656	79.12
363.882	86.12
364.109	91.12
364.335	72.12
364.562	77.12
364.788	75.12
365.015	82.12
365.241	74.12
365.468	79.12
365.694	76.12
365.92	80.12
366.147	75.12
366.373	76.12
366.599	73.12
366.826	81.12
367.052	88.12
367.278	90.12
367.505	86.12
367.731	82.12
367.957	92.12
368.184	85.12
368.41	81.12
368.636	97.12
368.862	92.12
369.089	81.12
369.315	74.12
369.541	71.12
369.767	73.12
369.993	84.12
370.219	80.12
370.445	79.12
370.672	86.12
370.898	76.12
371.124	81.12
371.35	75.12
371.576	79.12
371.802	78.12
372.028	78.12
372.254	89.12
372.48	85.12
372.706	75.12
372.932	83.12
373.158	77.12
373.384	74.12
373.61	77.12
373.835	68.12
374.061	74.12
374.287	90.12
374.513	75.12
374.739	84.12
374.965	86.12
375.191	90.12
375.416	72.12
375.642	72.12
375.868	88.12
376.094	73.12
376.319	94.12
376.545	81.12
376.771	76.12
376.997	73.12
377.222	79.12
377.448	73.12
377.674	74.12
377.899	74.12
378.125	79.12
378.35	88.12
378.576	69.12
378.802	70.12
379.027	72.12
379.253	75.12
379.478	76.12
379.704	75.12
379.929	98.12
380.155	72.12
380.38	66.12
380.606	69.12
380.831	73.12
381.057	95.12
381.282	80.12
381.507	72.12
381.733	75.12
381.958	75.12
382.184	77.12
382.409	80.12
382.634	90.12
382.86	82.12
383.085	78.12
383.31	84.12
383.535	79.12
383.761	83.12
383.986	68.12
384.211	81.12
384.436	69.12
384.662	80.12
384.887	97.12
385.112	84.12
385.337	82.12
385.562	78.12
385.787	84.12
386.013	89.12
386.238	84.12
386.463	87.12
386.688	81.12
386.913	79.12
387.138	75.12
387.363	77.12
387.588	90.12
387.813	80.12
388.038	74.12
388.263	78.12
388.488	85.12
388.713	75.12
388.938	71.12
389.163	86.12
389.387	70.12
389.612	76.12
389.837	84.12
390.062	88.12
390.287	80.12
390.512	76.12
390.736	81.12
390.961	62.12
391.186	86.12
391.411	70.12
391.636	83.12
391.86	77.12
392.085	79.12
392.31	96.12
392.534	74.12
392.759	85.12
392.984	94.12
393.208	73.12
393.433	80.12
393.658	81.12
393.882	71.12
394.107	67.12
394.331	82.12
394.556	80.12
394.78	85.12
395.005	72.12
395.229	82.12
395.454	81.12
395.678	82.12
395.903	89.12
396.127	66.12
396.352	89.12
396.576	63.12
396.801	73.12
397.025	82.12
397.249	59.12
397.474	91.12
397.698	83.12
397.922	90.12
398.147	95.12
398.371	78.12
398.595	77.12
398.82	76.12
399.044	73.12
399.268	92.12
399.492	104.12
399.717	78.12
399.941	84.12
400.165	93.12
400.389	69.12
400.613	82.12
400.837	83.12
401.062	80.12
401.286	80.12
401.51	77.12
401.734	81.12
401.958	74.12
402.182	92.12
402.406	88.12
402.63	81.12
402.854	91.12
403.078	99.12
403.302	88.12
403.526	93.12
403.75	79.12
403.974	80.12
404.198	86.12
404.422	86.12
404.645	85.12
404.869	86.12
405.093	74.12
405.317	73.12
405.541	84.12
405.765	88.12
405.988	77.12
406.212	88.12
406.436	88.12
406.66	75.12
406.883	75.12
407.107	77.12
407.331	88.12
407.555	78.12
407.778	77.12
408.002	79.12
408.226	99.12
408.449	73.12
408.673	80.12
408.896	78.12
409.12	88.12
409.344	74.12
409.567	88.12
409.791	79.12
410.014	84.12
410.238	82.12
410.461	74.12
410.685	82.12
410.908	78.12
411.132	89.12
411.355	78.12
411.578	78.12
411.802	80.12
412.025	76.12
412.249	73.12
412.472	73.12
412.695	81.12
412.919	71.12
413.142	80.12
413.365	81.12
413.589	84.12
413.812	62.12
414.035	82.12
414.258	70.12
414.482	73.12
414.705	82.12
414.928	83.12
415.151	89.12
415.374	84.12
415.597	80.12
415.821	73.12
416.044	91.12
416.267	88.12
416.49	80.12
416.713	70.12
416.936	82.12
417.159	78.12
417.382	91.12
417.605	73.12
417.828	58.12
418.051	73.12
418.274	84.12
418.497	78.12
418.72	80.12
418.943	80.12
419.166	92.12
419.389	86.12
419.611	78.12
419.834	83.12
420.057	71.12
420.28	75.12
420.503	75.12
420.726	94.12
420.948	64.12
421.171	84.12
421.394	67.12
421.617	91.12
421.839	90.12
422.062	89.12
422.285	73.12
422.507	70.12
422.73	73.12
422.953	72.12
423.175	79.12
423.398	79.12
423.621	93.12
423.843	85.12
424.066	90.12
424.288	86.12
424.511	72.12
424.733	85.12
424.956	68.12
425.178	82.12
425.401	78.12
425.623	83.12
425.846	84.12
426.068	86.12
426.291	81.12
426.513	84.12
426.735	62.12
426.958	69.12
427.18	83.12
427.402	78.12
427.625	68.12
427.847	84.12
428.069	97.12
428.292	68.12
428.514	80.12
428.736	69.12
428.958	76.12
429.181	91.12
429.403	72.12
429.625	76.12
429.847	85.12
430.069	88.12
430.292	99.12
430.514	70.12
430.736	85.12
430.958	82.12
431.18	69.12
431.402	88.12
431.624	92.12
431.846	71.12
432.068	72.12
432.29	83.12
432.512	86.12
432.734	74.12
432.956	73.12
433.178	86.12
433.4	78.12
433.622	93.12
433.844	85.12
434.066	78.12
434.287	65.12
434.509	62.12
434.731	62.12
434.953	80.12
435.175	69.12
435.397	76.12
435.618	84.12
435.84	67.12
436.062	76.12
436.284	69.12
436.505	91.12
436.727	77.12
436.949	86.12
437.17	89.12
437.392	78.12
437.614	77.12
437.835	85.12
438.057	80.12
438.278	88.12
438.5	77.12
438.721	81.12
438.943	83.12
439.165	82.12
439.386	81.12
439.608	92.12
439.829	76.12
440.05	77.12
440.272	80.12
440.493	78.12
440.715	86.12
440.936	86.12
441.158	72.12
441.379	91.12
441.6	97.12
441.822	94.12
442.043	79.12
442.264	82.12
442.486	69.12
442.707	82.12
442.928	85.12
443.149	85.12
443.371	92.12
443.592	78.12
443.813	95.12
444.034	94.12
444.255	80.12
444.476	81.12
444.698	92.12
444.919	82.12
445.14	154.12
445.361	96.12
445.582	79.12
445.803	72.12
446.024	78.12
446.245	105.12
446.466	76.12
446.687	76.12
446.908	84.12
447.129	88.12
447.35	81.12
447.571	89.12
447.792	77.12
448.013	76.12
448.234	54.12
448.455	90.12
448.675	86.12
448.896	90.12
449.117	102.12
449.338	79.12
449.559	80.12
449.779	81.12
450	88.12
450.221	78.12
450.442	77.12
450.662	84.12
450.883	71.12
451.104	76.12
451.324	83.12
451.545	77.12
451.766	70.12
451.986	85.12
452.207	78.12
452.428	88.12
452.648	84.12
452.869	77.12
453.089	81.12
453.31	92.12
453.53	85.12
453.751	70.12
453.971	77.12
454.192	73.12
454.412	73.12
454.633	72.12
454.853	94.12
455.073	77.12
455.294	87.12
455.514	93.12
455.734	83.12
455.955	76.12
456.175	79.12
456.395	85.12
456.616	82.12
456.836	72.12
457.056	73.12
457.276	77.12
457.497	81.12
457.717	72.12
457.937	70.12
458.157	86.12
458.377	80.12
458.598	88.12
458.818	79.12
459.038	72.12
459.258	74.12
459.478	91.12
459.698	68.12
459.918	85.12
460.138	94.12
460.358	75.12
460.578	99.12
460.798	90.12
461.018	89.12
461.238	87.12
461.458	104.12
461.678	93.12
461.898	86.12
462.118	78.12
462.338	80.12
462.558	75.12
462.777	95.12
462.997	100.12
463.217	80.12
463.437	88.12
463.657	80.12
463.876	78.12
464.096	79.12
464.316	85.12
464.536	68.12
464.755	94.12
464.975	82.12
465.195	90.12
465.414	82.12
465.634	81.12
465.854	67.12
466.073	83.12
466.293	88.12
466.512	83.12
466.732	78.12
466.951	86.12
467.171	88.12
467.391	88.12
467.61	88.12
467.829	93.12
468.049	88.12
468.268	84.12
468.488	85.12
468.707	75.12
468.927	82.12
469.146	81.12
469.365	69.12
469.585	82.12
469.804	77.12
470.023	73.12
470.243	90.12
470.462	94.12
470.681	83.12
470.901	77.12
471.12	86.12
471.339	90.12
471.558	80.12
471.777	80.12
471.997	85.12
472.216	76.12
472.435	70.12
472.654	71.12
472.873	81.12
473.092	64.12
473.311	81.12
473.53	84.12
473.749	86.12
473.968	90.12
474.187	74.12
474.406	64.12
474.625	76.12
474.844	91.12
475.063	68.12
475.282	62.12
475.501	95.12
475.72	84.12
475.939	85.12
476.158	89.12
476.377	81.12
476.596	76.12
476.814	85.12
477.033	79.12
477.252	74.12
477.471	81.12
477.69	94.12
477.908	89.12
478.127	100.12
478.346	68.12
478.564	82.12
478.783	85.12
479.002	81.12
479.22	78.12
479.439	76.12
479.658	73.12
479.876	69.12
480.095	62.12
480.313	76.12
480.532	80.12
480.751	86.12
480.969	81.12
481.188	100.12
481.406	75.12
481.624	75.12
481.843	79.12
482.061	81.12
482.28	84.12
482.498	64.12
482.717	97.12
482.935	72.12
483.153	68.12
483.372	97.12
483.59	85.12
483.808	83.12
484.027	85.12
484.245	72.12
484.463	81.12
484.681	97.12
484.9	85.12
485.118	93.12
485.336	90.12
485.554	78.12
485.772	80.12
485.99	94.12
486.209	89.12
486.427	76.12
486.645	86.12
486.863	87.12
487.081	91.12
487.299	86.12
487.517	90.12
487.735	92.12
487.953	77.12
488.171	80.12
488.389	74.12
488.607	71.12
488.825	74.12
489.043	91.12
489.261	84.12
489.479	88.12
489.696	68.12
489.914	78.12
490.132	89.12
490.35	83.12
490.568	93.12
490.786	84.12
491.003	91.12
491.221	70.12
491.439	71.12
491.657	86.12
491.874	84.12
492.092	89.12
492.31	85.12
492.527	97.12
492.745	86.12
492.963	82.12
493.18	76.12
493.398	81.12
493.615	83.12
493.833	78.12
494.05	85.12
494.268	77.12
494.485	94.12
494.703	91.12
494.92	98.12
495.138	80.12
495.355	80.12
495.573	89.12
495.79	72.12
496.008	77.12
496.225	99.12
496.442	87.12
496.66	91.12
496.877	86.12
497.094	90.12
497.312	88.12
497.529	88.12
497.746	89.12
497.963	90.12
498.181	85.12
498.398	92.12
498.615	81.12
498.832	90.12
499.049	69.12
499.267	85.12
499.484	78.12
499.701	97.12
499.918	96.12
500.135	83.12
500.352	79.12
500.569	80.12
500.786	88.12
501.003	100.12
501.22	78.12
501.437	78.12
501.654	75.12
501.871	80.12
502.088	84.12
502.305	76.12
502.522	74.12
502.739	75.12
502.956	81.12
503.172	88.12
503.389	80.12
503.606	85.12
503.823	74.12
504.04	87.12
504.256	77.12
504.473	78.12
504.69	77.12
504.907	85.12
505.123	83.12
505.34	83.12
505.557	79.12
505.773	89.12
505.99	77.12
506.207	87.12
506.423	88.12
506.64	84.12
506.856	80.12
507.073	74.12
507.289	84.12
507.506	79.12
507.722	81.12
507.939	80.12
508.155	81.12
508.372	72.12
508.588	88.12
508.805	80.12
509.021	81.12
509.238	77.12
509.454	66.12
509.67	77.12
509.887	80.12
510.103	83.12
510.319	81.12
510.536	92.12
510.752	83.12
510.968	80.12
511.184	92.12
511.401	75.12
511.617	66.12
511.833	91.12
512.049	78.12
512.265	92.12
512.481	106.12
512.698	88.12
512.914	80.12
513.13	100.12
513.346	89.12
513.562	88.12
513.778	77.12
513.994	82.12
514.21	84.12
514.426	85.12
514.642	101.12
514.858	74.12
515.074	82.12
515.29	86.12
515.506	75.12
515.721	73.12
515.937	79.12
516.153	70.12
516.369	76.12
516.585	73.12
516.801	92.12
517.016	95.12
517.232	73.12
517.448	100.12
517.664	77.12
517.879	90.12
518.095	68.12
518.311	81.12
518.527	83.12
518.742	95.12
518.958	76.12
519.173	89.12
519.389	75.12
519.605	81.12
519.82	67.12
520.036	84.12
