Data from Circ_2010_H10_HRD10591_00096.txt Node
Date: Wed Jan 03 10:10:00 EST 2024
User: Yrep
Spectrometer: HR+D1059
Trigger mode: 1
Integration Time (sec): 1.000000E-1
Scans to average: 1
Electric dark correction enabled: true
Nonlinearity correction enabled: false
Boxcar width: 0
XAxis mode: Wavelengths
Number of Pixels in Spectrum: 2048
>>>>>Begin Spectral Data<<<<<
223.165	-14.12
223.4	-14.12
223.635	-14.12
223.869	-8.12
224.104	-11.12
224.338	-22.12
224.573	-32.12
224.808	-13.12
225.042	0.88
225.277	-6.12
225.511	-0.12
225.746	-7.12
225.98	12.88
226.215	2.88
226.449	7.88
226.683	29.88
226.918	24.88
227.152	34.88
227.387	30.88
227.621	31.88
227.856	53.88
228.09	47.88
228.324	53.88
228.559	48.88
228.793	52.88
229.027	44.88
229.262	64.88
229.496	71.88
229.73	90.88
229.964	81.88
230.199	76.88
230.433	80.88
230.667	85.88
230.901	81.88
231.136	77.88
231.37	85.88
231.604	89.88
231.838	79.88
232.072	82.88
232.306	88.88
232.541	72.88
232.775	89.88
233.009	73.88
233.243	73.88
233.477	87.88
233.711	82.88
233.945	71.88
234.179	72.88
234.413	78.88
234.647	93.88
234.881	90.88
235.115	82.88
235.349	85.88
235.583	85.88
235.817	86.88
236.051	80.88
236.285	75.88
236.519	69.88
236.753	69.88
236.987	65.88
237.221	76.88
237.455	84.88
237.689	79.88
237.922	85.88
238.156	92.88
238.39	82.88
238.624	68.88
238.858	75.88
239.091	77.88
239.325	100.88
239.559	90.88
239.793	93.88
240.027	80.88
240.26	84.88
240.494	88.88
240.728	71.88
240.961	85.88
241.195	86.88
241.429	92.88
241.662	76.88
241.896	59.88
242.13	80.88
242.363	103.88
242.597	81.88
242.83	76.88
243.064	76.88
243.298	88.88
243.531	83.88
243.765	77.88
243.998	68.88
244.232	93.88
244.465	92.88
244.699	72.88
244.932	87.88
245.166	72.88
245.399	97.88
245.633	83.88
245.866	81.88
246.099	84.88
246.333	77.88
246.566	98.88
246.8	79.88
247.033	65.88
247.266	79.88
247.5	58.88
247.733	91.88
247.966	82.88
248.2	96.88
248.433	76.88
248.666	75.88
248.899	81.88
249.133	93.88
249.366	102.88
249.599	91.88
249.832	81.88
250.066	80.88
250.299	87.88
250.532	80.88
250.765	76.88
250.998	79.88
251.231	80.88
251.465	84.88
251.698	81.88
251.931	83.88
252.164	83.88
252.397	72.88
252.63	86.88
252.863	78.88
253.096	73.88
253.329	86.88
253.562	74.88
253.795	87.88
254.028	92.88
254.261	75.88
254.494	73.88
254.727	81.88
254.96	98.88
255.193	86.88
255.426	87.88
255.659	69.88
255.892	77.88
256.124	75.88
256.357	74.88
256.59	80.88
256.823	88.88
257.056	75.88
257.289	97.88
257.521	78.88
257.754	86.88
257.987	92.88
258.22	82.88
258.452	86.88
258.685	82.88
258.918	98.88
259.151	79.88
259.383	89.88
259.616	90.88
259.849	84.88
260.081	85.88
260.314	85.88
260.547	87.88
260.779	81.88
261.012	85.88
261.244	73.88
261.477	76.88
261.71	95.88
261.942	103.88
262.175	117.88
262.407	93.88
262.64	88.88
262.872	83.88
263.105	93.88
263.337	85.88
263.57	78.88
263.802	89.88
264.035	90.88
264.267	81.88
264.499	86.88
264.732	81.88
264.964	102.88
265.197	85.88
265.429	84.88
265.661	100.88
265.894	76.88
266.126	76.88
266.358	87.88
266.591	81.88
266.823	70.88
267.055	86.88
267.287	79.88
267.52	78.88
267.752	83.88
267.984	82.88
268.216	88.88
268.448	79.88
268.681	83.88
268.913	93.88
269.145	79.88
269.377	73.88
269.609	88.88
269.841	90.88
270.073	85.88
270.306	89.88
270.538	88.88
270.77	89.88
271.002	76.88
271.234	88.88
271.466	85.88
271.698	95.88
271.93	82.88
272.162	85.88
272.394	96.88
272.626	94.88
272.858	70.88
273.09	83.88
273.322	89.88
273.553	88.88
273.785	93.88
274.017	80.88
274.249	73.88
274.481	79.88
274.713	96.88
274.945	90.88
275.176	88.88
275.408	98.88
275.64	90.88
275.872	102.88
276.104	89.88
276.335	89.88
276.567	93.88
276.799	111.88
277.031	99.88
277.262	102.88
277.494	104.88
277.726	89.88
277.957	88.88
278.189	89.88
278.421	83.88
278.652	86.88
278.884	90.88
279.115	78.88
279.347	68.88
279.579	84.88
279.81	88.88
280.042	110.88
280.273	110.88
280.505	114.88
280.736	82.88
280.968	88.88
281.199	73.88
281.431	79.88
281.662	93.88
281.894	99.88
282.125	93.88
282.356	130.88
282.588	146.88
282.819	121.88
283.051	90.88
283.282	96.88
283.513	91.88
283.745	89.88
283.976	86.88
284.207	83.88
284.439	93.88
284.67	76.88
284.901	91.88
285.132	80.88
285.364	69.88
285.595	92.88
285.826	81.88
286.057	93.88
286.288	79.88
286.52	85.88
286.751	78.88
286.982	75.88
287.213	85.88
287.444	102.88
287.675	79.88
287.906	104.88
288.138	78.88
288.369	83.88
288.6	72.88
288.831	86.88
289.062	89.88
289.293	80.88
289.524	85.88
289.755	85.88
289.986	92.88
290.217	87.88
290.448	89.88
290.679	90.88
290.91	83.88
291.141	74.88
291.371	84.88
291.602	86.88
291.833	92.88
292.064	94.88
292.295	77.88
292.526	69.88
292.757	84.88
292.987	95.88
293.218	89.88
293.449	81.88
293.68	72.88
293.91	91.88
294.141	96.88
294.372	86.88
294.603	74.88
294.833	91.88
295.064	94.88
295.295	94.88
295.525	83.88
295.756	96.88
295.987	104.88
296.217	129.88
296.448	122.88
296.679	107.88
296.909	80.88
297.14	90.88
297.37	94.88
297.601	90.88
297.831	82.88
298.062	99.88
298.292	89.88
298.523	102.88
298.753	89.88
298.984	99.88
299.214	99.88
299.445	112.88
299.675	95.88
299.905	92.88
300.136	85.88
300.366	99.88
300.597	82.88
300.827	99.88
301.057	105.88
301.288	97.88
301.518	78.88
301.748	91.88
301.979	103.88
302.209	81.88
302.439	91.88
302.669	92.88
302.9	75.88
303.13	86.88
303.36	98.88
303.59	108.88
303.82	106.88
304.051	94.88
304.281	88.88
304.511	90.88
304.741	75.88
304.971	86.88
305.201	104.88
305.431	97.88
305.661	88.88
305.891	89.88
306.121	97.88
306.352	98.88
306.582	118.88
306.812	84.88
307.042	85.88
307.272	105.88
307.502	116.88
307.731	119.88
307.961	96.88
308.191	97.88
308.421	103.88
308.651	83.88
308.881	86.88
309.111	83.88
309.341	85.88
309.571	94.88
309.8	102.88
310.03	97.88
310.26	89.88
310.49	93.88
310.72	105.88
310.949	118.88
311.179	109.88
311.409	97.88
311.639	96.88
311.868	112.88
312.098	87.88
312.328	98.88
312.557	86.88
312.787	97.88
313.017	103.88
313.246	84.88
313.476	93.88
313.706	84.88
313.935	88.88
314.165	101.88
314.394	103.88
314.624	97.88
314.853	95.88
315.083	107.88
315.312	92.88
315.542	96.88
315.771	102.88
316.001	90.88
316.23	89.88
316.46	90.88
316.689	87.88
316.919	94.88
317.148	99.88
317.377	97.88
317.607	98.88
317.836	97.88
318.065	101.88
318.295	91.88
318.524	93.88
318.753	90.88
318.983	100.88
319.212	84.88
319.441	108.88
319.67	102.88
319.9	94.88
320.129	91.88
320.358	100.88
320.587	100.88
320.816	99.88
321.046	102.88
321.275	111.88
321.504	100.88
321.733	93.88
321.962	107.88
322.191	102.88
322.42	105.88
322.649	127.88
322.878	111.88
323.108	124.88
323.337	120.88
323.566	135.88
323.795	148.88
324.024	236.88
324.253	439.88
324.482	936.88
324.71	1866.88
324.939	2467.88
325.168	884.88
325.397	249.88
325.626	160.88
325.855	136.88
326.084	137.88
326.313	145.88
326.542	174.88
326.77	263.88
326.999	502.88
327.228	1053.88
327.457	1896.88
327.686	1546.88
327.914	417.88
328.143	260.88
328.372	274.88
328.6	149.88
328.829	134.88
329.058	130.88
329.287	133.88
329.515	117.88
329.744	146.88
329.972	191.88
330.201	319.88
330.43	416.88
330.658	235.88
330.887	174.88
331.115	129.88
331.344	100.88
331.572	108.88
331.801	110.88
332.03	108.88
332.258	104.88
332.486	94.88
332.715	95.88
332.943	89.88
333.172	115.88
333.4	121.88
333.629	125.88
333.857	142.88
334.085	185.88
334.314	292.88
334.542	538.88
334.771	503.88
334.999	186.88
335.227	122.88
335.455	102.88
335.684	108.88
335.912	94.88
336.14	100.88
336.369	83.88
336.597	91.88
336.825	118.88
337.053	95.88
337.281	90.88
337.51	105.88
337.738	87.88
337.966	99.88
338.194	101.88
338.422	104.88
338.65	96.88
338.878	85.88
339.106	99.88
339.334	85.88
339.562	86.88
339.79	80.88
340.018	90.88
340.246	83.88
340.474	81.88
340.702	93.88
340.93	80.88
341.158	96.88
341.386	104.88
341.614	101.88
341.842	104.88
342.07	94.88
342.298	93.88
342.526	83.88
342.754	91.88
342.981	98.88
343.209	102.88
343.437	96.88
343.665	101.88
343.893	92.88
344.12	81.88
344.348	106.88
344.576	90.88
344.804	94.88
345.031	103.88
345.259	97.88
345.487	120.88
345.714	92.88
345.942	80.88
346.17	78.88
346.397	90.88
346.625	92.88
346.853	92.88
347.08	89.88
347.308	105.88
347.535	103.88
347.763	99.88
347.99	98.88
348.218	92.88
348.445	96.88
348.673	108.88
348.9	100.88
349.128	106.88
349.355	105.88
349.583	97.88
349.81	93.88
350.037	85.88
350.265	93.88
350.492	82.88
350.72	88.88
350.947	84.88
351.174	110.88
351.402	116.88
351.629	95.88
351.856	94.88
352.083	95.88
352.311	99.88
352.538	99.88
352.765	102.88
352.992	110.88
353.22	111.88
353.447	112.88
353.674	98.88
353.901	86.88
354.128	89.88
354.355	85.88
354.583	90.88
354.81	96.88
355.037	112.88
355.264	80.88
355.491	80.88
355.718	86.88
355.945	87.88
356.172	82.88
356.399	101.88
356.626	104.88
356.853	101.88
357.08	97.88
357.307	85.88
357.534	86.88
357.761	85.88
357.988	87.88
358.215	96.88
358.441	91.88
358.668	93.88
358.895	85.88
359.122	93.88
359.349	87.88
359.576	91.88
359.802	86.88
360.029	111.88
360.256	116.88
360.483	88.88
360.709	89.88
360.936	91.88
361.163	102.88
361.39	88.88
361.616	90.88
361.843	80.88
362.07	80.88
362.296	109.88
362.523	94.88
362.749	92.88
362.976	96.88
363.203	96.88
363.429	98.88
363.656	100.88
363.882	96.88
364.109	86.88
364.335	94.88
364.562	78.88
364.788	97.88
365.015	102.88
365.241	99.88
365.468	111.88
365.694	122.88
365.92	92.88
366.147	90.88
366.373	85.88
366.599	95.88
366.826	96.88
367.052	76.88
367.278	89.88
367.505	101.88
367.731	92.88
367.957	102.88
368.184	106.88
368.41	91.88
368.636	118.88
368.862	110.88
369.089	94.88
369.315	91.88
369.541	107.88
369.767	100.88
369.993	95.88
370.219	101.88
370.445	90.88
370.672	105.88
370.898	92.88
371.124	78.88
371.35	84.88
371.576	81.88
371.802	84.88
372.028	85.88
372.254	74.88
372.48	88.88
372.706	81.88
372.932	79.88
373.158	97.88
373.384	100.88
373.61	89.88
373.835	95.88
374.061	91.88
374.287	78.88
374.513	102.88
374.739	92.88
374.965	84.88
375.191	86.88
375.416	78.88
375.642	94.88
375.868	90.88
376.094	88.88
376.319	104.88
376.545	93.88
376.771	75.88
376.997	91.88
377.222	97.88
377.448	83.88
377.674	99.88
377.899	90.88
378.125	90.88
378.35	98.88
378.576	89.88
378.802	98.88
379.027	99.88
379.253	86.88
379.478	100.88
379.704	100.88
379.929	88.88
380.155	99.88
380.38	110.88
380.606	106.88
380.831	84.88
381.057	100.88
381.282	101.88
381.507	90.88
381.733	87.88
381.958	84.88
382.184	92.88
382.409	102.88
382.634	93.88
382.86	103.88
383.085	107.88
383.31	106.88
383.535	98.88
383.761	90.88
383.986	93.88
384.211	93.88
384.436	106.88
384.662	106.88
384.887	97.88
385.112	68.88
385.337	93.88
385.562	97.88
385.787	99.88
386.013	114.88
386.238	111.88
386.463	121.88
386.688	108.88
386.913	108.88
387.138	96.88
387.363	108.88
387.588	97.88
387.813	100.88
388.038	107.88
388.263	97.88
388.488	103.88
388.713	91.88
388.938	121.88
389.163	89.88
389.387	91.88
389.612	88.88
389.837	97.88
390.062	100.88
390.287	88.88
390.512	96.88
390.736	108.88
390.961	92.88
391.186	84.88
391.411	97.88
391.636	104.88
391.86	96.88
392.085	92.88
392.31	98.88
392.534	77.88
392.759	89.88
392.984	83.88
393.208	91.88
393.433	100.88
393.658	94.88
393.882	90.88
394.107	81.88
394.331	95.88
394.556	85.88
394.78	88.88
395.005	88.88
395.229	90.88
395.454	101.88
395.678	107.88
395.903	94.88
396.127	90.88
396.352	90.88
396.576	80.88
396.801	85.88
397.025	90.88
397.249	94.88
397.474	101.88
397.698	108.88
397.922	89.88
398.147	86.88
398.371	82.88
398.595	96.88
398.82	88.88
399.044	99.88
399.268	95.88
399.492	82.88
399.717	104.88
399.941	87.88
400.165	91.88
400.389	85.88
400.613	83.88
400.837	99.88
401.062	93.88
401.286	89.88
401.51	87.88
401.734	86.88
401.958	106.88
402.182	117.88
402.406	169.88
402.63	129.88
402.854	103.88
403.078	90.88
403.302	84.88
403.526	91.88
403.75	88.88
403.974	85.88
404.198	95.88
404.422	70.88
404.645	80.88
404.869	86.88
405.093	118.88
405.317	126.88
405.541	99.88
405.765	106.88
405.988	113.88
406.212	168.88
406.436	214.88
406.66	139.88
406.883	97.88
407.107	98.88
407.331	85.88
407.555	113.88
407.778	104.88
408.002	104.88
408.226	95.88
408.449	91.88
408.673	85.88
408.896	90.88
409.12	96.88
409.344	90.88
409.567	97.88
409.791	95.88
410.014	100.88
410.238	76.88
410.461	89.88
410.685	96.88
410.908	98.88
411.132	108.88
411.355	95.88
411.578	94.88
411.802	86.88
412.025	96.88
412.249	81.88
412.472	102.88
412.695	114.88
412.919	101.88
413.142	94.88
413.365	90.88
413.589	93.88
413.812	76.88
414.035	79.88
414.258	89.88
414.482	81.88
414.705	90.88
414.928	94.88
415.151	88.88
415.374	97.88
415.597	98.88
415.821	89.88
416.044	93.88
416.267	80.88
416.49	96.88
416.713	81.88
416.936	88.88
417.159	87.88
417.382	104.88
417.605	81.88
417.828	106.88
418.051	88.88
418.274	88.88
418.497	87.88
418.72	103.88
418.943	87.88
419.166	90.88
419.389	82.88
419.611	100.88
419.834	77.88
420.057	94.88
420.28	90.88
420.503	96.88
420.726	81.88
420.948	117.88
421.171	94.88
421.394	92.88
421.617	95.88
421.839	86.88
422.062	86.88
422.285	98.88
422.507	99.88
422.73	101.88
422.953	102.88
423.175	104.88
423.398	82.88
423.621	82.88
423.843	89.88
424.066	85.88
424.288	98.88
424.511	94.88
424.733	100.88
424.956	107.88
425.178	102.88
425.401	114.88
425.623	107.88
425.846	99.88
426.068	92.88
426.291	87.88
426.513	96.88
426.735	80.88
426.958	100.88
427.18	122.88
427.402	155.88
427.625	176.88
427.847	152.88
428.069	150.88
428.292	107.88
428.514	95.88
428.736	93.88
428.958	86.88
429.181	88.88
429.403	91.88
429.625	99.88
429.847	101.88
430.069	105.88
430.292	84.88
430.514	93.88
430.736	87.88
430.958	79.88
431.18	85.88
431.402	94.88
431.624	88.88
431.846	70.88
432.068	77.88
432.29	94.88
432.512	95.88
432.734	81.88
432.956	97.88
433.178	92.88
433.4	119.88
433.622	84.88
433.844	88.88
434.066	89.88
434.287	93.88
434.509	88.88
434.731	84.88
434.953	99.88
435.175	92.88
435.397	101.88
435.618	90.88
435.84	96.88
436.062	111.88
436.284	121.88
436.505	106.88
436.727	106.88
436.949	100.88
437.17	93.88
437.392	96.88
437.614	87.88
437.835	96.88
438.057	108.88
438.278	119.88
438.5	107.88
438.721	142.88
438.943	110.88
439.165	97.88
439.386	95.88
439.608	102.88
439.829	103.88
440.05	135.88
440.272	151.88
440.493	95.88
440.715	98.88
440.936	82.88
441.158	100.88
441.379	92.88
441.6	91.88
441.822	90.88
442.043	106.88
442.264	102.88
442.486	102.88
442.707	66.88
442.928	99.88
443.149	110.88
443.371	137.88
443.592	110.88
443.813	113.88
444.034	109.88
444.255	105.88
444.476	107.88
444.698	91.88
444.919	109.88
445.14	135.88
445.361	126.88
445.582	119.88
445.803	154.88
446.024	165.88
446.245	142.88
446.466	116.88
446.687	100.88
446.908	82.88
447.129	89.88
447.35	97.88
447.571	86.88
447.792	78.88
448.013	104.88
448.234	104.88
448.455	101.88
448.675	121.88
448.896	125.88
449.117	111.88
449.338	114.88
449.559	129.88
449.779	133.88
450	100.88
450.221	105.88
450.442	79.88
450.662	110.88
450.883	110.88
451.104	116.88
451.324	86.88
451.545	92.88
451.766	102.88
451.986	93.88
452.207	78.88
452.428	87.88
452.648	100.88
452.869	111.88
453.089	109.88
453.31	126.88
453.53	107.88
453.751	108.88
453.971	117.88
454.192	123.88
454.412	105.88
454.633	81.88
454.853	95.88
455.073	87.88
455.294	98.88
455.514	98.88
455.734	101.88
455.955	95.88
456.175	93.88
456.395	89.88
456.616	89.88
456.836	95.88
457.056	82.88
457.276	93.88
457.497	76.88
457.717	92.88
457.937	89.88
458.157	96.88
458.377	88.88
458.598	115.88
458.818	154.88
459.038	167.88
459.258	130.88
459.478	86.88
459.698	83.88
459.918	85.88
460.138	88.88
460.358	74.88
460.578	87.88
460.798	103.88
461.018	89.88
461.238	95.88
461.458	88.88
461.678	76.88
461.898	74.88
462.118	93.88
462.338	97.88
462.558	88.88
462.777	96.88
462.997	88.88
463.217	100.88
463.437	86.88
463.657	88.88
463.876	95.88
464.096	89.88
464.316	103.88
464.536	87.88
464.755	94.88
464.975	111.88
465.195	176.88
465.414	161.88
465.634	100.88
465.854	87.88
466.073	105.88
466.293	94.88
466.512	81.88
466.732	93.88
466.951	87.88
467.171	103.88
467.391	92.88
467.61	98.88
467.829	104.88
468.049	205.88
468.268	242.88
468.488	107.88
468.707	90.88
468.927	89.88
469.146	74.88
469.365	72.88
469.585	85.88
469.804	104.88
470.023	102.88
470.243	100.88
470.462	92.88
470.681	111.88
470.901	89.88
471.12	78.88
471.339	102.88
471.558	97.88
471.777	113.88
471.997	133.88
472.216	341.88
472.435	668.88
472.654	208.88
472.873	111.88
473.092	85.88
473.311	92.88
473.53	81.88
473.749	100.88
473.968	100.88
474.187	101.88
474.406	111.88
474.625	71.88
474.844	93.88
475.063	82.88
475.282	92.88
475.501	85.88
475.72	97.88
475.939	82.88
476.158	84.88
476.377	79.88
476.596	92.88
476.814	90.88
477.033	86.88
477.252	92.88
477.471	107.88
477.69	87.88
477.908	86.88
478.127	99.88
478.346	91.88
478.564	81.88
478.783	113.88
479.002	91.88
479.22	95.88
479.439	111.88
479.658	116.88
479.876	95.88
480.095	101.88
480.313	111.88
480.532	110.88
480.751	142.88
480.969	311.88
481.188	1112.88
481.406	718.88
481.624	162.88
481.843	97.88
482.061	84.88
482.28	76.88
482.498	90.88
482.717	86.88
482.935	99.88
483.153	81.88
483.372	72.88
483.59	77.88
483.808	92.88
484.027	81.88
484.245	99.88
484.463	92.88
484.681	101.88
484.9	106.88
485.118	105.88
485.336	108.88
485.554	97.88
485.772	93.88
485.99	96.88
486.209	103.88
486.427	105.88
486.645	103.88
486.863	124.88
487.081	105.88
487.299	103.88
487.517	103.88
487.735	91.88
487.953	90.88
488.171	95.88
488.389	94.88
488.607	110.88
488.825	106.88
489.043	108.88
489.261	95.88
489.479	95.88
489.696	94.88
489.914	82.88
490.132	87.88
490.35	105.88
490.568	85.88
490.786	83.88
491.003	83.88
491.221	95.88
491.439	89.88
491.657	97.88
491.874	96.88
492.092	86.88
492.31	95.88
492.527	84.88
492.745	90.88
492.963	96.88
493.18	94.88
493.398	84.88
493.615	106.88
493.833	96.88
494.05	85.88
494.268	80.88
494.485	97.88
494.703	81.88
494.92	92.88
495.138	86.88
495.355	104.88
495.573	83.88
495.79	89.88
496.008	90.88
496.225	90.88
496.442	97.88
496.66	94.88
496.877	87.88
497.094	106.88
497.312	98.88
497.529	84.88
497.746	69.88
497.963	102.88
498.181	102.88
498.398	102.88
498.615	112.88
498.832	122.88
499.049	97.88
499.267	85.88
499.484	97.88
499.701	105.88
499.918	101.88
500.135	89.88
500.352	107.88
500.569	90.88
500.786	97.88
501.003	80.88
501.22	95.88
501.437	80.88
501.654	100.88
501.871	113.88
502.088	87.88
502.305	103.88
502.522	85.88
502.739	95.88
502.956	85.88
503.172	85.88
503.389	90.88
503.606	104.88
503.823	97.88
504.04	90.88
504.256	105.88
504.473	91.88
504.69	88.88
504.907	93.88
505.123	86.88
505.34	92.88
505.557	90.88
505.773	90.88
505.99	93.88
506.207	96.88
506.423	93.88
506.64	91.88
506.856	101.88
507.073	94.88
507.289	111.88
507.506	106.88
507.722	107.88
507.939	120.88
508.155	100.88
508.372	73.88
508.588	84.88
508.805	90.88
509.021	99.88
509.238	105.88
509.454	111.88
509.67	109.88
509.887	107.88
510.103	138.88
510.319	212.88
510.536	748.88
510.752	2255.88
510.968	664.88
511.184	152.88
511.401	120.88
511.617	111.88
511.833	81.88
512.049	80.88
512.265	108.88
512.481	101.88
512.698	85.88
512.914	85.88
513.13	109.88
513.346	96.88
513.562	95.88
513.778	85.88
513.994	87.88
514.21	107.88
514.426	116.88
