Data from Circ_2010_H10_HRD10591_00037.txt Node
Date: Wed Jan 03 10:09:48 EST 2024
User: Yrep
Spectrometer: HR+D1059
Trigger mode: 1
Integration Time (sec): 1.000000E-1
Scans to average: 1
Electric dark correction enabled: true
Nonlinearity correction enabled: false
Boxcar width: 0
XAxis mode: Wavelengths
Number of Pixels in Spectrum: 2048
>>>>>Begin Spectral Data<<<<<
223.165	-9.56
223.4	-9.56
223.635	-9.56
223.869	-21.56
224.104	-26.56
224.338	-7.56
224.573	-4.56
224.808	-36.56
225.042	-5.56
225.277	-2.56
225.511	0.44
225.746	5.44
225.98	-1.56
226.215	12.44
226.449	13.44
226.683	22.44
226.918	40.44
227.152	21.44
227.387	20.44
227.621	43.44
227.856	30.44
228.09	53.44
228.324	50.44
228.559	59.44
228.793	51.44
229.027	50.44
229.262	63.44
229.496	61.44
229.73	73.44
229.964	77.44
230.199	54.44
230.433	62.44
230.667	73.44
230.901	78.44
231.136	62.44
231.37	76.44
231.604	77.44
231.838	68.44
232.072	66.44
232.306	75.44
232.541	76.44
232.775	80.44
233.009	69.44
233.243	76.44
233.477	77.44
233.711	92.44
233.945	76.44
234.179	70.44
234.413	81.44
234.647	64.44
234.881	81.44
235.115	74.44
235.349	69.44
235.583	64.44
235.817	70.44
236.051	75.44
236.285	61.44
236.519	88.44
236.753	76.44
236.987	76.44
237.221	75.44
237.455	78.44
237.689	71.44
237.922	67.44
238.156	62.44
238.39	75.44
238.624	66.44
238.858	51.44
239.091	63.44
239.325	82.44
239.559	68.44
239.793	85.44
240.027	73.44
240.26	70.44
240.494	71.44
240.728	81.44
240.961	64.44
241.195	67.44
241.429	76.44
241.662	75.44
241.896	62.44
242.13	78.44
242.363	65.44
242.597	63.44
242.83	60.44
243.064	75.44
243.298	69.44
243.531	75.44
243.765	70.44
243.998	78.44
244.232	75.44
244.465	85.44
244.699	83.44
244.932	71.44
245.166	70.44
245.399	84.44
245.633	74.44
245.866	83.44
246.099	77.44
246.333	72.44
246.566	74.44
246.8	77.44
247.033	66.44
247.266	77.44
247.5	81.44
247.733	96.44
247.966	63.44
248.2	71.44
248.433	72.44
248.666	64.44
248.899	74.44
249.133	79.44
249.366	82.44
249.599	76.44
249.832	77.44
250.066	81.44
250.299	86.44
250.532	74.44
250.765	70.44
250.998	78.44
251.231	74.44
251.465	82.44
251.698	77.44
251.931	77.44
252.164	75.44
252.397	82.44
252.63	73.44
252.863	71.44
253.096	84.44
253.329	79.44
253.562	69.44
253.795	78.44
254.028	83.44
254.261	84.44
254.494	81.44
254.727	70.44
254.96	68.44
255.193	78.44
255.426	73.44
255.659	74.44
255.892	85.44
256.124	74.44
256.357	60.44
256.59	71.44
256.823	87.44
257.056	85.44
257.289	73.44
257.521	73.44
257.754	84.44
257.987	83.44
258.22	77.44
258.452	83.44
258.685	72.44
258.918	73.44
259.151	74.44
259.383	76.44
259.616	95.44
259.849	85.44
260.081	78.44
260.314	81.44
260.547	94.44
260.779	76.44
261.012	82.44
261.244	84.44
261.477	86.44
261.71	88.44
261.942	99.44
262.175	106.44
262.407	82.44
262.64	80.44
262.872	93.44
263.105	79.44
263.337	74.44
263.57	86.44
263.802	72.44
264.035	83.44
264.267	85.44
264.499	86.44
264.732	95.44
264.964	79.44
265.197	92.44
265.429	80.44
265.661	76.44
265.894	73.44
266.126	85.44
266.358	75.44
266.591	71.44
266.823	83.44
267.055	85.44
267.287	79.44
267.52	82.44
267.752	82.44
267.984	76.44
268.216	75.44
268.448	91.44
268.681	79.44
268.913	83.44
269.145	83.44
269.377	66.44
269.609	71.44
269.841	78.44
270.073	74.44
270.306	76.44
270.538	90.44
270.77	83.44
271.002	72.44
271.234	76.44
271.466	74.44
271.698	86.44
271.93	75.44
272.162	83.44
272.394	70.44
272.626	96.44
272.858	82.44
273.09	79.44
273.322	71.44
273.553	79.44
273.785	88.44
274.017	72.44
274.249	79.44
274.481	89.44
274.713	76.44
274.945	82.44
275.176	93.44
275.408	92.44
275.64	73.44
275.872	86.44
276.104	82.44
276.335	72.44
276.567	89.44
276.799	90.44
277.031	96.44
277.262	96.44
277.494	95.44
277.726	83.44
277.957	74.44
278.189	74.44
278.421	79.44
278.652	83.44
278.884	74.44
279.115	65.44
279.347	83.44
279.579	68.44
279.81	67.44
280.042	81.44
280.273	86.44
280.505	82.44
280.736	85.44
280.968	95.44
281.199	78.44
281.431	86.44
281.662	81.44
281.894	97.44
282.125	74.44
282.356	118.44
282.588	134.44
282.819	115.44
283.051	82.44
283.282	78.44
283.513	80.44
283.745	78.44
283.976	89.44
284.207	78.44
284.439	78.44
284.67	84.44
284.901	76.44
285.132	76.44
285.364	89.44
285.595	85.44
285.826	77.44
286.057	81.44
286.288	79.44
286.52	79.44
286.751	88.44
286.982	72.44
287.213	71.44
287.444	63.44
287.675	85.44
287.906	60.44
288.138	79.44
288.369	94.44
288.6	77.44
288.831	82.44
289.062	72.44
289.293	79.44
289.524	81.44
289.755	79.44
289.986	81.44
290.217	88.44
290.448	74.44
290.679	75.44
290.91	92.44
291.141	98.44
291.371	95.44
291.602	89.44
291.833	83.44
292.064	90.44
292.295	88.44
292.526	82.44
292.757	85.44
292.987	91.44
293.218	98.44
293.449	63.44
293.68	86.44
293.91	89.44
294.141	86.44
294.372	79.44
294.603	85.44
294.833	91.44
295.064	85.44
295.295	83.44
295.525	86.44
295.756	99.44
295.987	96.44
296.217	113.44
296.448	101.44
296.679	81.44
296.909	84.44
297.14	67.44
297.37	90.44
297.601	84.44
297.831	84.44
298.062	92.44
298.292	94.44
298.523	86.44
298.753	81.44
298.984	69.44
299.214	76.44
299.445	83.44
299.675	82.44
299.905	85.44
300.136	75.44
300.366	80.44
300.597	77.44
300.827	83.44
301.057	91.44
301.288	78.44
301.518	85.44
301.748	76.44
301.979	82.44
302.209	86.44
302.439	84.44
302.669	83.44
302.9	76.44
303.13	72.44
303.36	87.44
303.59	99.44
303.82	93.44
304.051	86.44
304.281	78.44
304.511	86.44
304.741	87.44
304.971	70.44
305.201	71.44
305.431	93.44
305.661	80.44
305.891	80.44
306.121	79.44
306.352	90.44
306.582	80.44
306.812	82.44
307.042	73.44
307.272	82.44
307.502	84.44
307.731	85.44
307.961	94.44
308.191	92.44
308.421	95.44
308.651	94.44
308.881	79.44
309.111	80.44
309.341	88.44
309.571	83.44
309.8	94.44
310.03	106.44
310.26	93.44
310.49	79.44
310.72	79.44
310.949	92.44
311.179	91.44
311.409	91.44
311.639	94.44
311.868	94.44
312.098	87.44
312.328	106.44
312.557	91.44
312.787	96.44
313.017	95.44
313.246	88.44
313.476	90.44
313.706	90.44
313.935	89.44
314.165	90.44
314.394	88.44
314.624	83.44
314.853	98.44
315.083	85.44
315.312	82.44
315.542	74.44
315.771	74.44
316.001	88.44
316.23	90.44
316.46	88.44
316.689	78.44
316.919	88.44
317.148	99.44
317.377	102.44
317.607	82.44
317.836	88.44
318.065	80.44
318.295	88.44
318.524	98.44
318.753	86.44
318.983	82.44
319.212	87.44
319.441	99.44
319.67	96.44
319.9	98.44
320.129	78.44
320.358	90.44
320.587	92.44
320.816	94.44
321.046	100.44
321.275	84.44
321.504	90.44
321.733	93.44
321.962	106.44
322.191	87.44
322.42	90.44
322.649	110.44
322.878	96.44
323.108	127.44
323.337	103.44
323.566	123.44
323.795	123.44
324.024	179.44
324.253	325.44
324.482	640.44
324.71	1348.44
324.939	1750.44
325.168	622.44
325.397	191.44
325.626	136.44
325.855	118.44
326.084	136.44
326.313	110.44
326.542	131.44
326.77	204.44
326.999	390.44
327.228	776.44
327.457	1358.44
327.686	1084.44
327.914	311.44
328.143	208.44
328.372	158.44
328.6	128.44
328.829	111.44
329.058	113.44
329.287	114.44
329.515	107.44
329.744	112.44
329.972	124.44
330.201	162.44
330.43	206.44
330.658	148.44
330.887	130.44
331.115	128.44
331.344	93.44
331.572	94.44
331.801	99.44
332.03	96.44
332.258	83.44
332.486	72.44
332.715	90.44
332.943	94.44
333.172	97.44
333.4	100.44
333.629	98.44
333.857	118.44
334.085	122.44
334.314	175.44
334.542	227.44
334.771	247.44
334.999	136.44
335.227	100.44
335.455	99.44
335.684	89.44
335.912	91.44
336.14	100.44
336.369	97.44
336.597	101.44
336.825	103.44
337.053	84.44
337.281	97.44
337.51	76.44
337.738	94.44
337.966	91.44
338.194	88.44
338.422	95.44
338.65	89.44
338.878	83.44
339.106	84.44
339.334	83.44
339.562	88.44
339.79	87.44
340.018	87.44
340.246	92.44
340.474	71.44
340.702	83.44
340.93	101.44
341.158	98.44
341.386	75.44
341.614	81.44
341.842	90.44
342.07	84.44
342.298	82.44
342.526	85.44
342.754	90.44
342.981	87.44
343.209	99.44
343.437	102.44
343.665	111.44
343.893	84.44
344.12	70.44
344.348	74.44
344.576	82.44
344.804	90.44
345.031	94.44
345.259	90.44
345.487	88.44
345.714	94.44
345.942	92.44
346.17	73.44
346.397	75.44
346.625	80.44
346.853	81.44
347.08	83.44
347.308	105.44
347.535	92.44
347.763	90.44
347.99	81.44
348.218	82.44
348.445	96.44
348.673	88.44
348.9	97.44
349.128	87.44
349.355	83.44
349.583	80.44
349.81	88.44
350.037	80.44
350.265	72.44
350.492	75.44
350.72	84.44
350.947	94.44
351.174	94.44
351.402	99.44
351.629	86.44
351.856	83.44
352.083	85.44
352.311	91.44
352.538	87.44
352.765	106.44
352.992	94.44
353.22	108.44
353.447	97.44
353.674	95.44
353.901	83.44
354.128	83.44
354.355	101.44
354.583	75.44
354.81	89.44
355.037	74.44
355.264	101.44
355.491	73.44
355.718	96.44
355.945	86.44
356.172	88.44
356.399	94.44
356.626	83.44
356.853	89.44
357.08	84.44
357.307	95.44
357.534	96.44
357.761	98.44
357.988	84.44
358.215	94.44
358.441	95.44
358.668	102.44
358.895	75.44
359.122	78.44
359.349	87.44
359.576	73.44
359.802	90.44
360.029	94.44
360.256	97.44
360.483	85.44
360.709	83.44
360.936	99.44
361.163	85.44
361.39	85.44
361.616	91.44
361.843	84.44
362.07	96.44
362.296	90.44
362.523	81.44
362.749	97.44
362.976	93.44
363.203	91.44
363.429	73.44
363.656	75.44
363.882	71.44
364.109	70.44
364.335	82.44
364.562	87.44
364.788	88.44
365.015	91.44
365.241	91.44
365.468	99.44
365.694	107.44
365.92	87.44
366.147	96.44
366.373	75.44
366.599	96.44
366.826	99.44
367.052	81.44
367.278	81.44
367.505	84.44
367.731	88.44
367.957	98.44
368.184	90.44
368.41	85.44
368.636	100.44
368.862	109.44
369.089	83.44
369.315	79.44
369.541	84.44
369.767	73.44
369.993	92.44
370.219	91.44
370.445	91.44
370.672	78.44
370.898	77.44
371.124	90.44
371.35	92.44
371.576	89.44
371.802	83.44
372.028	80.44
372.254	98.44
372.48	80.44
372.706	89.44
372.932	87.44
373.158	80.44
373.384	77.44
373.61	79.44
373.835	81.44
374.061	91.44
374.287	87.44
374.513	97.44
374.739	95.44
374.965	92.44
375.191	88.44
375.416	77.44
375.642	96.44
375.868	90.44
376.094	82.44
376.319	72.44
376.545	82.44
376.771	95.44
376.997	82.44
377.222	82.44
377.448	73.44
377.674	81.44
377.899	84.44
378.125	77.44
378.35	94.44
378.576	82.44
378.802	90.44
379.027	75.44
379.253	81.44
379.478	83.44
379.704	102.44
379.929	104.44
380.155	97.44
380.38	85.44
380.606	88.44
380.831	97.44
381.057	90.44
381.282	92.44
381.507	82.44
381.733	88.44
381.958	99.44
382.184	99.44
382.409	84.44
382.634	83.44
382.86	86.44
383.085	79.44
383.31	76.44
383.535	95.44
383.761	105.44
383.986	91.44
384.211	90.44
384.436	75.44
384.662	77.44
384.887	91.44
385.112	93.44
385.337	89.44
385.562	84.44
385.787	94.44
386.013	120.44
386.238	121.44
386.463	112.44
386.688	111.44
386.913	99.44
387.138	107.44
387.363	92.44
387.588	103.44
387.813	114.44
388.038	107.44
388.263	103.44
388.488	112.44
388.713	88.44
388.938	100.44
389.163	87.44
389.387	86.44
389.612	92.44
389.837	95.44
390.062	79.44
390.287	96.44
390.512	80.44
390.736	90.44
390.961	79.44
391.186	86.44
391.411	79.44
391.636	92.44
391.86	93.44
392.085	75.44
392.31	85.44
392.534	76.44
392.759	71.44
392.984	98.44
393.208	92.44
393.433	97.44
393.658	105.44
393.882	81.44
394.107	89.44
394.331	88.44
394.556	87.44
394.78	88.44
395.005	83.44
395.229	72.44
395.454	86.44
395.678	84.44
395.903	86.44
396.127	82.44
396.352	87.44
396.576	89.44
396.801	86.44
397.025	94.44
397.249	89.44
397.474	73.44
397.698	82.44
397.922	91.44
398.147	66.44
398.371	81.44
398.595	75.44
398.82	84.44
399.044	82.44
399.268	89.44
399.492	83.44
399.717	86.44
399.941	79.44
400.165	95.44
400.389	76.44
400.613	68.44
400.837	85.44
401.062	82.44
401.286	86.44
401.51	80.44
401.734	90.44
401.958	102.44
402.182	107.44
402.406	121.44
402.63	96.44
402.854	81.44
403.078	73.44
403.302	78.44
403.526	84.44
403.75	76.44
403.974	75.44
404.198	76.44
404.422	71.44
404.645	79.44
404.869	83.44
405.093	86.44
405.317	103.44
405.541	84.44
405.765	90.44
405.988	108.44
406.212	143.44
406.436	176.44
406.66	119.44
406.883	91.44
407.107	92.44
407.331	95.44
407.555	99.44
407.778	91.44
408.002	82.44
408.226	89.44
408.449	80.44
408.673	80.44
408.896	98.44
409.12	84.44
409.344	87.44
409.567	89.44
409.791	86.44
410.014	84.44
410.238	98.44
410.461	99.44
410.685	85.44
410.908	88.44
411.132	109.44
411.355	97.44
411.578	88.44
411.802	77.44
412.025	78.44
412.249	79.44
412.472	81.44
412.695	93.44
412.919	100.44
413.142	64.44
413.365	68.44
413.589	92.44
413.812	86.44
414.035	84.44
414.258	80.44
414.482	89.44
414.705	89.44
414.928	82.44
415.151	96.44
415.374	92.44
415.597	74.44
415.821	85.44
416.044	95.44
416.267	72.44
416.49	70.44
416.713	68.44
416.936	97.44
417.159	95.44
417.382	71.44
417.605	93.44
417.828	84.44
418.051	97.44
418.274	77.44
418.497	94.44
418.72	86.44
418.943	95.44
419.166	85.44
419.389	87.44
419.611	84.44
419.834	81.44
420.057	89.44
420.28	71.44
420.503	79.44
420.726	90.44
420.948	82.44
421.171	91.44
421.394	90.44
421.617	89.44
421.839	62.44
422.062	91.44
422.285	102.44
422.507	104.44
422.73	90.44
422.953	101.44
423.175	80.44
423.398	86.44
423.621	100.44
423.843	86.44
424.066	83.44
424.288	86.44
424.511	88.44
424.733	98.44
424.956	107.44
425.178	105.44
425.401	94.44
425.623	92.44
425.846	74.44
426.068	88.44
426.291	95.44
426.513	99.44
426.735	85.44
426.958	79.44
427.18	102.44
427.402	128.44
427.625	159.44
427.847	122.44
428.069	116.44
428.292	92.44
428.514	80.44
428.736	84.44
428.958	80.44
429.181	88.44
429.403	94.44
429.625	78.44
429.847	85.44
430.069	99.44
430.292	104.44
430.514	85.44
430.736	78.44
430.958	85.44
431.18	82.44
431.402	81.44
431.624	75.44
431.846	88.44
432.068	79.44
432.29	79.44
432.512	81.44
432.734	89.44
432.956	85.44
433.178	89.44
433.4	96.44
433.622	67.44
433.844	89.44
434.066	75.44
434.287	93.44
434.509	82.44
434.731	85.44
434.953	83.44
435.175	83.44
435.397	91.44
435.618	86.44
435.84	89.44
436.062	114.44
436.284	105.44
436.505	90.44
436.727	90.44
436.949	83.44
437.17	87.44
437.392	85.44
437.614	78.44
437.835	91.44
438.057	114.44
438.278	96.44
438.5	82.44
438.721	112.44
438.943	82.44
439.165	91.44
439.386	88.44
439.608	78.44
439.829	89.44
440.05	105.44
440.272	109.44
440.493	86.44
440.715	82.44
440.936	79.44
441.158	87.44
441.379	99.44
441.6	85.44
441.822	107.44
442.043	102.44
442.264	91.44
442.486	93.44
442.707	82.44
442.928	104.44
443.149	124.44
443.371	125.44
443.592	102.44
443.813	94.44
444.034	105.44
444.255	97.44
444.476	71.44
444.698	91.44
444.919	76.44
445.14	120.44
445.361	96.44
445.582	106.44
445.803	108.44
446.024	124.44
446.245	110.44
446.466	104.44
446.687	88.44
446.908	88.44
447.129	93.44
447.35	75.44
447.571	81.44
447.792	89.44
448.013	95.44
448.234	92.44
448.455	97.44
448.675	93.44
448.896	106.44
449.117	90.44
449.338	87.44
449.559	124.44
449.779	119.44
450	95.44
450.221	88.44
450.442	88.44
450.662	95.44
450.883	94.44
451.104	103.44
451.324	83.44
451.545	80.44
451.766	80.44
451.986	69.44
452.207	72.44
452.428	96.44
452.648	105.44
452.869	103.44
453.089	119.44
453.31	91.44
453.53	97.44
453.751	97.44
453.971	93.44
454.192	97.44
454.412	91.44
454.633	83.44
454.853	86.44
455.073	95.44
455.294	83.44
455.514	90.44
455.734	99.44
455.955	99.44
456.175	87.44
456.395	82.44
456.616	81.44
456.836	86.44
457.056	84.44
457.276	80.44
457.497	80.44
457.717	78.44
457.937	89.44
458.157	90.44
458.377	78.44
458.598	100.44
458.818	139.44
459.038	150.44
459.258	110.44
459.478	82.44
459.698	81.44
459.918	77.44
460.138	66.44
460.358	77.44
460.578	78.44
460.798	90.44
461.018	79.44
461.238	74.44
461.458	73.44
461.678	72.44
461.898	82.44
462.118	90.44
462.338	81.44
462.558	74.44
462.777	87.44
462.997	88.44
463.217	101.44
463.437	85.44
463.657	68.44
463.876	91.44
464.096	81.44
464.316	89.44
464.536	95.44
464.755	95.44
464.975	102.44
465.195	133.44
465.414	126.44
465.634	89.44
465.854	88.44
466.073	85.44
466.293	90.44
466.512	80.44
466.732	83.44
466.951	79.44
467.171	76.44
467.391	86.44
467.61	93.44
467.829	99.44
468.049	136.44
468.268	142.44
468.488	92.44
468.707	88.44
468.927	74.44
469.146	73.44
469.365	86.44
469.585	81.44
469.804	76.44
470.023	89.44
470.243	91.44
470.462	74.44
470.681	93.44
470.901	85.44
471.12	77.44
471.339	96.44
471.558	89.44
471.777	86.44
471.997	112.44
472.216	179.44
472.435	302.44
472.654	128.44
472.873	85.44
473.092	74.44
473.311	78.44
473.53	91.44
473.749	86.44
473.968	85.44
474.187	89.44
474.406	77.44
474.625	89.44
474.844	81.44
475.063	77.44
475.282	85.44
475.501	95.44
475.72	78.44
475.939	75.44
476.158	90.44
476.377	92.44
476.596	95.44
476.814	79.44
477.033	79.44
477.252	89.44
477.471	90.44
477.69	89.44
477.908	88.44
478.127	91.44
478.346	85.44
478.564	84.44
478.783	91.44
479.002	81.44
479.22	83.44
479.439	103.44
479.658	93.44
479.876	82.44
480.095	80.44
480.313	83.44
480.532	95.44
480.751	98.44
480.969	185.44
481.188	481.44
481.406	306.44
481.624	117.44
481.843	91.44
482.061	85.44
482.28	97.44
482.498	66.44
482.717	87.44
482.935	87.44
483.153	94.44
483.372	90.44
483.59	89.44
483.808	85.44
484.027	82.44
484.245	75.44
484.463	61.44
484.681	91.44
484.9	93.44
485.118	97.44
485.336	78.44
485.554	98.44
485.772	90.44
485.99	105.44
486.209	96.44
486.427	108.44
486.645	96.44
486.863	96.44
487.081	100.44
487.299	88.44
487.517	95.44
487.735	77.44
487.953	81.44
488.171	84.44
488.389	90.44
488.607	97.44
488.825	84.44
489.043	92.44
489.261	80.44
489.479	96.44
489.696	83.44
489.914	80.44
490.132	83.44
490.35	96.44
490.568	71.44
490.786	76.44
491.003	92.44
491.221	86.44
491.439	106.44
491.657	84.44
491.874	94.44
492.092	84.44
492.31	99.44
492.527	80.44
492.745	92.44
492.963	81.44
493.18	80.44
493.398	91.44
493.615	82.44
493.833	90.44
494.05	82.44
494.268	91.44
494.485	88.44
494.703	100.44
494.92	92.44
495.138	88.44
495.355	101.44
495.573	84.44
495.79	81.44
496.008	90.44
496.225	100.44
496.442	81.44
496.66	95.44
496.877	90.44
497.094	98.44
497.312	68.44
497.529	94.44
497.746	93.44
497.963	75.44
498.181	77.44
498.398	93.44
498.615	107.44
498.832	105.44
499.049	79.44
499.267	85.44
499.484	69.44
499.701	70.44
499.918	74.44
500.135	70.44
500.352	81.44
500.569	86.44
500.786	76.44
501.003	77.44
501.22	102.44
501.437	100.44
501.654	89.44
501.871	101.44
502.088	90.44
502.305	77.44
502.522	84.44
502.739	83.44
502.956	75.44
503.172	90.44
503.389	88.44
503.606	98.44
503.823	87.44
504.04	93.44
504.256	100.44
504.473	91.44
504.69	89.44
504.907	90.44
505.123	97.44
505.34	97.44
505.557	76.44
505.773	76.44
505.99	82.44
506.207	81.44
506.423	89.44
506.64	81.44
506.856	82.44
507.073	74.44
507.289	88.44
507.506	98.44
507.722	110.44
507.939	113.44
508.155	91.44
508.372	89.44
508.588	84.44
508.805	91.44
509.021	81.44
509.238	106.44
509.454	96.44
509.67	117.44
509.887	99.44
510.103	122.44
510.319	185.44
510.536	629.44
510.752	2035.44
510.968	596.44
511.184	123.44
511.401	101.44
511.617	91.44
511.833	82.44
512.049	73.44
512.265	103.44
512.481	71.44
512.698	86.44
512.914	96.44
513.13	78.44
513.346	89.44
513.562	81.44
513.778	84.44
513.994	101.44
514.21	95.44
514.426	108.44
514.642	125.44
514.858	118.44
515.074	153.44
515.29	380.44
515.506	1230.44
515.721	494.44
515.937	137.44
516.153	95.44
516.369	118.44
516.585	89.44
516.801	84.44
517.016	86.44
517.232	100.44
517.448	81.44
