Data from Circ_2010_H10_HRD10591_00040.txt Node
Date: Wed Jan 03 10:09:49 EST 2024
User: Yrep
Spectrometer: HR+D1059
Trigger mode: 1
Integration Time (sec): 1.000000E-1
Scans to average: 1
Electric dark correction enabled: true
Nonlinearity correction enabled: false
Boxcar width: 0
XAxis mode: Wavelengths
Number of Pixels in Spectrum: 2048
>>>>>Begin Spectral Data<<<<<
223.165	-11.94
223.4	-11.94
223.635	-11.94
223.869	-27.94
224.104	-18.94
224.338	-5.94
224.573	-20.94
224.808	-0.94
225.042	-5.94
225.277	-14.94
225.511	2.06
225.746	-0.94
225.98	12.06
226.215	8.06
226.449	13.06
226.683	12.06
226.918	32.06
227.152	29.06
227.387	22.06
227.621	46.06
227.856	41.06
228.09	45.06
228.324	54.06
228.559	55.06
228.793	51.06
229.027	65.06
229.262	68.06
229.496	72.06
229.73	77.06
229.964	69.06
230.199	80.06
230.433	60.06
230.667	89.06
230.901	83.06
231.136	77.06
231.37	71.06
231.604	67.06
231.838	64.06
232.072	91.06
232.306	86.06
232.541	81.06
232.775	79.06
233.009	84.06
233.243	79.06
233.477	69.06
233.711	78.06
233.945	75.06
234.179	91.06
234.413	89.06
234.647	70.06
234.881	67.06
235.115	78.06
235.349	79.06
235.583	78.06
235.817	87.06
236.051	82.06
236.285	73.06
236.519	85.06
236.753	73.06
236.987	68.06
237.221	88.06
237.455	73.06
237.689	74.06
237.922	76.06
238.156	67.06
238.39	59.06
238.624	77.06
238.858	61.06
239.091	70.06
239.325	73.06
239.559	69.06
239.793	62.06
240.027	70.06
240.26	73.06
240.494	68.06
240.728	80.06
240.961	68.06
241.195	67.06
241.429	95.06
241.662	76.06
241.896	79.06
242.13	74.06
242.363	76.06
242.597	77.06
242.83	76.06
243.064	72.06
243.298	62.06
243.531	75.06
243.765	71.06
243.998	90.06
244.232	82.06
244.465	87.06
244.699	89.06
244.932	77.06
245.166	76.06
245.399	88.06
245.633	78.06
245.866	67.06
246.099	69.06
246.333	78.06
246.566	73.06
246.8	71.06
247.033	90.06
247.266	75.06
247.5	86.06
247.733	76.06
247.966	82.06
248.2	83.06
248.433	91.06
248.666	75.06
248.899	76.06
249.133	87.06
249.366	82.06
249.599	91.06
249.832	72.06
250.066	77.06
250.299	82.06
250.532	78.06
250.765	74.06
250.998	71.06
251.231	87.06
251.465	73.06
251.698	71.06
251.931	81.06
252.164	82.06
252.397	76.06
252.63	75.06
252.863	77.06
253.096	70.06
253.329	75.06
253.562	66.06
253.795	72.06
254.028	81.06
254.261	90.06
254.494	66.06
254.727	87.06
254.96	82.06
255.193	87.06
255.426	87.06
255.659	70.06
255.892	79.06
256.124	67.06
256.357	86.06
256.59	77.06
256.823	79.06
257.056	86.06
257.289	73.06
257.521	83.06
257.754	88.06
257.987	82.06
258.22	73.06
258.452	75.06
258.685	83.06
258.918	83.06
259.151	84.06
259.383	76.06
259.616	81.06
259.849	68.06
260.081	65.06
260.314	77.06
260.547	82.06
260.779	82.06
261.012	87.06
261.244	77.06
261.477	89.06
261.71	81.06
261.942	118.06
262.175	106.06
262.407	70.06
262.64	79.06
262.872	94.06
263.105	81.06
263.337	87.06
263.57	81.06
263.802	80.06
264.035	94.06
264.267	91.06
264.499	101.06
264.732	85.06
264.964	83.06
265.197	81.06
265.429	72.06
265.661	68.06
265.894	83.06
266.126	99.06
266.358	79.06
266.591	86.06
266.823	77.06
267.055	61.06
267.287	81.06
267.52	79.06
267.752	77.06
267.984	77.06
268.216	90.06
268.448	77.06
268.681	82.06
268.913	84.06
269.145	87.06
269.377	73.06
269.609	65.06
269.841	75.06
270.073	80.06
270.306	98.06
270.538	81.06
270.77	81.06
271.002	83.06
271.234	67.06
271.466	85.06
271.698	87.06
271.93	89.06
272.162	76.06
272.394	86.06
272.626	67.06
272.858	87.06
273.09	78.06
273.322	80.06
273.553	97.06
273.785	79.06
274.017	79.06
274.249	93.06
274.481	83.06
274.713	90.06
274.945	92.06
275.176	88.06
275.408	61.06
275.64	77.06
275.872	98.06
276.104	88.06
276.335	82.06
276.567	103.06
276.799	93.06
277.031	94.06
277.262	98.06
277.494	79.06
277.726	85.06
277.957	84.06
278.189	70.06
278.421	87.06
278.652	91.06
278.884	68.06
279.115	87.06
279.347	87.06
279.579	77.06
279.81	65.06
280.042	80.06
280.273	109.06
280.505	98.06
280.736	92.06
280.968	80.06
281.199	87.06
281.431	72.06
281.662	82.06
281.894	101.06
282.125	88.06
282.356	111.06
282.588	129.06
282.819	110.06
283.051	78.06
283.282	82.06
283.513	99.06
283.745	70.06
283.976	83.06
284.207	80.06
284.439	87.06
284.67	88.06
284.901	88.06
285.132	82.06
285.364	60.06
285.595	84.06
285.826	83.06
286.057	92.06
286.288	89.06
286.52	88.06
286.751	82.06
286.982	92.06
287.213	79.06
287.444	76.06
287.675	92.06
287.906	95.06
288.138	89.06
288.369	83.06
288.6	91.06
288.831	78.06
289.062	84.06
289.293	75.06
289.524	71.06
289.755	83.06
289.986	82.06
290.217	91.06
290.448	72.06
290.679	86.06
290.91	69.06
291.141	95.06
291.371	96.06
291.602	78.06
291.833	94.06
292.064	97.06
292.295	89.06
292.526	83.06
292.757	85.06
292.987	93.06
293.218	77.06
293.449	70.06
293.68	77.06
293.91	89.06
294.141	93.06
294.372	91.06
294.603	79.06
294.833	87.06
295.064	94.06
295.295	76.06
295.525	92.06
295.756	97.06
295.987	92.06
296.217	129.06
296.448	116.06
296.679	82.06
296.909	87.06
297.14	77.06
297.37	86.06
297.601	81.06
297.831	79.06
298.062	92.06
298.292	92.06
298.523	93.06
298.753	96.06
298.984	87.06
299.214	92.06
299.445	86.06
299.675	91.06
299.905	101.06
300.136	85.06
300.366	79.06
300.597	85.06
300.827	84.06
301.057	85.06
301.288	96.06
301.518	95.06
301.748	83.06
301.979	93.06
302.209	94.06
302.439	77.06
302.669	95.06
302.9	92.06
303.13	84.06
303.36	92.06
303.59	95.06
303.82	105.06
304.051	96.06
304.281	98.06
304.511	90.06
304.741	104.06
304.971	92.06
305.201	87.06
305.431	97.06
305.661	79.06
305.891	79.06
306.121	86.06
306.352	104.06
306.582	97.06
306.812	93.06
307.042	94.06
307.272	94.06
307.502	89.06
307.731	93.06
307.961	85.06
308.191	78.06
308.421	92.06
308.651	79.06
308.881	90.06
309.111	89.06
309.341	87.06
309.571	102.06
309.8	96.06
310.03	85.06
310.26	96.06
310.49	87.06
310.72	86.06
310.949	89.06
311.179	102.06
311.409	85.06
311.639	98.06
311.868	85.06
312.098	81.06
312.328	89.06
312.557	93.06
312.787	98.06
313.017	117.06
313.246	91.06
313.476	75.06
313.706	98.06
313.935	96.06
314.165	94.06
314.394	104.06
314.624	106.06
314.853	87.06
315.083	79.06
315.312	78.06
315.542	91.06
315.771	86.06
316.001	86.06
316.23	80.06
316.46	93.06
316.689	102.06
316.919	94.06
317.148	96.06
317.377	94.06
317.607	82.06
317.836	102.06
318.065	94.06
318.295	81.06
318.524	90.06
318.753	90.06
318.983	90.06
319.212	87.06
319.441	94.06
319.67	95.06
319.9	76.06
320.129	85.06
320.358	98.06
320.587	89.06
320.816	77.06
321.046	87.06
321.275	92.06
321.504	91.06
321.733	102.06
321.962	105.06
322.191	103.06
322.42	89.06
322.649	83.06
322.878	106.06
323.108	99.06
323.337	109.06
323.566	116.06
323.795	110.06
324.024	174.06
324.253	319.06
324.482	649.06
324.71	1247.06
324.939	1651.06
325.168	616.06
325.397	203.06
325.626	120.06
325.855	119.06
326.084	125.06
326.313	114.06
326.542	130.06
326.77	187.06
326.999	379.06
327.228	744.06
327.457	1309.06
327.686	1062.06
327.914	314.06
328.143	196.06
328.372	167.06
328.6	124.06
328.829	96.06
329.058	101.06
329.287	107.06
329.515	102.06
329.744	90.06
329.972	131.06
330.201	183.06
330.43	188.06
330.658	139.06
330.887	129.06
331.115	109.06
331.344	105.06
331.572	95.06
331.801	95.06
332.03	85.06
332.258	85.06
332.486	92.06
332.715	95.06
332.943	99.06
333.172	100.06
333.4	93.06
333.629	103.06
333.857	107.06
334.085	125.06
334.314	159.06
334.542	232.06
334.771	207.06
334.999	120.06
335.227	81.06
335.455	89.06
335.684	86.06
335.912	94.06
336.14	85.06
336.369	90.06
336.597	103.06
336.825	86.06
337.053	100.06
337.281	98.06
337.51	102.06
337.738	96.06
337.966	86.06
338.194	84.06
338.422	86.06
338.65	98.06
338.878	89.06
339.106	85.06
339.334	97.06
339.562	98.06
339.79	97.06
340.018	85.06
340.246	98.06
340.474	89.06
340.702	91.06
340.93	89.06
341.158	90.06
341.386	95.06
341.614	94.06
341.842	102.06
342.07	91.06
342.298	88.06
342.526	77.06
342.754	93.06
342.981	103.06
343.209	87.06
343.437	101.06
343.665	83.06
343.893	89.06
344.12	90.06
344.348	92.06
344.576	98.06
344.804	82.06
345.031	86.06
345.259	92.06
345.487	96.06
345.714	90.06
345.942	85.06
346.17	94.06
346.397	89.06
346.625	90.06
346.853	79.06
347.08	88.06
347.308	95.06
347.535	93.06
347.763	101.06
347.99	90.06
348.218	92.06
348.445	91.06
348.673	84.06
348.9	86.06
349.128	93.06
349.355	95.06
349.583	100.06
349.81	89.06
350.037	91.06
350.265	94.06
350.492	92.06
350.72	86.06
350.947	102.06
351.174	102.06
351.402	103.06
351.629	89.06
351.856	109.06
352.083	91.06
352.311	95.06
352.538	94.06
352.765	104.06
352.992	105.06
353.22	93.06
353.447	100.06
353.674	109.06
353.901	97.06
354.128	97.06
354.355	102.06
354.583	97.06
354.81	103.06
355.037	101.06
355.264	95.06
355.491	92.06
355.718	79.06
355.945	80.06
356.172	88.06
356.399	67.06
356.626	98.06
356.853	96.06
357.08	99.06
357.307	73.06
357.534	79.06
357.761	86.06
357.988	83.06
358.215	97.06
358.441	93.06
358.668	75.06
358.895	93.06
359.122	90.06
359.349	81.06
359.576	81.06
359.802	81.06
360.029	101.06
360.256	85.06
360.483	80.06
360.709	90.06
360.936	93.06
361.163	104.06
361.39	97.06
361.616	98.06
361.843	90.06
362.07	98.06
362.296	74.06
362.523	91.06
362.749	81.06
362.976	100.06
363.203	96.06
363.429	97.06
363.656	90.06
363.882	77.06
364.109	83.06
364.335	84.06
364.562	95.06
364.788	82.06
365.015	82.06
365.241	79.06
365.468	101.06
365.694	95.06
365.92	92.06
366.147	98.06
366.373	73.06
366.599	73.06
366.826	72.06
367.052	92.06
367.278	83.06
367.505	97.06
367.731	84.06
367.957	90.06
368.184	84.06
368.41	87.06
368.636	118.06
368.862	114.06
369.089	98.06
369.315	93.06
369.541	80.06
369.767	76.06
369.993	87.06
370.219	92.06
370.445	80.06
370.672	98.06
370.898	88.06
371.124	82.06
371.35	94.06
371.576	82.06
371.802	89.06
372.028	80.06
372.254	91.06
372.48	87.06
372.706	84.06
372.932	79.06
373.158	94.06
373.384	95.06
373.61	88.06
373.835	69.06
374.061	96.06
374.287	87.06
374.513	77.06
374.739	86.06
374.965	86.06
375.191	78.06
375.416	79.06
375.642	90.06
375.868	96.06
376.094	87.06
376.319	98.06
376.545	78.06
376.771	86.06
376.997	92.06
377.222	79.06
377.448	85.06
377.674	86.06
377.899	86.06
378.125	99.06
378.35	88.06
378.576	85.06
378.802	90.06
379.027	92.06
379.253	84.06
379.478	88.06
379.704	107.06
379.929	82.06
380.155	85.06
380.38	98.06
380.606	97.06
380.831	89.06
381.057	92.06
381.282	85.06
381.507	102.06
381.733	87.06
381.958	89.06
382.184	99.06
382.409	97.06
382.634	90.06
382.86	96.06
383.085	99.06
383.31	92.06
383.535	90.06
383.761	82.06
383.986	83.06
384.211	85.06
384.436	99.06
384.662	95.06
384.887	97.06
385.112	89.06
385.337	106.06
385.562	94.06
385.787	97.06
386.013	99.06
386.238	102.06
386.463	93.06
386.688	98.06
386.913	97.06
387.138	97.06
387.363	102.06
387.588	104.06
387.813	111.06
388.038	98.06
388.263	103.06
388.488	102.06
388.713	106.06
388.938	89.06
389.163	104.06
389.387	91.06
389.612	92.06
389.837	78.06
390.062	96.06
390.287	98.06
390.512	91.06
390.736	83.06
390.961	88.06
391.186	82.06
391.411	92.06
391.636	92.06
391.86	88.06
392.085	96.06
392.31	86.06
392.534	87.06
392.759	68.06
392.984	81.06
393.208	112.06
393.433	104.06
393.658	84.06
393.882	89.06
394.107	92.06
394.331	93.06
394.556	67.06
394.78	79.06
395.005	84.06
395.229	78.06
395.454	86.06
395.678	75.06
395.903	85.06
396.127	81.06
396.352	91.06
396.576	83.06
396.801	98.06
397.025	86.06
397.249	81.06
397.474	109.06
397.698	95.06
397.922	102.06
398.147	93.06
398.371	86.06
398.595	76.06
398.82	67.06
399.044	83.06
399.268	73.06
399.492	93.06
399.717	84.06
399.941	74.06
400.165	74.06
400.389	81.06
400.613	89.06
400.837	82.06
401.062	82.06
401.286	85.06
401.51	92.06
401.734	81.06
401.958	104.06
402.182	104.06
402.406	133.06
402.63	100.06
402.854	98.06
403.078	94.06
403.302	75.06
403.526	86.06
403.75	78.06
403.974	75.06
404.198	76.06
404.422	83.06
404.645	86.06
404.869	89.06
405.093	88.06
405.317	87.06
405.541	105.06
405.765	90.06
405.988	97.06
406.212	149.06
406.436	193.06
406.66	127.06
406.883	85.06
407.107	82.06
407.331	92.06
407.555	91.06
407.778	84.06
408.002	81.06
408.226	94.06
408.449	94.06
408.673	80.06
408.896	83.06
409.12	102.06
409.344	79.06
409.567	89.06
409.791	96.06
410.014	91.06
410.238	89.06
410.461	83.06
410.685	87.06
410.908	76.06
411.132	101.06
411.355	97.06
411.578	90.06
411.802	86.06
412.025	93.06
412.249	89.06
412.472	84.06
412.695	99.06
412.919	77.06
413.142	90.06
413.365	104.06
413.589	91.06
413.812	97.06
414.035	85.06
414.258	70.06
414.482	84.06
414.705	95.06
414.928	87.06
415.151	105.06
415.374	93.06
415.597	86.06
415.821	63.06
416.044	80.06
416.267	77.06
416.49	76.06
416.713	88.06
416.936	89.06
417.159	86.06
417.382	99.06
417.605	83.06
417.828	98.06
418.051	102.06
418.274	89.06
418.497	82.06
418.72	87.06
418.943	80.06
419.166	88.06
419.389	78.06
419.611	82.06
419.834	78.06
420.057	81.06
420.28	86.06
420.503	81.06
420.726	84.06
420.948	97.06
421.171	92.06
421.394	105.06
421.617	85.06
421.839	81.06
422.062	79.06
422.285	82.06
422.507	96.06
422.73	93.06
422.953	77.06
423.175	82.06
423.398	86.06
423.621	82.06
423.843	85.06
424.066	84.06
424.288	88.06
424.511	83.06
424.733	77.06
424.956	98.06
425.178	94.06
425.401	91.06
425.623	91.06
425.846	97.06
426.068	79.06
426.291	91.06
426.513	79.06
426.735	95.06
426.958	79.06
427.18	100.06
427.402	114.06
427.625	142.06
427.847	140.06
428.069	109.06
428.292	92.06
428.514	83.06
428.736	76.06
428.958	76.06
429.181	82.06
429.403	73.06
429.625	85.06
429.847	89.06
430.069	82.06
430.292	98.06
430.514	67.06
430.736	85.06
430.958	86.06
431.18	84.06
431.402	87.06
431.624	75.06
431.846	92.06
432.068	69.06
432.29	81.06
432.512	81.06
432.734	81.06
432.956	86.06
433.178	87.06
433.4	81.06
433.622	83.06
433.844	100.06
434.066	100.06
434.287	84.06
434.509	92.06
434.731	95.06
434.953	85.06
435.175	80.06
435.397	88.06
435.618	69.06
435.84	94.06
436.062	105.06
436.284	101.06
436.505	82.06
436.727	94.06
436.949	77.06
437.17	87.06
437.392	82.06
437.614	71.06
437.835	87.06
438.057	108.06
438.278	100.06
438.5	101.06
438.721	107.06
438.943	101.06
439.165	81.06
439.386	83.06
439.608	84.06
439.829	99.06
440.05	102.06
440.272	131.06
440.493	104.06
440.715	90.06
440.936	80.06
441.158	82.06
441.379	86.06
441.6	80.06
441.822	88.06
442.043	76.06
442.264	98.06
442.486	99.06
442.707	103.06
442.928	95.06
443.149	108.06
443.371	117.06
443.592	93.06
443.813	90.06
444.034	89.06
444.255	81.06
444.476	76.06
444.698	94.06
444.919	87.06
445.14	106.06
445.361	105.06
445.582	90.06
445.803	115.06
446.024	133.06
446.245	129.06
446.466	109.06
446.687	89.06
446.908	92.06
447.129	81.06
447.35	78.06
447.571	87.06
447.792	94.06
448.013	98.06
448.234	97.06
448.455	84.06
448.675	89.06
448.896	97.06
449.117	90.06
449.338	78.06
449.559	98.06
449.779	120.06
450	71.06
450.221	86.06
450.442	84.06
450.662	92.06
450.883	96.06
451.104	102.06
451.324	89.06
451.545	79.06
451.766	79.06
451.986	73.06
452.207	102.06
452.428	94.06
452.648	90.06
452.869	94.06
453.089	95.06
453.31	110.06
453.53	99.06
453.751	95.06
453.971	99.06
454.192	91.06
454.412	80.06
454.633	70.06
454.853	81.06
455.073	82.06
455.294	69.06
455.514	89.06
455.734	87.06
455.955	86.06
456.175	86.06
456.395	61.06
456.616	94.06
456.836	70.06
457.056	90.06
457.276	89.06
457.497	74.06
457.717	80.06
457.937	85.06
458.157	96.06
458.377	86.06
458.598	94.06
458.818	119.06
459.038	125.06
459.258	106.06
459.478	87.06
459.698	86.06
459.918	74.06
460.138	78.06
460.358	85.06
460.578	73.06
460.798	86.06
461.018	93.06
461.238	103.06
461.458	87.06
461.678	94.06
461.898	76.06
462.118	73.06
462.338	86.06
462.558	86.06
462.777	93.06
462.997	86.06
463.217	83.06
463.437	79.06
463.657	90.06
463.876	95.06
464.096	69.06
464.316	94.06
464.536	71.06
464.755	92.06
464.975	87.06
465.195	138.06
465.414	132.06
465.634	83.06
465.854	85.06
466.073	87.06
466.293	81.06
466.512	86.06
466.732	73.06
466.951	92.06
467.171	81.06
467.391	88.06
467.61	90.06
467.829	90.06
468.049	121.06
468.268	141.06
468.488	99.06
468.707	90.06
468.927	87.06
469.146	91.06
469.365	87.06
469.585	86.06
469.804	93.06
470.023	99.06
470.243	69.06
470.462	92.06
470.681	101.06
470.901	88.06
471.12	85.06
471.339	81.06
471.558	92.06
471.777	89.06
471.997	107.06
472.216	193.06
472.435	296.06
472.654	140.06
472.873	91.06
473.092	84.06
473.311	91.06
473.53	83.06
473.749	76.06
473.968	92.06
474.187	107.06
474.406	99.06
474.625	85.06
474.844	82.06
475.063	72.06
475.282	93.06
475.501	92.06
475.72	84.06
475.939	83.06
476.158	85.06
476.377	93.06
476.596	86.06
476.814	86.06
477.033	96.06
477.252	73.06
477.471	78.06
477.69	86.06
477.908	84.06
478.127	86.06
478.346	80.06
478.564	91.06
478.783	87.06
479.002	97.06
479.22	87.06
479.439	98.06
479.658	85.06
479.876	95.06
480.095	86.06
480.313	95.06
480.532	93.06
480.751	107.06
480.969	178.06
481.188	453.06
481.406	315.06
481.624	106.06
481.843	92.06
482.061	72.06
482.28	83.06
482.498	93.06
482.717	93.06
482.935	88.06
483.153	79.06
483.372	74.06
483.59	108.06
483.808	99.06
484.027	93.06
484.245	89.06
484.463	77.06
484.681	95.06
484.9	86.06
485.118	94.06
485.336	89.06
485.554	97.06
485.772	97.06
485.99	109.06
486.209	98.06
486.427	100.06
486.645	101.06
486.863	95.06
487.081	91.06
487.299	87.06
487.517	88.06
487.735	100.06
487.953	79.06
488.171	92.06
488.389	87.06
488.607	98.06
488.825	89.06
489.043	100.06
489.261	91.06
489.479	86.06
489.696	79.06
489.914	99.06
490.132	78.06
490.35	88.06
490.568	109.06
490.786	82.06
491.003	80.06
491.221	90.06
491.439	90.06
491.657	90.06
491.874	87.06
492.092	77.06
492.31	94.06
492.527	84.06
492.745	90.06
492.963	94.06
493.18	82.06
493.398	105.06
493.615	84.06
493.833	101.06
494.05	82.06
494.268	78.06
494.485	96.06
494.703	101.06
494.92	94.06
495.138	89.06
495.355	75.06
495.573	97.06
495.79	73.06
496.008	86.06
496.225	85.06
496.442	83.06
496.66	89.06
496.877	87.06
497.094	85.06
497.312	81.06
497.529	81.06
497.746	83.06
497.963	85.06
498.181	95.06
498.398	99.06
498.615	90.06
498.832	101.06
499.049	91.06
499.267	103.06
499.484	86.06
499.701	77.06
499.918	85.06
500.135	99.06
500.352	84.06
500.569	84.06
500.786	94.06
501.003	82.06
501.22	76.06
501.437	83.06
501.654	83.06
501.871	101.06
502.088	87.06
502.305	104.06
502.522	87.06
502.739	93.06
502.956	84.06
503.172	95.06
503.389	85.06
503.606	99.06
503.823	83.06
504.04	95.06
504.256	82.06
504.473	96.06
504.69	86.06
504.907	100.06
505.123	86.06
505.34	89.06
505.557	86.06
505.773	75.06
505.99	69.06
506.207	80.06
506.423	84.06
506.64	86.06
506.856	93.06
507.073	92.06
507.289	92.06
507.506	87.06
507.722	98.06
507.939	95.06
508.155	103.06
508.372	87.06
508.588	83.06
508.805	102.06
509.021	87.06
509.238	90.06
509.454	96.06
509.67	93.06
509.887	96.06
510.103	106.06
510.319	181.06
510.536	605.06
510.752	1852.06
510.968	547.06
511.184	133.06
511.401	105.06
511.617	101.06
511.833	79.06
512.049	89.06
512.265	91.06
512.481	90.06
512.698	77.06
512.914	77.06
513.13	82.06
513.346	93.06
513.562	98.06
513.778	93.06
513.994	90.06
514.21	107.06
514.426	100.06
514.642	132.06
514.858	125.06
515.074	129.06
515.29	346.06
515.506	1120.06
515.721	430.06
515.937	137.06
516.153	95.06
516.369	94.06
516.585	84.06
516.801	95.06
517.016	94.06
517.232	102.06
