Data from Circ_2010_H10_HRD10591_00089.txt Node
Date: Wed Jan 03 10:09:59 EST 2024
User: Yrep
Spectrometer: HR+D1059
Trigger mode: 1
Integration Time (sec): 1.000000E-1
Scans to average: 1
Electric dark correction enabled: true
Nonlinearity correction enabled: false
Boxcar width: 0
XAxis mode: Wavelengths
Number of Pixels in Spectrum: 2048
>>>>>Begin Spectral Data<<<<<
223.165	-7.62
223.4	-7.62
223.635	-7.62
223.869	-36.62
224.104	-32.62
224.338	-13.62
224.573	-14.62
224.808	-6.62
225.042	-3.62
225.277	-1.62
225.511	-1.62
225.746	2.38
225.98	7.38
226.215	12.38
226.449	16.38
226.683	20.38
226.918	27.38
227.152	32.38
227.387	30.38
227.621	42.38
227.856	45.38
228.09	42.38
228.324	41.38
228.559	56.38
228.793	68.38
229.027	60.38
229.262	82.38
229.496	71.38
229.73	83.38
229.964	80.38
230.199	85.38
230.433	75.38
230.667	90.38
230.901	90.38
231.136	89.38
231.37	87.38
231.604	83.38
231.838	80.38
232.072	76.38
232.306	83.38
232.541	77.38
232.775	91.38
233.009	88.38
233.243	77.38
233.477	73.38
233.711	84.38
233.945	97.38
234.179	85.38
234.413	83.38
234.647	90.38
234.881	73.38
235.115	96.38
235.349	78.38
235.583	90.38
235.817	83.38
236.051	82.38
236.285	75.38
236.519	77.38
236.753	71.38
236.987	78.38
237.221	80.38
237.455	75.38
237.689	89.38
237.922	67.38
238.156	65.38
238.39	78.38
238.624	72.38
238.858	81.38
239.091	92.38
239.325	81.38
239.559	87.38
239.793	74.38
240.027	76.38
240.26	77.38
240.494	70.38
240.728	83.38
240.961	71.38
241.195	97.38
241.429	80.38
241.662	82.38
241.896	92.38
242.13	90.38
242.363	91.38
242.597	80.38
242.83	93.38
243.064	82.38
243.298	75.38
243.531	76.38
243.765	87.38
243.998	78.38
244.232	71.38
244.465	80.38
244.699	76.38
244.932	93.38
245.166	59.38
245.399	78.38
245.633	87.38
245.866	70.38
246.099	76.38
246.333	78.38
246.566	84.38
246.8	75.38
247.033	96.38
247.266	76.38
247.5	80.38
247.733	74.38
247.966	84.38
248.2	82.38
248.433	75.38
248.666	75.38
248.899	77.38
249.133	85.38
249.366	101.38
249.599	94.38
249.832	81.38
250.066	83.38
250.299	80.38
250.532	80.38
250.765	80.38
250.998	92.38
251.231	86.38
251.465	92.38
251.698	95.38
251.931	71.38
252.164	83.38
252.397	77.38
252.63	76.38
252.863	78.38
253.096	75.38
253.329	86.38
253.562	91.38
253.795	84.38
254.028	88.38
254.261	80.38
254.494	87.38
254.727	79.38
254.96	77.38
255.193	78.38
255.426	94.38
255.659	94.38
255.892	84.38
256.124	76.38
256.357	86.38
256.59	85.38
256.823	80.38
257.056	89.38
257.289	101.38
257.521	91.38
257.754	84.38
257.987	77.38
258.22	88.38
258.452	79.38
258.685	90.38
258.918	95.38
259.151	79.38
259.383	76.38
259.616	69.38
259.849	82.38
260.081	91.38
260.314	87.38
260.547	82.38
260.779	88.38
261.012	97.38
261.244	88.38
261.477	80.38
261.71	103.38
261.942	109.38
262.175	106.38
262.407	91.38
262.64	83.38
262.872	103.38
263.105	90.38
263.337	82.38
263.57	70.38
263.802	90.38
264.035	79.38
264.267	94.38
264.499	77.38
264.732	82.38
264.964	85.38
265.197	94.38
265.429	91.38
265.661	82.38
265.894	96.38
266.126	77.38
266.358	80.38
266.591	79.38
266.823	77.38
267.055	67.38
267.287	95.38
267.52	93.38
267.752	77.38
267.984	93.38
268.216	92.38
268.448	81.38
268.681	105.38
268.913	76.38
269.145	86.38
269.377	86.38
269.609	87.38
269.841	89.38
270.073	92.38
270.306	98.38
270.538	98.38
270.77	97.38
271.002	87.38
271.234	88.38
271.466	90.38
271.698	97.38
271.93	98.38
272.162	89.38
272.394	97.38
272.626	82.38
272.858	85.38
273.09	91.38
273.322	80.38
273.553	97.38
273.785	96.38
274.017	87.38
274.249	82.38
274.481	66.38
274.713	94.38
274.945	86.38
275.176	95.38
275.408	105.38
275.64	83.38
275.872	94.38
276.104	89.38
276.335	96.38
276.567	96.38
276.799	122.38
277.031	114.38
277.262	110.38
277.494	92.38
277.726	86.38
277.957	92.38
278.189	86.38
278.421	80.38
278.652	91.38
278.884	94.38
279.115	90.38
279.347	98.38
279.579	86.38
279.81	97.38
280.042	99.38
280.273	127.38
280.505	102.38
280.736	92.38
280.968	95.38
281.199	90.38
281.431	95.38
281.662	90.38
281.894	89.38
282.125	83.38
282.356	121.38
282.588	130.38
282.819	121.38
283.051	93.38
283.282	81.38
283.513	87.38
283.745	78.38
283.976	84.38
284.207	90.38
284.439	86.38
284.67	88.38
284.901	90.38
285.132	80.38
285.364	83.38
285.595	94.38
285.826	78.38
286.057	94.38
286.288	88.38
286.52	99.38
286.751	81.38
286.982	89.38
287.213	95.38
287.444	83.38
287.675	77.38
287.906	111.38
288.138	90.38
288.369	104.38
288.6	115.38
288.831	85.38
289.062	93.38
289.293	92.38
289.524	83.38
289.755	89.38
289.986	80.38
290.217	73.38
290.448	82.38
290.679	89.38
290.91	102.38
291.141	89.38
291.371	98.38
291.602	87.38
291.833	97.38
292.064	98.38
292.295	90.38
292.526	98.38
292.757	86.38
292.987	92.38
293.218	81.38
293.449	84.38
293.68	96.38
293.91	76.38
294.141	97.38
294.372	97.38
294.603	91.38
294.833	91.38
295.064	88.38
295.295	92.38
295.525	89.38
295.756	102.38
295.987	98.38
296.217	114.38
296.448	108.38
296.679	87.38
296.909	87.38
297.14	76.38
297.37	98.38
297.601	88.38
297.831	89.38
298.062	86.38
298.292	94.38
298.523	81.38
298.753	79.38
298.984	87.38
299.214	94.38
299.445	89.38
299.675	83.38
299.905	91.38
300.136	89.38
300.366	83.38
300.597	98.38
300.827	71.38
301.057	101.38
301.288	118.38
301.518	101.38
301.748	92.38
301.979	103.38
302.209	111.38
302.439	90.38
302.669	96.38
302.9	96.38
303.13	90.38
303.36	90.38
303.59	106.38
303.82	103.38
304.051	98.38
304.281	92.38
304.511	97.38
304.741	95.38
304.971	90.38
305.201	91.38
305.431	78.38
305.661	90.38
305.891	99.38
306.121	90.38
306.352	111.38
306.582	98.38
306.812	95.38
307.042	112.38
307.272	93.38
307.502	110.38
307.731	117.38
307.961	93.38
308.191	82.38
308.421	94.38
308.651	101.38
308.881	91.38
309.111	90.38
309.341	86.38
309.571	89.38
309.8	101.38
310.03	89.38
310.26	91.38
310.49	103.38
310.72	91.38
310.949	102.38
311.179	114.38
311.409	103.38
311.639	91.38
311.868	99.38
312.098	95.38
312.328	91.38
312.557	99.38
312.787	95.38
313.017	82.38
313.246	106.38
313.476	95.38
313.706	76.38
313.935	107.38
314.165	93.38
314.394	97.38
314.624	89.38
314.853	97.38
315.083	82.38
315.312	86.38
315.542	81.38
315.771	81.38
316.001	101.38
316.23	85.38
316.46	100.38
316.689	103.38
316.919	100.38
317.148	98.38
317.377	94.38
317.607	99.38
317.836	96.38
318.065	96.38
318.295	81.38
318.524	103.38
318.753	106.38
318.983	108.38
319.212	89.38
319.441	105.38
319.67	106.38
319.9	102.38
320.129	87.38
320.358	101.38
320.587	108.38
320.816	95.38
321.046	111.38
321.275	97.38
321.504	88.38
321.733	97.38
321.962	100.38
322.191	106.38
322.42	100.38
322.649	111.38
322.878	101.38
323.108	108.38
323.337	102.38
323.566	145.38
323.795	153.38
324.024	207.38
324.253	382.38
324.482	822.38
324.71	1644.38
324.939	2212.38
325.168	809.38
325.397	238.38
325.626	146.38
325.855	130.38
326.084	120.38
326.313	123.38
326.542	158.38
326.77	240.38
326.999	451.38
327.228	956.38
327.457	1749.38
327.686	1391.38
327.914	380.38
328.143	248.38
328.372	257.38
328.6	173.38
328.829	130.38
329.058	119.38
329.287	147.38
329.515	119.38
329.744	149.38
329.972	193.38
330.201	297.38
330.43	358.38
330.658	228.38
330.887	163.38
331.115	122.38
331.344	104.38
331.572	101.38
331.801	89.38
332.03	109.38
332.258	103.38
332.486	90.38
332.715	101.38
332.943	92.38
333.172	88.38
333.4	118.38
333.629	121.38
333.857	133.38
334.085	183.38
334.314	283.38
334.542	503.38
334.771	445.38
334.999	162.38
335.227	97.38
335.455	96.38
335.684	108.38
335.912	80.38
336.14	90.38
336.369	91.38
336.597	121.38
336.825	99.38
337.053	98.38
337.281	86.38
337.51	87.38
337.738	86.38
337.966	106.38
338.194	100.38
338.422	104.38
338.65	93.38
338.878	97.38
339.106	85.38
339.334	93.38
339.562	103.38
339.79	91.38
340.018	89.38
340.246	93.38
340.474	98.38
340.702	93.38
340.93	100.38
341.158	103.38
341.386	90.38
341.614	80.38
341.842	95.38
342.07	89.38
342.298	100.38
342.526	89.38
342.754	103.38
342.981	95.38
343.209	94.38
343.437	107.38
343.665	89.38
343.893	86.38
344.12	91.38
344.348	98.38
344.576	92.38
344.804	90.38
345.031	102.38
345.259	99.38
345.487	98.38
345.714	106.38
345.942	93.38
346.17	101.38
346.397	95.38
346.625	100.38
346.853	107.38
347.08	86.38
347.308	94.38
347.535	91.38
347.763	106.38
347.99	95.38
348.218	89.38
348.445	93.38
348.673	87.38
348.9	98.38
349.128	82.38
349.355	89.38
349.583	98.38
349.81	111.38
350.037	97.38
350.265	89.38
350.492	96.38
350.72	97.38
350.947	81.38
351.174	98.38
351.402	98.38
351.629	114.38
351.856	95.38
352.083	101.38
352.311	90.38
352.538	99.38
352.765	92.38
352.992	104.38
353.22	111.38
353.447	99.38
353.674	96.38
353.901	81.38
354.128	101.38
354.355	86.38
354.583	100.38
354.81	94.38
355.037	94.38
355.264	80.38
355.491	95.38
355.718	92.38
355.945	95.38
356.172	101.38
356.399	85.38
356.626	108.38
356.853	106.38
357.08	85.38
357.307	92.38
357.534	106.38
357.761	78.38
357.988	97.38
358.215	94.38
358.441	95.38
358.668	89.38
358.895	98.38
359.122	88.38
359.349	97.38
359.576	84.38
359.802	94.38
360.029	95.38
360.256	101.38
360.483	87.38
360.709	76.38
360.936	95.38
361.163	104.38
361.39	98.38
361.616	108.38
361.843	78.38
362.07	85.38
362.296	102.38
362.523	91.38
362.749	87.38
362.976	99.38
363.203	90.38
363.429	82.38
363.656	98.38
363.882	93.38
364.109	84.38
364.335	78.38
364.562	83.38
364.788	87.38
365.015	99.38
365.241	96.38
365.468	100.38
365.694	105.38
365.92	82.38
366.147	92.38
366.373	88.38
366.599	86.38
366.826	105.38
367.052	99.38
367.278	87.38
367.505	81.38
367.731	101.38
367.957	83.38
368.184	85.38
368.41	98.38
368.636	108.38
368.862	107.38
369.089	96.38
369.315	86.38
369.541	81.38
369.767	104.38
369.993	86.38
370.219	96.38
370.445	65.38
370.672	96.38
370.898	84.38
371.124	91.38
371.35	74.38
371.576	97.38
371.802	72.38
372.028	80.38
372.254	93.38
372.48	79.38
372.706	82.38
372.932	81.38
373.158	76.38
373.384	85.38
373.61	101.38
373.835	100.38
374.061	87.38
374.287	103.38
374.513	84.38
374.739	83.38
374.965	97.38
375.191	88.38
375.416	93.38
375.642	95.38
375.868	107.38
376.094	89.38
376.319	95.38
376.545	96.38
376.771	79.38
376.997	91.38
377.222	92.38
377.448	91.38
377.674	97.38
377.899	93.38
378.125	103.38
378.35	107.38
378.576	96.38
378.802	93.38
379.027	86.38
379.253	98.38
379.478	101.38
379.704	108.38
379.929	90.38
380.155	74.38
380.38	83.38
380.606	97.38
380.831	94.38
381.057	114.38
381.282	105.38
381.507	93.38
381.733	94.38
381.958	101.38
382.184	101.38
382.409	87.38
382.634	89.38
382.86	97.38
383.085	89.38
383.31	107.38
383.535	96.38
383.761	99.38
383.986	99.38
384.211	89.38
384.436	77.38
384.662	103.38
384.887	112.38
385.112	105.38
385.337	104.38
385.562	108.38
385.787	106.38
386.013	101.38
386.238	100.38
386.463	105.38
386.688	105.38
386.913	94.38
387.138	111.38
387.363	93.38
387.588	120.38
387.813	90.38
388.038	98.38
388.263	109.38
388.488	95.38
388.713	96.38
388.938	98.38
389.163	107.38
389.387	95.38
389.612	88.38
389.837	102.38
390.062	82.38
390.287	90.38
390.512	90.38
390.736	104.38
390.961	85.38
391.186	78.38
391.411	96.38
391.636	94.38
391.86	85.38
392.085	82.38
392.31	97.38
392.534	81.38
392.759	83.38
392.984	91.38
393.208	85.38
393.433	100.38
393.658	98.38
393.882	92.38
394.107	79.38
394.331	77.38
394.556	84.38
394.78	95.38
395.005	79.38
395.229	93.38
395.454	111.38
395.678	106.38
395.903	104.38
396.127	109.38
396.352	80.38
396.576	87.38
396.801	82.38
397.025	86.38
397.249	84.38
397.474	94.38
397.698	103.38
397.922	92.38
398.147	77.38
398.371	74.38
398.595	91.38
398.82	97.38
399.044	102.38
399.268	90.38
399.492	91.38
399.717	97.38
399.941	94.38
400.165	94.38
400.389	82.38
400.613	96.38
400.837	96.38
401.062	79.38
401.286	94.38
401.51	80.38
401.734	89.38
401.958	92.38
402.182	123.38
402.406	145.38
402.63	110.38
402.854	100.38
403.078	91.38
403.302	106.38
403.526	72.38
403.75	81.38
403.974	89.38
404.198	90.38
404.422	86.38
404.645	87.38
404.869	90.38
405.093	103.38
405.317	108.38
405.541	104.38
405.765	105.38
405.988	106.38
406.212	144.38
406.436	197.38
406.66	129.38
406.883	97.38
407.107	93.38
407.331	103.38
407.555	110.38
407.778	85.38
408.002	91.38
408.226	106.38
408.449	96.38
408.673	93.38
408.896	81.38
409.12	78.38
409.344	90.38
409.567	87.38
409.791	97.38
410.014	82.38
410.238	92.38
410.461	99.38
410.685	103.38
410.908	99.38
411.132	96.38
411.355	96.38
411.578	98.38
411.802	89.38
412.025	76.38
412.249	93.38
412.472	93.38
412.695	83.38
412.919	97.38
413.142	87.38
413.365	99.38
413.589	85.38
413.812	105.38
414.035	84.38
414.258	96.38
414.482	86.38
414.705	97.38
414.928	98.38
415.151	88.38
415.374	98.38
415.597	94.38
415.821	101.38
416.044	87.38
416.267	82.38
416.49	89.38
416.713	75.38
416.936	86.38
417.159	108.38
417.382	83.38
417.605	94.38
417.828	109.38
418.051	81.38
418.274	93.38
418.497	80.38
418.72	81.38
418.943	98.38
419.166	78.38
419.389	99.38
419.611	92.38
419.834	80.38
420.057	94.38
420.28	80.38
420.503	93.38
420.726	98.38
420.948	101.38
421.171	98.38
421.394	105.38
421.617	85.38
421.839	86.38
422.062	88.38
422.285	99.38
422.507	85.38
422.73	98.38
422.953	96.38
423.175	88.38
423.398	71.38
423.621	105.38
423.843	95.38
424.066	107.38
424.288	93.38
424.511	73.38
424.733	95.38
424.956	100.38
425.178	106.38
425.401	98.38
425.623	97.38
425.846	104.38
426.068	98.38
426.291	90.38
426.513	91.38
426.735	93.38
426.958	83.38
427.18	106.38
427.402	133.38
427.625	191.38
427.847	155.38
428.069	166.38
428.292	96.38
428.514	98.38
428.736	81.38
428.958	75.38
429.181	81.38
429.403	94.38
429.625	101.38
429.847	84.38
430.069	92.38
430.292	87.38
430.514	94.38
430.736	90.38
430.958	87.38
431.18	71.38
431.402	82.38
431.624	89.38
431.846	87.38
432.068	81.38
432.29	92.38
432.512	94.38
432.734	95.38
432.956	83.38
433.178	105.38
433.4	92.38
433.622	99.38
433.844	91.38
434.066	100.38
434.287	93.38
434.509	75.38
434.731	97.38
434.953	95.38
435.175	91.38
435.397	104.38
435.618	103.38
435.84	93.38
436.062	126.38
436.284	117.38
436.505	96.38
436.727	100.38
436.949	102.38
437.17	92.38
437.392	89.38
437.614	91.38
437.835	97.38
438.057	115.38
438.278	96.38
438.5	111.38
438.721	123.38
438.943	113.38
439.165	107.38
439.386	94.38
439.608	97.38
439.829	97.38
440.05	144.38
440.272	144.38
440.493	98.38
440.715	97.38
440.936	89.38
441.158	82.38
441.379	103.38
441.6	108.38
441.822	98.38
442.043	86.38
442.264	119.38
442.486	105.38
442.707	109.38
442.928	108.38
443.149	131.38
443.371	118.38
443.592	113.38
443.813	111.38
444.034	105.38
444.255	93.38
444.476	85.38
444.698	93.38
444.919	93.38
445.14	148.38
445.361	137.38
445.582	120.38
445.803	137.38
446.024	143.38
446.245	141.38
446.466	111.38
446.687	91.38
446.908	89.38
447.129	94.38
447.35	78.38
447.571	99.38
447.792	91.38
448.013	89.38
448.234	110.38
448.455	95.38
448.675	115.38
448.896	124.38
449.117	101.38
449.338	103.38
449.559	127.38
449.779	127.38
450	90.38
450.221	76.38
450.442	108.38
450.662	103.38
450.883	89.38
451.104	111.38
451.324	82.38
451.545	72.38
451.766	89.38
451.986	93.38
452.207	96.38
452.428	97.38
452.648	91.38
452.869	97.38
453.089	95.38
453.31	118.38
453.53	100.38
453.751	83.38
453.971	90.38
454.192	98.38
454.412	95.38
454.633	82.38
454.853	74.38
455.073	83.38
455.294	85.38
455.514	98.38
455.734	74.38
455.955	92.38
456.175	74.38
456.395	83.38
456.616	83.38
456.836	84.38
457.056	81.38
457.276	84.38
457.497	94.38
457.717	91.38
457.937	83.38
458.157	82.38
458.377	89.38
458.598	109.38
458.818	138.38
459.038	135.38
459.258	116.38
459.478	85.38
459.698	80.38
459.918	95.38
460.138	83.38
460.358	88.38
460.578	98.38
460.798	83.38
461.018	85.38
461.238	81.38
461.458	78.38
461.678	88.38
461.898	82.38
462.118	75.38
462.338	90.38
462.558	85.38
462.777	97.38
462.997	100.38
463.217	90.38
463.437	77.38
463.657	84.38
463.876	74.38
464.096	81.38
464.316	95.38
464.536	92.38
464.755	105.38
464.975	114.38
465.195	143.38
465.414	143.38
465.634	91.38
465.854	96.38
466.073	91.38
466.293	81.38
466.512	87.38
466.732	94.38
466.951	75.38
467.171	94.38
467.391	98.38
467.61	111.38
467.829	116.38
468.049	199.38
468.268	229.38
468.488	115.38
468.707	89.38
468.927	88.38
469.146	83.38
469.365	90.38
469.585	87.38
469.804	85.38
470.023	89.38
470.243	86.38
470.462	106.38
470.681	108.38
470.901	110.38
471.12	92.38
471.339	111.38
471.558	103.38
471.777	104.38
471.997	138.38
472.216	328.38
472.435	589.38
472.654	187.38
472.873	105.38
473.092	84.38
473.311	90.38
473.53	90.38
473.749	105.38
473.968	96.38
474.187	102.38
474.406	95.38
474.625	82.38
474.844	86.38
475.063	96.38
475.282	93.38
475.501	91.38
475.72	87.38
475.939	89.38
476.158	88.38
476.377	97.38
476.596	95.38
476.814	94.38
477.033	99.38
477.252	87.38
477.471	80.38
477.69	74.38
477.908	83.38
478.127	83.38
478.346	100.38
478.564	89.38
478.783	92.38
479.002	89.38
479.22	90.38
479.439	100.38
479.658	106.38
479.876	100.38
480.095	80.38
480.313	108.38
480.532	97.38
480.751	145.38
480.969	299.38
481.188	1042.38
481.406	639.38
481.624	159.38
481.843	94.38
482.061	86.38
482.28	88.38
482.498	96.38
482.717	91.38
482.935	101.38
483.153	83.38
483.372	88.38
483.59	89.38
483.808	93.38
484.027	83.38
484.245	86.38
484.463	96.38
484.681	102.38
484.9	94.38
485.118	102.38
485.336	104.38
485.554	108.38
485.772	93.38
485.99	96.38
486.209	93.38
486.427	96.38
486.645	127.38
486.863	105.38
487.081	90.38
487.299	82.38
487.517	98.38
487.735	101.38
487.953	92.38
488.171	85.38
488.389	95.38
488.607	83.38
488.825	78.38
489.043	90.38
489.261	83.38
489.479	102.38
489.696	83.38
489.914	80.38
490.132	95.38
490.35	96.38
490.568	87.38
490.786	89.38
491.003	96.38
491.221	89.38
491.439	83.38
491.657	102.38
491.874	77.38
492.092	84.38
492.31	94.38
492.527	89.38
492.745	93.38
492.963	102.38
493.18	100.38
493.398	89.38
493.615	99.38
493.833	97.38
494.05	98.38
494.268	91.38
494.485	93.38
494.703	93.38
494.92	80.38
495.138	91.38
495.355	101.38
495.573	104.38
495.79	94.38
496.008	89.38
496.225	95.38
496.442	103.38
496.66	88.38
496.877	89.38
497.094	94.38
497.312	78.38
497.529	94.38
497.746	98.38
497.963	82.38
498.181	90.38
498.398	97.38
498.615	108.38
498.832	97.38
499.049	100.38
499.267	89.38
499.484	96.38
499.701	82.38
499.918	82.38
500.135	91.38
500.352	89.38
500.569	97.38
500.786	95.38
501.003	82.38
501.22	84.38
501.437	89.38
501.654	117.38
501.871	96.38
502.088	96.38
502.305	88.38
502.522	88.38
502.739	103.38
502.956	99.38
503.172	86.38
503.389	79.38
503.606	92.38
503.823	81.38
504.04	83.38
504.256	85.38
504.473	87.38
504.69	74.38
504.907	81.38
505.123	91.38
505.34	96.38
505.557	99.38
505.773	86.38
505.99	86.38
506.207	94.38
506.423	87.38
506.64	110.38
506.856	77.38
507.073	82.38
507.289	89.38
507.506	108.38
507.722	99.38
507.939	108.38
508.155	89.38
508.372	89.38
508.588	96.38
508.805	98.38
509.021	90.38
509.238	98.38
509.454	96.38
509.67	89.38
509.887	104.38
510.103	127.38
510.319	174.38
510.536	576.38
510.752	1756.38
510.968	530.38
511.184	125.38
511.401	112.38
511.617	106.38
511.833	86.38
512.049	89.38
512.265	95.38
512.481	85.38
512.698	83.38
512.914	89.38
513.13	82.38
513.346	83.38
513.562	88.38
513.778	96.38
513.994	99.38
514.21	97.38
514.426	105.38
514.642	112.38
514.858	117.38
515.074	153.38
515.29	354.38
