Data from Circ_2010_H10_HRD10591_00019.txt Node
Date: Wed Jan 03 10:09:45 EST 2024
User: Yrep
Spectrometer: HR+D1059
Trigger mode: 1
Integration Time (sec): 1.000000E-1
Scans to average: 1
Electric dark correction enabled: true
Nonlinearity correction enabled: false
Boxcar width: 0
XAxis mode: Wavelengths
Number of Pixels in Spectrum: 2048
>>>>>Begin Spectral Data<<<<<
223.165	-8.06
223.4	-8.06
223.635	-8.06
223.869	-12.06
224.104	-22.06
224.338	-10.06
224.573	-17.06
224.808	-7.06
225.042	-11.06
225.277	-1.06
225.511	-17.06
225.746	3.94
225.98	4.94
226.215	12.94
226.449	12.94
226.683	16.94
226.918	28.94
227.152	24.94
227.387	18.94
227.621	29.94
227.856	64.94
228.09	37.94
228.324	37.94
228.559	61.94
228.793	56.94
229.027	77.94
229.262	70.94
229.496	55.94
229.73	93.94
229.964	86.94
230.199	62.94
230.433	84.94
230.667	87.94
230.901	84.94
231.136	80.94
231.37	74.94
231.604	70.94
231.838	85.94
232.072	79.94
232.306	71.94
232.541	73.94
232.775	71.94
233.009	78.94
233.243	75.94
233.477	78.94
233.711	73.94
233.945	84.94
234.179	79.94
234.413	91.94
234.647	75.94
234.881	77.94
235.115	84.94
235.349	76.94
235.583	89.94
235.817	78.94
236.051	75.94
236.285	77.94
236.519	78.94
236.753	86.94
236.987	73.94
237.221	87.94
237.455	76.94
237.689	68.94
237.922	68.94
238.156	80.94
238.39	76.94
238.624	86.94
238.858	91.94
239.091	77.94
239.325	89.94
239.559	88.94
239.793	79.94
240.027	84.94
240.26	82.94
240.494	79.94
240.728	74.94
240.961	64.94
241.195	74.94
241.429	71.94
241.662	85.94
241.896	75.94
242.13	71.94
242.363	75.94
242.597	68.94
242.83	73.94
243.064	81.94
243.298	80.94
243.531	68.94
243.765	77.94
243.998	84.94
244.232	71.94
244.465	80.94
244.699	83.94
244.932	72.94
245.166	79.94
245.399	90.94
245.633	87.94
245.866	89.94
246.099	74.94
246.333	63.94
246.566	88.94
246.8	78.94
247.033	67.94
247.266	92.94
247.5	89.94
247.733	75.94
247.966	73.94
248.2	78.94
248.433	95.94
248.666	85.94
248.899	76.94
249.133	85.94
249.366	100.94
249.599	88.94
249.832	84.94
250.066	84.94
250.299	74.94
250.532	80.94
250.765	72.94
250.998	70.94
251.231	71.94
251.465	83.94
251.698	77.94
251.931	77.94
252.164	75.94
252.397	68.94
252.63	84.94
252.863	72.94
253.096	78.94
253.329	80.94
253.562	72.94
253.795	83.94
254.028	90.94
254.261	74.94
254.494	79.94
254.727	73.94
254.96	87.94
255.193	76.94
255.426	90.94
255.659	91.94
255.892	88.94
256.124	68.94
256.357	76.94
256.59	72.94
256.823	84.94
257.056	80.94
257.289	71.94
257.521	83.94
257.754	86.94
257.987	73.94
258.22	71.94
258.452	83.94
258.685	82.94
258.918	83.94
259.151	107.94
259.383	90.94
259.616	79.94
259.849	80.94
260.081	91.94
260.314	85.94
260.547	88.94
260.779	78.94
261.012	96.94
261.244	86.94
261.477	87.94
261.71	88.94
261.942	101.94
262.175	100.94
262.407	91.94
262.64	81.94
262.872	80.94
263.105	87.94
263.337	96.94
263.57	80.94
263.802	74.94
264.035	76.94
264.267	84.94
264.499	76.94
264.732	86.94
264.964	86.94
265.197	85.94
265.429	79.94
265.661	83.94
265.894	79.94
266.126	86.94
266.358	72.94
266.591	82.94
266.823	91.94
267.055	81.94
267.287	96.94
267.52	80.94
267.752	90.94
267.984	86.94
268.216	84.94
268.448	83.94
268.681	65.94
268.913	81.94
269.145	83.94
269.377	93.94
269.609	91.94
269.841	89.94
270.073	94.94
270.306	84.94
270.538	87.94
270.77	94.94
271.002	81.94
271.234	88.94
271.466	93.94
271.698	78.94
271.93	81.94
272.162	71.94
272.394	76.94
272.626	74.94
272.858	78.94
273.09	83.94
273.322	78.94
273.553	87.94
273.785	83.94
274.017	87.94
274.249	84.94
274.481	86.94
274.713	87.94
274.945	84.94
275.176	76.94
275.408	90.94
275.64	96.94
275.872	97.94
276.104	88.94
276.335	83.94
276.567	91.94
276.799	106.94
277.031	89.94
277.262	97.94
277.494	104.94
277.726	85.94
277.957	85.94
278.189	84.94
278.421	97.94
278.652	90.94
278.884	89.94
279.115	70.94
279.347	87.94
279.579	86.94
279.81	97.94
280.042	93.94
280.273	103.94
280.505	83.94
280.736	85.94
280.968	87.94
281.199	84.94
281.431	96.94
281.662	75.94
281.894	84.94
282.125	99.94
282.356	119.94
282.588	120.94
282.819	99.94
283.051	91.94
283.282	81.94
283.513	85.94
283.745	85.94
283.976	103.94
284.207	64.94
284.439	82.94
284.67	102.94
284.901	81.94
285.132	75.94
285.364	79.94
285.595	89.94
285.826	81.94
286.057	75.94
286.288	77.94
286.52	74.94
286.751	78.94
286.982	86.94
287.213	96.94
287.444	81.94
287.675	84.94
287.906	90.94
288.138	95.94
288.369	88.94
288.6	90.94
288.831	78.94
289.062	88.94
289.293	103.94
289.524	75.94
289.755	90.94
289.986	79.94
290.217	99.94
290.448	79.94
290.679	84.94
290.91	94.94
291.141	82.94
291.371	85.94
291.602	97.94
291.833	89.94
292.064	84.94
292.295	92.94
292.526	93.94
292.757	84.94
292.987	76.94
293.218	87.94
293.449	79.94
293.68	104.94
293.91	100.94
294.141	71.94
294.372	70.94
294.603	88.94
294.833	86.94
295.064	81.94
295.295	80.94
295.525	83.94
295.756	87.94
295.987	119.94
296.217	119.94
296.448	117.94
296.679	90.94
296.909	91.94
297.14	90.94
297.37	84.94
297.601	75.94
297.831	80.94
298.062	91.94
298.292	75.94
298.523	82.94
298.753	75.94
298.984	88.94
299.214	85.94
299.445	94.94
299.675	101.94
299.905	92.94
300.136	80.94
300.366	80.94
300.597	94.94
300.827	88.94
301.057	95.94
301.288	103.94
301.518	100.94
301.748	76.94
301.979	94.94
302.209	90.94
302.439	87.94
302.669	95.94
302.9	99.94
303.13	80.94
303.36	78.94
303.59	105.94
303.82	110.94
304.051	92.94
304.281	92.94
304.511	86.94
304.741	90.94
304.971	85.94
305.201	87.94
305.431	89.94
305.661	90.94
305.891	91.94
306.121	100.94
306.352	99.94
306.582	101.94
306.812	93.94
307.042	75.94
307.272	90.94
307.502	101.94
307.731	100.94
307.961	84.94
308.191	91.94
308.421	79.94
308.651	88.94
308.881	95.94
309.111	104.94
309.341	95.94
309.571	91.94
309.8	92.94
310.03	94.94
310.26	105.94
310.49	86.94
310.72	99.94
310.949	96.94
311.179	94.94
311.409	80.94
311.639	83.94
311.868	96.94
312.098	98.94
312.328	95.94
312.557	101.94
312.787	103.94
313.017	95.94
313.246	87.94
313.476	92.94
313.706	89.94
313.935	92.94
314.165	101.94
314.394	96.94
314.624	107.94
314.853	87.94
315.083	91.94
315.312	94.94
315.542	94.94
315.771	89.94
316.001	106.94
316.23	88.94
316.46	88.94
316.689	85.94
316.919	86.94
317.148	83.94
317.377	99.94
317.607	103.94
317.836	82.94
318.065	89.94
318.295	83.94
318.524	86.94
318.753	88.94
318.983	103.94
319.212	92.94
319.441	93.94
319.67	102.94
319.9	78.94
320.129	88.94
320.358	91.94
320.587	97.94
320.816	99.94
321.046	108.94
321.275	87.94
321.504	95.94
321.733	99.94
321.962	104.94
322.191	89.94
322.42	84.94
322.649	86.94
322.878	108.94
323.108	108.94
323.337	103.94
323.566	134.94
323.795	143.94
324.024	184.94
324.253	332.94
324.482	699.94
324.71	1412.94
324.939	1829.94
325.168	678.94
325.397	225.94
325.626	125.94
325.855	123.94
326.084	107.94
326.313	125.94
326.542	139.94
326.77	213.94
326.999	384.94
327.228	825.94
327.457	1444.94
327.686	1165.94
327.914	337.94
328.143	172.94
328.372	159.94
328.6	139.94
328.829	119.94
329.058	120.94
329.287	118.94
329.515	113.94
329.744	107.94
329.972	88.94
330.201	146.94
330.43	179.94
330.658	133.94
330.887	128.94
331.115	104.94
331.344	108.94
331.572	109.94
331.801	104.94
332.03	91.94
332.258	101.94
332.486	87.94
332.715	97.94
332.943	94.94
333.172	110.94
333.4	90.94
333.629	118.94
333.857	109.94
334.085	136.94
334.314	136.94
334.542	211.94
334.771	204.94
334.999	128.94
335.227	126.94
335.455	88.94
335.684	103.94
335.912	98.94
336.14	92.94
336.369	85.94
336.597	86.94
336.825	99.94
337.053	95.94
337.281	94.94
337.51	88.94
337.738	94.94
337.966	93.94
338.194	91.94
338.422	93.94
338.65	94.94
338.878	98.94
339.106	74.94
339.334	93.94
339.562	96.94
339.79	78.94
340.018	88.94
340.246	74.94
340.474	87.94
340.702	81.94
340.93	94.94
341.158	81.94
341.386	86.94
341.614	90.94
341.842	89.94
342.07	90.94
342.298	106.94
342.526	92.94
342.754	84.94
342.981	83.94
343.209	86.94
343.437	82.94
343.665	71.94
343.893	90.94
344.12	89.94
344.348	94.94
344.576	85.94
344.804	94.94
345.031	107.94
345.259	85.94
345.487	96.94
345.714	86.94
345.942	94.94
346.17	88.94
346.397	77.94
346.625	86.94
346.853	103.94
347.08	101.94
347.308	84.94
347.535	92.94
347.763	91.94
347.99	106.94
348.218	99.94
348.445	111.94
348.673	102.94
348.9	91.94
349.128	89.94
349.355	78.94
349.583	81.94
349.81	89.94
350.037	91.94
350.265	91.94
350.492	87.94
350.72	92.94
350.947	102.94
351.174	103.94
351.402	109.94
351.629	109.94
351.856	95.94
352.083	100.94
352.311	96.94
352.538	118.94
352.765	99.94
352.992	107.94
353.22	104.94
353.447	115.94
353.674	92.94
353.901	101.94
354.128	95.94
354.355	89.94
354.583	96.94
354.81	88.94
355.037	82.94
355.264	100.94
355.491	92.94
355.718	102.94
355.945	97.94
356.172	97.94
356.399	99.94
356.626	91.94
356.853	81.94
357.08	99.94
357.307	113.94
357.534	80.94
357.761	87.94
357.988	84.94
358.215	113.94
358.441	94.94
358.668	96.94
358.895	88.94
359.122	92.94
359.349	78.94
359.576	81.94
359.802	93.94
360.029	104.94
360.256	106.94
360.483	89.94
360.709	59.94
360.936	91.94
361.163	95.94
361.39	95.94
361.616	86.94
361.843	87.94
362.07	85.94
362.296	99.94
362.523	81.94
362.749	74.94
362.976	85.94
363.203	89.94
363.429	89.94
363.656	98.94
363.882	83.94
364.109	85.94
364.335	113.94
364.562	79.94
364.788	91.94
365.015	99.94
365.241	86.94
365.468	93.94
365.694	91.94
365.92	95.94
366.147	98.94
366.373	87.94
366.599	78.94
366.826	83.94
367.052	85.94
367.278	84.94
367.505	87.94
367.731	88.94
367.957	80.94
368.184	77.94
368.41	100.94
368.636	100.94
368.862	114.94
369.089	85.94
369.315	104.94
369.541	100.94
369.767	100.94
369.993	92.94
370.219	97.94
370.445	97.94
370.672	84.94
370.898	80.94
371.124	95.94
371.35	79.94
371.576	83.94
371.802	75.94
372.028	67.94
372.254	93.94
372.48	92.94
372.706	84.94
372.932	81.94
373.158	77.94
373.384	85.94
373.61	91.94
373.835	90.94
374.061	101.94
374.287	86.94
374.513	104.94
374.739	84.94
374.965	88.94
375.191	85.94
375.416	77.94
375.642	89.94
375.868	92.94
376.094	80.94
376.319	92.94
376.545	86.94
376.771	89.94
376.997	103.94
377.222	84.94
377.448	93.94
377.674	95.94
377.899	83.94
378.125	98.94
378.35	104.94
378.576	91.94
378.802	73.94
379.027	93.94
379.253	86.94
379.478	82.94
379.704	104.94
379.929	81.94
380.155	87.94
380.38	88.94
380.606	88.94
380.831	89.94
381.057	90.94
381.282	88.94
381.507	98.94
381.733	107.94
381.958	105.94
382.184	95.94
382.409	93.94
382.634	100.94
382.86	103.94
383.085	93.94
383.31	107.94
383.535	111.94
383.761	97.94
383.986	108.94
384.211	95.94
384.436	112.94
384.662	96.94
384.887	92.94
385.112	106.94
385.337	107.94
385.562	105.94
385.787	102.94
386.013	102.94
386.238	125.94
386.463	101.94
386.688	112.94
386.913	103.94
387.138	100.94
387.363	110.94
387.588	80.94
387.813	102.94
388.038	107.94
388.263	104.94
388.488	90.94
388.713	83.94
388.938	110.94
389.163	104.94
389.387	96.94
389.612	97.94
389.837	104.94
390.062	85.94
390.287	91.94
390.512	65.94
390.736	84.94
390.961	90.94
391.186	95.94
391.411	88.94
391.636	96.94
391.86	103.94
392.085	84.94
392.31	84.94
392.534	84.94
392.759	76.94
392.984	85.94
393.208	96.94
393.433	110.94
393.658	105.94
393.882	93.94
394.107	80.94
394.331	90.94
394.556	81.94
394.78	87.94
395.005	98.94
395.229	81.94
395.454	82.94
395.678	103.94
395.903	85.94
396.127	75.94
396.352	90.94
396.576	98.94
396.801	84.94
397.025	105.94
397.249	96.94
397.474	103.94
397.698	88.94
397.922	82.94
398.147	70.94
398.371	81.94
398.595	80.94
398.82	99.94
399.044	88.94
399.268	96.94
399.492	83.94
399.717	89.94
399.941	96.94
400.165	78.94
400.389	100.94
400.613	85.94
400.837	88.94
401.062	89.94
401.286	89.94
401.51	91.94
401.734	82.94
401.958	92.94
402.182	116.94
402.406	126.94
402.63	110.94
402.854	84.94
403.078	87.94
403.302	101.94
403.526	92.94
403.75	98.94
403.974	75.94
404.198	87.94
404.422	92.94
404.645	91.94
404.869	93.94
405.093	97.94
405.317	99.94
405.541	103.94
405.765	95.94
405.988	113.94
406.212	143.94
406.436	194.94
406.66	148.94
406.883	83.94
407.107	91.94
407.331	88.94
407.555	92.94
407.778	95.94
408.002	87.94
408.226	99.94
408.449	81.94
408.673	87.94
408.896	80.94
409.12	87.94
409.344	91.94
409.567	90.94
409.791	79.94
410.014	87.94
410.238	97.94
410.461	91.94
410.685	95.94
410.908	97.94
411.132	98.94
411.355	96.94
411.578	88.94
411.802	81.94
412.025	87.94
412.249	87.94
412.472	104.94
412.695	88.94
412.919	83.94
413.142	85.94
413.365	81.94
413.589	90.94
413.812	83.94
414.035	96.94
414.258	90.94
414.482	92.94
414.705	92.94
414.928	95.94
415.151	77.94
415.374	90.94
415.597	74.94
415.821	80.94
416.044	86.94
416.267	109.94
416.49	99.94
416.713	96.94
416.936	85.94
417.159	79.94
417.382	90.94
417.605	95.94
417.828	86.94
418.051	84.94
418.274	94.94
418.497	94.94
418.72	76.94
418.943	88.94
419.166	84.94
419.389	80.94
419.611	90.94
419.834	96.94
420.057	84.94
420.28	87.94
420.503	78.94
420.726	87.94
420.948	90.94
421.171	96.94
421.394	90.94
421.617	83.94
421.839	76.94
422.062	95.94
422.285	99.94
422.507	92.94
422.73	96.94
422.953	88.94
423.175	83.94
423.398	97.94
423.621	88.94
423.843	79.94
424.066	81.94
424.288	93.94
424.511	101.94
424.733	108.94
424.956	108.94
425.178	94.94
425.401	96.94
425.623	94.94
425.846	93.94
426.068	85.94
426.291	92.94
426.513	83.94
426.735	84.94
426.958	75.94
427.18	73.94
427.402	116.94
427.625	154.94
427.847	129.94
428.069	118.94
428.292	94.94
428.514	95.94
428.736	93.94
428.958	83.94
429.181	89.94
429.403	84.94
429.625	84.94
429.847	99.94
430.069	95.94
430.292	81.94
430.514	83.94
430.736	85.94
430.958	83.94
431.18	83.94
431.402	86.94
431.624	76.94
431.846	87.94
432.068	92.94
432.29	94.94
432.512	97.94
432.734	84.94
432.956	81.94
433.178	103.94
433.4	86.94
433.622	92.94
433.844	76.94
434.066	96.94
434.287	85.94
434.509	78.94
434.731	81.94
434.953	100.94
435.175	91.94
435.397	80.94
435.618	81.94
435.84	108.94
436.062	134.94
436.284	115.94
436.505	66.94
436.727	96.94
436.949	81.94
437.17	88.94
437.392	87.94
437.614	76.94
437.835	107.94
438.057	119.94
438.278	107.94
438.5	104.94
438.721	119.94
438.943	95.94
439.165	89.94
439.386	70.94
439.608	99.94
439.829	97.94
440.05	103.94
440.272	129.94
440.493	95.94
440.715	81.94
440.936	82.94
441.158	90.94
441.379	93.94
441.6	91.94
441.822	91.94
442.043	89.94
442.264	101.94
442.486	106.94
442.707	95.94
442.928	101.94
443.149	139.94
443.371	111.94
443.592	104.94
443.813	115.94
444.034	106.94
444.255	90.94
444.476	83.94
444.698	86.94
444.919	95.94
445.14	129.94
445.361	111.94
445.582	104.94
445.803	117.94
446.024	122.94
446.245	124.94
446.466	89.94
446.687	83.94
446.908	77.94
447.129	85.94
447.35	78.94
447.571	87.94
447.792	92.94
448.013	83.94
448.234	109.94
448.455	97.94
448.675	111.94
448.896	117.94
449.117	96.94
449.338	99.94
449.559	127.94
449.779	121.94
450	95.94
450.221	77.94
450.442	87.94
450.662	82.94
450.883	107.94
451.104	95.94
451.324	87.94
451.545	78.94
451.766	89.94
451.986	85.94
452.207	94.94
452.428	77.94
452.648	93.94
452.869	96.94
453.089	92.94
453.31	108.94
453.53	78.94
453.751	92.94
453.971	113.94
454.192	91.94
454.412	92.94
454.633	88.94
454.853	72.94
455.073	85.94
455.294	90.94
455.514	74.94
455.734	89.94
455.955	82.94
456.175	86.94
456.395	86.94
456.616	87.94
456.836	78.94
457.056	85.94
457.276	84.94
457.497	87.94
457.717	87.94
457.937	87.94
458.157	78.94
458.377	92.94
458.598	95.94
458.818	131.94
459.038	142.94
459.258	105.94
459.478	93.94
459.698	72.94
459.918	87.94
460.138	78.94
460.358	88.94
460.578	84.94
460.798	80.94
461.018	84.94
461.238	79.94
461.458	79.94
461.678	102.94
461.898	77.94
462.118	83.94
462.338	102.94
462.558	79.94
462.777	84.94
462.997	85.94
463.217	88.94
463.437	76.94
463.657	81.94
463.876	94.94
464.096	96.94
464.316	97.94
464.536	84.94
464.755	88.94
464.975	90.94
465.195	138.94
465.414	134.94
465.634	93.94
465.854	73.94
466.073	96.94
466.293	73.94
466.512	92.94
466.732	96.94
466.951	90.94
467.171	82.94
467.391	82.94
467.61	105.94
467.829	97.94
468.049	118.94
468.268	136.94
468.488	88.94
468.707	88.94
468.927	75.94
469.146	83.94
469.365	70.94
469.585	91.94
469.804	91.94
470.023	89.94
470.243	85.94
470.462	85.94
470.681	96.94
470.901	78.94
471.12	87.94
471.339	81.94
471.558	106.94
471.777	86.94
471.997	96.94
472.216	160.94
472.435	259.94
472.654	123.94
472.873	85.94
473.092	79.94
473.311	76.94
473.53	85.94
473.749	83.94
473.968	95.94
474.187	90.94
474.406	83.94
474.625	89.94
474.844	92.94
475.063	85.94
475.282	77.94
475.501	93.94
475.72	81.94
475.939	81.94
476.158	78.94
476.377	83.94
476.596	95.94
476.814	88.94
477.033	94.94
477.252	74.94
477.471	85.94
477.69	76.94
477.908	92.94
478.127	92.94
478.346	90.94
478.564	90.94
478.783	87.94
479.002	76.94
479.22	78.94
479.439	92.94
479.658	90.94
479.876	89.94
480.095	96.94
480.313	79.94
480.532	93.94
480.751	109.94
480.969	158.94
481.188	382.94
481.406	273.94
481.624	110.94
481.843	80.94
482.061	77.94
482.28	83.94
482.498	89.94
482.717	90.94
482.935	81.94
483.153	88.94
483.372	84.94
483.59	80.94
483.808	85.94
484.027	93.94
484.245	95.94
484.463	94.94
484.681	98.94
484.9	85.94
485.118	92.94
485.336	93.94
485.554	93.94
485.772	112.94
485.99	99.94
486.209	104.94
486.427	116.94
486.645	102.94
486.863	100.94
487.081	73.94
487.299	91.94
487.517	101.94
487.735	77.94
487.953	85.94
488.171	92.94
488.389	83.94
488.607	87.94
488.825	94.94
489.043	80.94
489.261	87.94
489.479	102.94
489.696	92.94
489.914	92.94
490.132	74.94
490.35	97.94
490.568	82.94
490.786	91.94
491.003	84.94
491.221	71.94
491.439	89.94
491.657	96.94
491.874	85.94
492.092	88.94
492.31	95.94
492.527	97.94
492.745	94.94
492.963	97.94
493.18	81.94
493.398	75.94
493.615	93.94
493.833	107.94
494.05	91.94
494.268	79.94
494.485	87.94
494.703	76.94
494.92	105.94
495.138	90.94
495.355	98.94
495.573	88.94
495.79	97.94
496.008	92.94
496.225	77.94
496.442	91.94
496.66	92.94
496.877	81.94
497.094	81.94
497.312	93.94
497.529	88.94
497.746	98.94
497.963	87.94
498.181	91.94
498.398	96.94
498.615	117.94
498.832	97.94
499.049	85.94
499.267	85.94
499.484	88.94
499.701	88.94
499.918	76.94
500.135	86.94
500.352	87.94
500.569	100.94
500.786	98.94
501.003	99.94
501.22	84.94
501.437	86.94
501.654	96.94
501.871	106.94
502.088	83.94
502.305	87.94
502.522	87.94
502.739	97.94
502.956	80.94
503.172	97.94
503.389	94.94
503.606	102.94
503.823	103.94
504.04	95.94
504.256	90.94
504.473	97.94
504.69	85.94
504.907	100.94
505.123	92.94
505.34	98.94
505.557	93.94
505.773	100.94
505.99	85.94
506.207	101.94
506.423	88.94
506.64	85.94
506.856	80.94
507.073	93.94
507.289	92.94
507.506	89.94
507.722	101.94
507.939	95.94
508.155	91.94
508.372	95.94
508.588	107.94
508.805	91.94
509.021	87.94
509.238	101.94
509.454	89.94
509.67	89.94
509.887	91.94
510.103	128.94
510.319	195.94
510.536	618.94
510.752	1875.94
510.968	558.94
511.184	148.94
511.401	113.94
511.617	105.94
511.833	82.94
512.049	92.94
512.265	81.94
512.481	90.94
512.698	84.94
512.914	99.94
513.13	87.94
513.346	88.94
513.562	84.94
513.778	84.94
513.994	100.94
514.21	91.94
514.426	116.94
514.642	123.94
514.858	127.94
515.074	152.94
515.29	360.94
515.506	1162.94
515.721	473.94
515.937	138.94
516.153	105.94
516.369	92.94
