Data from Circ_2010_H10_HRD10591_00092.txt Node
Date: Wed Jan 03 10:09:59 EST 2024
User: Yrep
Spectrometer: HR+D1059
Trigger mode: 1
Integration Time (sec): 1.000000E-1
Scans to average: 1
Electric dark correction enabled: true
Nonlinearity correction enabled: false
Boxcar width: 0
XAxis mode: Wavelengths
Number of Pixels in Spectrum: 2048
>>>>>Begin Spectral Data<<<<<
223.165	-13.75
223.4	-13.75
223.635	-13.75
223.869	-5.75
224.104	-19.75
224.338	-30.75
224.573	-6.75
224.808	-24.75
225.042	-7.75
225.277	-4.75
225.511	10.25
225.746	14.25
225.98	6.25
226.215	10.25
226.449	10.25
226.683	15.25
226.918	21.25
227.152	26.25
227.387	34.25
227.621	46.25
227.856	32.25
228.09	42.25
228.324	45.25
228.559	56.25
228.793	59.25
229.027	59.25
229.262	73.25
229.496	69.25
229.73	94.25
229.964	95.25
230.199	85.25
230.433	81.25
230.667	87.25
230.901	67.25
231.136	81.25
231.37	79.25
231.604	89.25
231.838	87.25
232.072	92.25
232.306	83.25
232.541	79.25
232.775	76.25
233.009	72.25
233.243	80.25
233.477	67.25
233.711	88.25
233.945	89.25
234.179	73.25
234.413	68.25
234.647	83.25
234.881	81.25
235.115	76.25
235.349	85.25
235.583	92.25
235.817	67.25
236.051	82.25
236.285	65.25
236.519	78.25
236.753	98.25
236.987	95.25
237.221	90.25
237.455	105.25
237.689	85.25
237.922	79.25
238.156	71.25
238.39	80.25
238.624	82.25
238.858	61.25
239.091	87.25
239.325	83.25
239.559	78.25
239.793	88.25
240.027	70.25
240.26	81.25
240.494	84.25
240.728	72.25
240.961	79.25
241.195	68.25
241.429	79.25
241.662	80.25
241.896	85.25
242.13	89.25
242.363	85.25
242.597	86.25
242.83	58.25
243.064	87.25
243.298	77.25
243.531	81.25
243.765	83.25
243.998	90.25
244.232	76.25
244.465	78.25
244.699	95.25
244.932	94.25
245.166	85.25
245.399	81.25
245.633	94.25
245.866	77.25
246.099	71.25
246.333	90.25
246.566	76.25
246.8	100.25
247.033	89.25
247.266	89.25
247.5	64.25
247.733	80.25
247.966	80.25
248.2	78.25
248.433	89.25
248.666	78.25
248.899	86.25
249.133	84.25
249.366	111.25
249.599	84.25
249.832	103.25
250.066	81.25
250.299	91.25
250.532	74.25
250.765	74.25
250.998	82.25
251.231	91.25
251.465	91.25
251.698	78.25
251.931	83.25
252.164	96.25
252.397	83.25
252.63	96.25
252.863	97.25
253.096	89.25
253.329	91.25
253.562	96.25
253.795	85.25
254.028	89.25
254.261	90.25
254.494	73.25
254.727	94.25
254.96	89.25
255.193	89.25
255.426	65.25
255.659	89.25
255.892	107.25
256.124	96.25
256.357	87.25
256.59	82.25
256.823	90.25
257.056	89.25
257.289	83.25
257.521	83.25
257.754	84.25
257.987	94.25
258.22	84.25
258.452	86.25
258.685	87.25
258.918	105.25
259.151	88.25
259.383	82.25
259.616	97.25
259.849	77.25
260.081	97.25
260.314	76.25
260.547	85.25
260.779	90.25
261.012	102.25
261.244	101.25
261.477	93.25
261.71	87.25
261.942	119.25
262.175	122.25
262.407	88.25
262.64	90.25
262.872	88.25
263.105	83.25
263.337	91.25
263.57	83.25
263.802	91.25
264.035	78.25
264.267	68.25
264.499	76.25
264.732	79.25
264.964	95.25
265.197	74.25
265.429	92.25
265.661	87.25
265.894	86.25
266.126	83.25
266.358	94.25
266.591	84.25
266.823	86.25
267.055	74.25
267.287	106.25
267.52	91.25
267.752	86.25
267.984	84.25
268.216	98.25
268.448	84.25
268.681	88.25
268.913	103.25
269.145	87.25
269.377	79.25
269.609	104.25
269.841	89.25
270.073	94.25
270.306	72.25
270.538	107.25
270.77	87.25
271.002	84.25
271.234	87.25
271.466	95.25
271.698	105.25
271.93	98.25
272.162	91.25
272.394	97.25
272.626	87.25
272.858	97.25
273.09	100.25
273.322	80.25
273.553	105.25
273.785	95.25
274.017	88.25
274.249	87.25
274.481	102.25
274.713	79.25
274.945	97.25
275.176	95.25
275.408	95.25
275.64	101.25
275.872	102.25
276.104	93.25
276.335	96.25
276.567	91.25
276.799	128.25
277.031	134.25
277.262	142.25
277.494	122.25
277.726	94.25
277.957	92.25
278.189	92.25
278.421	87.25
278.652	103.25
278.884	96.25
279.115	86.25
279.347	97.25
279.579	97.25
279.81	106.25
280.042	131.25
280.273	161.25
280.505	120.25
280.736	106.25
280.968	87.25
281.199	96.25
281.431	89.25
281.662	80.25
281.894	86.25
282.125	96.25
282.356	138.25
282.588	161.25
282.819	108.25
283.051	97.25
283.282	97.25
283.513	93.25
283.745	101.25
283.976	96.25
284.207	87.25
284.439	84.25
284.67	70.25
284.901	81.25
285.132	87.25
285.364	102.25
285.595	91.25
285.826	91.25
286.057	93.25
286.288	81.25
286.52	87.25
286.751	89.25
286.982	96.25
287.213	91.25
287.444	89.25
287.675	107.25
287.906	103.25
288.138	100.25
288.369	95.25
288.6	98.25
288.831	79.25
289.062	78.25
289.293	88.25
289.524	83.25
289.755	99.25
289.986	98.25
290.217	88.25
290.448	83.25
290.679	90.25
290.91	92.25
291.141	102.25
291.371	88.25
291.602	92.25
291.833	85.25
292.064	87.25
292.295	94.25
292.526	91.25
292.757	95.25
292.987	86.25
293.218	91.25
293.449	87.25
293.68	110.25
293.91	102.25
294.141	99.25
294.372	88.25
294.603	99.25
294.833	81.25
295.064	94.25
295.295	104.25
295.525	102.25
295.756	88.25
295.987	138.25
296.217	172.25
296.448	127.25
296.679	104.25
296.909	106.25
297.14	97.25
297.37	96.25
297.601	84.25
297.831	106.25
298.062	99.25
298.292	81.25
298.523	89.25
298.753	91.25
298.984	80.25
299.214	76.25
299.445	93.25
299.675	103.25
299.905	92.25
300.136	101.25
300.366	96.25
300.597	96.25
300.827	94.25
301.057	110.25
301.288	111.25
301.518	96.25
301.748	105.25
301.979	112.25
302.209	106.25
302.439	102.25
302.669	96.25
302.9	103.25
303.13	103.25
303.36	92.25
303.59	112.25
303.82	119.25
304.051	107.25
304.281	67.25
304.511	105.25
304.741	94.25
304.971	110.25
305.201	87.25
305.431	95.25
305.661	86.25
305.891	93.25
306.121	103.25
306.352	103.25
306.582	115.25
306.812	104.25
307.042	109.25
307.272	112.25
307.502	122.25
307.731	115.25
307.961	109.25
308.191	80.25
308.421	88.25
308.651	94.25
308.881	95.25
309.111	106.25
309.341	91.25
309.571	119.25
309.8	102.25
310.03	109.25
310.26	105.25
310.49	98.25
310.72	110.25
310.949	111.25
311.179	118.25
311.409	93.25
311.639	112.25
311.868	105.25
312.098	100.25
312.328	104.25
312.557	106.25
312.787	120.25
313.017	97.25
313.246	92.25
313.476	82.25
313.706	98.25
313.935	88.25
314.165	108.25
314.394	108.25
314.624	112.25
314.853	108.25
315.083	87.25
315.312	86.25
315.542	91.25
315.771	91.25
316.001	90.25
316.23	87.25
316.46	105.25
316.689	88.25
316.919	93.25
317.148	97.25
317.377	106.25
317.607	100.25
317.836	102.25
318.065	97.25
318.295	116.25
318.524	95.25
318.753	76.25
318.983	98.25
319.212	104.25
319.441	112.25
319.67	105.25
319.9	94.25
320.129	108.25
320.358	91.25
320.587	102.25
320.816	113.25
321.046	112.25
321.275	112.25
321.504	92.25
321.733	120.25
321.962	112.25
322.191	100.25
322.42	79.25
322.649	132.25
322.878	111.25
323.108	129.25
323.337	142.25
323.566	149.25
323.795	176.25
324.024	248.25
324.253	502.25
324.482	1035.25
324.71	2171.25
324.939	2790.25
325.168	970.25
325.397	267.25
325.626	176.25
325.855	140.25
326.084	138.25
326.313	147.25
326.542	184.25
326.77	260.25
326.999	574.25
327.228	1175.25
327.457	2136.25
327.686	1682.25
327.914	498.25
328.143	353.25
328.372	381.25
328.6	223.25
328.829	159.25
329.058	174.25
329.287	172.25
329.515	147.25
329.744	186.25
329.972	264.25
330.201	520.25
330.43	697.25
330.658	364.25
330.887	218.25
331.115	158.25
331.344	114.25
331.572	120.25
331.801	109.25
332.03	107.25
332.258	110.25
332.486	103.25
332.715	120.25
332.943	107.25
333.172	103.25
333.4	128.25
333.629	128.25
333.857	176.25
334.085	268.25
334.314	506.25
334.542	887.25
334.771	810.25
334.999	257.25
335.227	137.25
335.455	113.25
335.684	109.25
335.912	125.25
336.14	122.25
336.369	105.25
336.597	103.25
336.825	108.25
337.053	111.25
337.281	92.25
337.51	91.25
337.738	80.25
337.966	103.25
338.194	86.25
338.422	107.25
338.65	110.25
338.878	103.25
339.106	102.25
339.334	92.25
339.562	93.25
339.79	99.25
340.018	120.25
340.246	109.25
340.474	96.25
340.702	115.25
340.93	92.25
341.158	93.25
341.386	93.25
341.614	108.25
341.842	94.25
342.07	103.25
342.298	96.25
342.526	99.25
342.754	89.25
342.981	91.25
343.209	87.25
343.437	94.25
343.665	89.25
343.893	72.25
344.12	92.25
344.348	84.25
344.576	96.25
344.804	101.25
345.031	113.25
345.259	116.25
345.487	91.25
345.714	84.25
345.942	90.25
346.17	94.25
346.397	97.25
346.625	103.25
346.853	105.25
347.08	84.25
347.308	97.25
347.535	102.25
347.763	105.25
347.99	109.25
348.218	104.25
348.445	116.25
348.673	121.25
348.9	109.25
349.128	121.25
349.355	95.25
349.583	102.25
349.81	88.25
350.037	96.25
350.265	102.25
350.492	98.25
350.72	81.25
350.947	106.25
351.174	108.25
351.402	120.25
351.629	109.25
351.856	103.25
352.083	105.25
352.311	114.25
352.538	122.25
352.765	116.25
352.992	115.25
353.22	105.25
353.447	103.25
353.674	100.25
353.901	93.25
354.128	105.25
354.355	105.25
354.583	104.25
354.81	88.25
355.037	92.25
355.264	108.25
355.491	82.25
355.718	77.25
355.945	105.25
356.172	98.25
356.399	89.25
356.626	83.25
356.853	105.25
357.08	108.25
357.307	90.25
357.534	97.25
357.761	94.25
357.988	90.25
358.215	89.25
358.441	80.25
358.668	96.25
358.895	97.25
359.122	95.25
359.349	84.25
359.576	97.25
359.802	107.25
360.029	135.25
360.256	131.25
360.483	118.25
360.709	102.25
360.936	90.25
361.163	104.25
361.39	113.25
361.616	114.25
361.843	100.25
362.07	103.25
362.296	112.25
362.523	104.25
362.749	115.25
362.976	102.25
363.203	103.25
363.429	107.25
363.656	104.25
363.882	101.25
364.109	108.25
364.335	97.25
364.562	82.25
364.788	93.25
365.015	101.25
365.241	112.25
365.468	114.25
365.694	109.25
365.92	99.25
366.147	99.25
366.373	86.25
366.599	94.25
366.826	102.25
367.052	103.25
367.278	84.25
367.505	97.25
367.731	107.25
367.957	103.25
368.184	97.25
368.41	113.25
368.636	113.25
368.862	137.25
369.089	110.25
369.315	107.25
369.541	105.25
369.767	103.25
369.993	103.25
370.219	85.25
370.445	92.25
370.672	93.25
370.898	91.25
371.124	92.25
371.35	86.25
371.576	83.25
371.802	80.25
372.028	90.25
372.254	81.25
372.48	100.25
372.706	86.25
372.932	91.25
373.158	85.25
373.384	90.25
373.61	106.25
373.835	103.25
374.061	106.25
374.287	102.25
374.513	88.25
374.739	92.25
374.965	85.25
375.191	74.25
375.416	83.25
375.642	92.25
375.868	90.25
376.094	88.25
376.319	98.25
376.545	83.25
376.771	92.25
376.997	73.25
377.222	103.25
377.448	77.25
377.674	83.25
377.899	99.25
378.125	95.25
378.35	92.25
378.576	96.25
378.802	98.25
379.027	97.25
379.253	100.25
379.478	102.25
379.704	93.25
379.929	88.25
380.155	83.25
380.38	100.25
380.606	98.25
380.831	96.25
381.057	105.25
381.282	97.25
381.507	98.25
381.733	88.25
381.958	100.25
382.184	109.25
382.409	120.25
382.634	107.25
382.86	91.25
383.085	104.25
383.31	112.25
383.535	93.25
383.761	89.25
383.986	89.25
384.211	88.25
384.436	97.25
384.662	100.25
384.887	95.25
385.112	97.25
385.337	104.25
385.562	106.25
385.787	108.25
386.013	103.25
386.238	112.25
386.463	103.25
386.688	112.25
386.913	88.25
387.138	93.25
387.363	97.25
387.588	98.25
387.813	87.25
388.038	102.25
388.263	114.25
388.488	111.25
388.713	100.25
388.938	97.25
389.163	103.25
389.387	103.25
389.612	106.25
389.837	88.25
390.062	88.25
390.287	88.25
390.512	97.25
390.736	79.25
390.961	97.25
391.186	87.25
391.411	87.25
391.636	93.25
391.86	98.25
392.085	87.25
392.31	75.25
392.534	109.25
392.759	90.25
392.984	98.25
393.208	98.25
393.433	115.25
393.658	95.25
393.882	79.25
394.107	76.25
394.331	83.25
394.556	92.25
394.78	102.25
395.005	88.25
395.229	86.25
395.454	83.25
395.678	88.25
395.903	90.25
396.127	97.25
396.352	94.25
396.576	81.25
396.801	96.25
397.025	89.25
397.249	100.25
397.474	97.25
397.698	99.25
397.922	88.25
398.147	104.25
398.371	90.25
398.595	82.25
398.82	84.25
399.044	81.25
399.268	81.25
399.492	90.25
399.717	92.25
399.941	96.25
400.165	98.25
400.389	106.25
400.613	96.25
400.837	77.25
401.062	102.25
401.286	106.25
401.51	97.25
401.734	88.25
401.958	107.25
402.182	145.25
402.406	164.25
402.63	135.25
402.854	83.25
403.078	95.25
403.302	104.25
403.526	94.25
403.75	81.25
403.974	97.25
404.198	69.25
404.422	93.25
404.645	90.25
404.869	111.25
405.093	110.25
405.317	130.25
405.541	125.25
405.765	112.25
405.988	113.25
406.212	188.25
406.436	251.25
406.66	173.25
406.883	114.25
407.107	116.25
407.331	106.25
407.555	103.25
407.778	109.25
408.002	103.25
408.226	107.25
408.449	105.25
408.673	87.25
408.896	91.25
409.12	111.25
409.344	94.25
409.567	97.25
409.791	99.25
410.014	96.25
410.238	70.25
410.461	90.25
410.685	91.25
410.908	98.25
411.132	111.25
411.355	102.25
411.578	99.25
411.802	91.25
412.025	78.25
412.249	106.25
412.472	105.25
412.695	133.25
412.919	119.25
413.142	111.25
413.365	98.25
413.589	91.25
413.812	88.25
414.035	110.25
414.258	78.25
414.482	88.25
414.705	84.25
414.928	92.25
415.151	88.25
415.374	99.25
415.597	92.25
415.821	102.25
416.044	97.25
416.267	95.25
416.49	96.25
416.713	98.25
416.936	77.25
417.159	71.25
417.382	97.25
417.605	94.25
417.828	86.25
418.051	86.25
418.274	97.25
418.497	88.25
418.72	99.25
418.943	88.25
419.166	91.25
419.389	98.25
419.611	100.25
419.834	95.25
420.057	104.25
420.28	92.25
420.503	98.25
420.726	99.25
420.948	79.25
421.171	98.25
421.394	96.25
421.617	96.25
421.839	94.25
422.062	99.25
422.285	99.25
422.507	105.25
422.73	116.25
422.953	108.25
423.175	80.25
423.398	88.25
423.621	87.25
423.843	104.25
424.066	88.25
424.288	82.25
424.511	103.25
424.733	107.25
424.956	122.25
425.178	110.25
425.401	124.25
425.623	108.25
425.846	91.25
426.068	112.25
426.291	98.25
426.513	107.25
426.735	100.25
426.958	100.25
427.18	122.25
427.402	173.25
427.625	230.25
427.847	196.25
428.069	192.25
428.292	123.25
428.514	98.25
428.736	86.25
428.958	108.25
429.181	93.25
429.403	88.25
429.625	82.25
429.847	109.25
430.069	108.25
430.292	99.25
430.514	83.25
430.736	80.25
430.958	74.25
431.18	89.25
431.402	85.25
431.624	87.25
431.846	97.25
432.068	92.25
432.29	90.25
432.512	92.25
432.734	93.25
432.956	85.25
433.178	107.25
433.4	106.25
433.622	94.25
433.844	88.25
434.066	91.25
434.287	91.25
434.509	84.25
434.731	79.25
434.953	90.25
435.175	98.25
435.397	100.25
435.618	105.25
435.84	115.25
436.062	153.25
436.284	146.25
436.505	105.25
436.727	112.25
436.949	98.25
437.17	102.25
437.392	92.25
437.614	91.25
437.835	136.25
438.057	144.25
438.278	125.25
438.5	119.25
438.721	133.25
438.943	105.25
439.165	96.25
439.386	90.25
439.608	91.25
439.829	126.25
440.05	166.25
440.272	185.25
440.493	111.25
440.715	95.25
440.936	104.25
441.158	73.25
441.379	96.25
441.6	92.25
441.822	91.25
442.043	112.25
442.264	126.25
442.486	126.25
442.707	102.25
442.928	122.25
443.149	162.25
443.371	158.25
443.592	137.25
443.813	142.25
444.034	115.25
444.255	106.25
444.476	100.25
444.698	91.25
444.919	95.25
445.14	141.25
445.361	146.25
445.582	134.25
445.803	196.25
446.024	182.25
446.245	176.25
446.466	135.25
446.687	101.25
446.908	100.25
447.129	97.25
447.35	91.25
447.571	96.25
447.792	99.25
448.013	98.25
448.234	113.25
448.455	115.25
448.675	129.25
448.896	156.25
449.117	121.25
449.338	115.25
449.559	144.25
449.779	163.25
450	112.25
450.221	78.25
450.442	81.25
450.662	100.25
450.883	127.25
451.104	132.25
451.324	106.25
451.545	97.25
451.766	84.25
451.986	87.25
452.207	91.25
452.428	92.25
452.648	94.25
452.869	136.25
453.089	115.25
453.31	126.25
453.53	95.25
453.751	90.25
453.971	119.25
454.192	125.25
454.412	93.25
454.633	99.25
454.853	92.25
455.073	94.25
455.294	113.25
455.514	105.25
455.734	94.25
455.955	92.25
456.175	112.25
456.395	90.25
456.616	72.25
456.836	93.25
457.056	96.25
457.276	99.25
457.497	89.25
457.717	95.25
457.937	83.25
458.157	95.25
458.377	97.25
458.598	138.25
458.818	184.25
459.038	203.25
459.258	139.25
459.478	88.25
459.698	82.25
459.918	89.25
460.138	98.25
460.358	99.25
460.578	92.25
460.798	98.25
461.018	94.25
461.238	84.25
461.458	107.25
461.678	86.25
461.898	95.25
462.118	74.25
462.338	82.25
462.558	90.25
462.777	99.25
462.997	90.25
463.217	98.25
463.437	92.25
463.657	87.25
463.876	91.25
464.096	104.25
464.316	92.25
464.536	95.25
464.755	113.25
464.975	115.25
465.195	209.25
465.414	215.25
465.634	111.25
465.854	108.25
466.073	94.25
466.293	86.25
466.512	92.25
466.732	82.25
466.951	92.25
467.171	81.25
467.391	110.25
467.61	117.25
467.829	153.25
468.049	277.25
468.268	378.25
468.488	128.25
468.707	94.25
468.927	104.25
469.146	96.25
469.365	83.25
469.585	97.25
469.804	99.25
470.023	101.25
470.243	111.25
470.462	115.25
470.681	131.25
470.901	103.25
471.12	95.25
471.339	99.25
471.558	91.25
471.777	118.25
471.997	192.25
472.216	513.25
472.435	1058.25
472.654	296.25
472.873	126.25
473.092	110.25
473.311	90.25
473.53	92.25
473.749	94.25
473.968	97.25
474.187	127.25
474.406	118.25
474.625	107.25
474.844	87.25
475.063	104.25
475.282	89.25
475.501	80.25
475.72	100.25
475.939	87.25
476.158	82.25
476.377	87.25
476.596	79.25
476.814	97.25
477.033	97.25
477.252	97.25
477.471	90.25
477.69	76.25
477.908	91.25
478.127	87.25
478.346	104.25
478.564	103.25
478.783	117.25
479.002	109.25
479.22	109.25
479.439	123.25
479.658	132.25
479.876	115.25
480.095	106.25
480.313	133.25
480.532	131.25
480.751	168.25
480.969	517.25
481.188	1864.25
481.406	1149.25
481.624	217.25
481.843	105.25
482.061	96.25
482.28	104.25
482.498	79.25
482.717	83.25
482.935	91.25
483.153	84.25
483.372	99.25
483.59	101.25
483.808	99.25
484.027	98.25
484.245	91.25
484.463	104.25
484.681	84.25
484.9	92.25
485.118	87.25
485.336	109.25
485.554	77.25
485.772	99.25
485.99	95.25
486.209	89.25
486.427	118.25
486.645	134.25
486.863	128.25
487.081	107.25
487.299	90.25
487.517	101.25
487.735	92.25
487.953	85.25
488.171	86.25
488.389	99.25
488.607	99.25
488.825	95.25
489.043	81.25
489.261	95.25
489.479	89.25
489.696	103.25
489.914	80.25
490.132	107.25
490.35	109.25
490.568	99.25
490.786	94.25
491.003	103.25
491.221	105.25
491.439	88.25
491.657	104.25
491.874	89.25
492.092	90.25
492.31	96.25
492.527	112.25
492.745	101.25
492.963	98.25
493.18	91.25
493.398	107.25
493.615	94.25
493.833	96.25
494.05	97.25
494.268	83.25
494.485	94.25
494.703	95.25
494.92	91.25
495.138	94.25
495.355	85.25
495.573	90.25
495.79	100.25
496.008	99.25
496.225	109.25
496.442	99.25
496.66	95.25
496.877	102.25
497.094	98.25
497.312	92.25
497.529	94.25
497.746	85.25
497.963	93.25
498.181	93.25
498.398	98.25
498.615	114.25
498.832	97.25
499.049	96.25
499.267	98.25
499.484	102.25
499.701	91.25
499.918	88.25
500.135	88.25
500.352	84.25
500.569	96.25
500.786	95.25
501.003	106.25
501.22	95.25
501.437	109.25
501.654	99.25
501.871	124.25
502.088	99.25
502.305	100.25
502.522	91.25
502.739	103.25
502.956	99.25
503.172	92.25
503.389	103.25
503.606	121.25
503.823	102.25
504.04	98.25
504.256	88.25
504.473	113.25
504.69	92.25
504.907	97.25
505.123	94.25
505.34	93.25
505.557	97.25
505.773	104.25
505.99	87.25
506.207	90.25
506.423	97.25
506.64	95.25
506.856	96.25
507.073	94.25
507.289	98.25
507.506	86.25
507.722	115.25
507.939	117.25
508.155	116.25
508.372	89.25
508.588	100.25
508.805	97.25
509.021	98.25
509.238	104.25
509.454	84.25
509.67	103.25
509.887	113.25
510.103	121.25
510.319	221.25
510.536	736.25
510.752	2412.25
510.968	716.25
511.184	168.25
511.401	113.25
511.617	110.25
511.833	112.25
512.049	101.25
512.265	89.25
512.481	111.25
512.698	90.25
