Data from Circ_2010_H10_HRD10591_00005.txt Node
Date: Wed Jan 03 10:09:42 EST 2024
User: Yrep
Spectrometer: HR+D1059
Trigger mode: 1
Integration Time (sec): 1.000000E-1
Scans to average: 1
Electric dark correction enabled: true
Nonlinearity correction enabled: false
Boxcar width: 0
XAxis mode: Wavelengths
Number of Pixels in Spectrum: 2048
>>>>>Begin Spectral Data<<<<<
223.165	-17.69
223.4	-17.69
223.635	-17.69
223.869	-17.69
224.104	-15.69
224.338	-7.69
224.573	-26.69
224.808	-10.69
225.042	-24.69
225.277	4.31
225.511	4.31
225.746	14.31
225.98	-0.69
226.215	3.31
226.449	18.31
226.683	20.31
226.918	36.31
227.152	20.31
227.387	23.31
227.621	30.31
227.856	56.31
228.09	46.31
228.324	49.31
228.559	70.31
228.793	67.31
229.027	51.31
229.262	58.31
229.496	57.31
229.73	77.31
229.964	86.31
230.199	71.31
230.433	65.31
230.667	77.31
230.901	74.31
231.136	78.31
231.37	72.31
231.604	86.31
231.838	84.31
232.072	86.31
232.306	87.31
232.541	67.31
232.775	77.31
233.009	84.31
233.243	83.31
233.477	80.31
233.711	79.31
233.945	70.31
234.179	70.31
234.413	76.31
234.647	80.31
234.881	70.31
235.115	75.31
235.349	82.31
235.583	86.31
235.817	78.31
236.051	91.31
236.285	83.31
236.519	82.31
236.753	84.31
236.987	68.31
237.221	71.31
237.455	77.31
237.689	88.31
237.922	77.31
238.156	80.31
238.39	63.31
238.624	73.31
238.858	86.31
239.091	69.31
239.325	68.31
239.559	75.31
239.793	69.31
240.027	84.31
240.26	78.31
240.494	73.31
240.728	85.31
240.961	71.31
241.195	82.31
241.429	77.31
241.662	80.31
241.896	85.31
242.13	74.31
242.363	70.31
242.597	69.31
242.83	85.31
243.064	77.31
243.298	69.31
243.531	74.31
243.765	74.31
243.998	69.31
244.232	76.31
244.465	75.31
244.699	77.31
244.932	89.31
245.166	65.31
245.399	74.31
245.633	87.31
245.866	78.31
246.099	80.31
246.333	75.31
246.566	89.31
246.8	80.31
247.033	79.31
247.266	81.31
247.5	85.31
247.733	77.31
247.966	64.31
248.2	74.31
248.433	79.31
248.666	67.31
248.899	79.31
249.133	86.31
249.366	90.31
249.599	88.31
249.832	79.31
250.066	79.31
250.299	78.31
250.532	79.31
250.765	76.31
250.998	85.31
251.231	80.31
251.465	71.31
251.698	59.31
251.931	76.31
252.164	76.31
252.397	79.31
252.63	74.31
252.863	75.31
253.096	79.31
253.329	75.31
253.562	90.31
253.795	79.31
254.028	82.31
254.261	90.31
254.494	86.31
254.727	68.31
254.96	87.31
255.193	81.31
255.426	84.31
255.659	78.31
255.892	83.31
256.124	74.31
256.357	86.31
256.59	71.31
256.823	82.31
257.056	85.31
257.289	74.31
257.521	71.31
257.754	87.31
257.987	94.31
258.22	93.31
258.452	87.31
258.685	73.31
258.918	78.31
259.151	70.31
259.383	82.31
259.616	92.31
259.849	81.31
260.081	86.31
260.314	70.31
260.547	72.31
260.779	76.31
261.012	80.31
261.244	69.31
261.477	94.31
261.71	92.31
261.942	94.31
262.175	93.31
262.407	102.31
262.64	71.31
262.872	76.31
263.105	77.31
263.337	76.31
263.57	82.31
263.802	78.31
264.035	77.31
264.267	73.31
264.499	83.31
264.732	86.31
264.964	85.31
265.197	73.31
265.429	85.31
265.661	71.31
265.894	77.31
266.126	74.31
266.358	89.31
266.591	87.31
266.823	83.31
267.055	71.31
267.287	80.31
267.52	81.31
267.752	91.31
267.984	86.31
268.216	101.31
268.448	63.31
268.681	86.31
268.913	82.31
269.145	86.31
269.377	77.31
269.609	74.31
269.841	90.31
270.073	83.31
270.306	82.31
270.538	75.31
270.77	71.31
271.002	77.31
271.234	95.31
271.466	90.31
271.698	79.31
271.93	73.31
272.162	83.31
272.394	89.31
272.626	83.31
272.858	89.31
273.09	93.31
273.322	98.31
273.553	91.31
273.785	79.31
274.017	95.31
274.249	69.31
274.481	81.31
274.713	95.31
274.945	84.31
275.176	88.31
275.408	81.31
275.64	77.31
275.872	75.31
276.104	86.31
276.335	90.31
276.567	85.31
276.799	102.31
277.031	98.31
277.262	91.31
277.494	78.31
277.726	78.31
277.957	81.31
278.189	82.31
278.421	87.31
278.652	87.31
278.884	90.31
279.115	71.31
279.347	73.31
279.579	86.31
279.81	87.31
280.042	86.31
280.273	93.31
280.505	86.31
280.736	77.31
280.968	83.31
281.199	98.31
281.431	92.31
281.662	92.31
281.894	78.31
282.125	99.31
282.356	113.31
282.588	127.31
282.819	100.31
283.051	88.31
283.282	86.31
283.513	105.31
283.745	86.31
283.976	81.31
284.207	81.31
284.439	81.31
284.67	71.31
284.901	98.31
285.132	72.31
285.364	86.31
285.595	94.31
285.826	87.31
286.057	88.31
286.288	84.31
286.52	77.31
286.751	71.31
286.982	87.31
287.213	81.31
287.444	93.31
287.675	79.31
287.906	81.31
288.138	86.31
288.369	102.31
288.6	92.31
288.831	89.31
289.062	83.31
289.293	82.31
289.524	83.31
289.755	91.31
289.986	106.31
290.217	82.31
290.448	81.31
290.679	85.31
290.91	75.31
291.141	81.31
291.371	89.31
291.602	80.31
291.833	74.31
292.064	101.31
292.295	79.31
292.526	90.31
292.757	97.31
292.987	92.31
293.218	77.31
293.449	88.31
293.68	96.31
293.91	90.31
294.141	79.31
294.372	105.31
294.603	92.31
294.833	80.31
295.064	100.31
295.295	107.31
295.525	85.31
295.756	102.31
295.987	108.31
296.217	122.31
296.448	113.31
296.679	77.31
296.909	103.31
297.14	109.31
297.37	80.31
297.601	88.31
297.831	88.31
298.062	85.31
298.292	79.31
298.523	84.31
298.753	90.31
298.984	83.31
299.214	93.31
299.445	115.31
299.675	79.31
299.905	99.31
300.136	78.31
300.366	83.31
300.597	80.31
300.827	82.31
301.057	95.31
301.288	110.31
301.518	91.31
301.748	97.31
301.979	102.31
302.209	89.31
302.439	89.31
302.669	82.31
302.9	74.31
303.13	93.31
303.36	102.31
303.59	107.31
303.82	101.31
304.051	103.31
304.281	92.31
304.511	85.31
304.741	89.31
304.971	88.31
305.201	84.31
305.431	78.31
305.661	88.31
305.891	91.31
306.121	90.31
306.352	99.31
306.582	106.31
306.812	86.31
307.042	89.31
307.272	87.31
307.502	95.31
307.731	99.31
307.961	102.31
308.191	86.31
308.421	78.31
308.651	77.31
308.881	77.31
309.111	89.31
309.341	99.31
309.571	93.31
309.8	92.31
310.03	92.31
310.26	92.31
310.49	83.31
310.72	96.31
310.949	93.31
311.179	93.31
311.409	87.31
311.639	85.31
311.868	85.31
312.098	92.31
312.328	87.31
312.557	93.31
312.787	101.31
313.017	90.31
313.246	104.31
313.476	98.31
313.706	96.31
313.935	119.31
314.165	86.31
314.394	92.31
314.624	96.31
314.853	79.31
315.083	96.31
315.312	92.31
315.542	91.31
315.771	91.31
316.001	77.31
316.23	83.31
316.46	85.31
316.689	87.31
316.919	92.31
317.148	87.31
317.377	95.31
317.607	86.31
317.836	92.31
318.065	91.31
318.295	83.31
318.524	81.31
318.753	100.31
318.983	90.31
319.212	98.31
319.441	101.31
319.67	118.31
319.9	94.31
320.129	82.31
320.358	96.31
320.587	99.31
320.816	95.31
321.046	91.31
321.275	90.31
321.504	101.31
321.733	105.31
321.962	113.31
322.191	105.31
322.42	103.31
322.649	92.31
322.878	103.31
323.108	105.31
323.337	113.31
323.566	127.31
323.795	135.31
324.024	187.31
324.253	306.31
324.482	691.31
324.71	1391.31
324.939	1773.31
325.168	659.31
325.397	205.31
325.626	147.31
325.855	129.31
326.084	108.31
326.313	129.31
326.542	149.31
326.77	179.31
326.999	410.31
327.228	776.31
327.457	1399.31
327.686	1125.31
327.914	315.31
328.143	185.31
328.372	150.31
328.6	113.31
328.829	114.31
329.058	123.31
329.287	120.31
329.515	104.31
329.744	105.31
329.972	105.31
330.201	132.31
330.43	148.31
330.658	129.31
330.887	117.31
331.115	116.31
331.344	110.31
331.572	104.31
331.801	82.31
332.03	94.31
332.258	89.31
332.486	94.31
332.715	87.31
332.943	108.31
333.172	105.31
333.4	94.31
333.629	107.31
333.857	97.31
334.085	108.31
334.314	123.31
334.542	167.31
334.771	157.31
334.999	98.31
335.227	98.31
335.455	88.31
335.684	85.31
335.912	88.31
336.14	100.31
336.369	95.31
336.597	106.31
336.825	92.31
337.053	96.31
337.281	98.31
337.51	88.31
337.738	93.31
337.966	96.31
338.194	88.31
338.422	97.31
338.65	84.31
338.878	82.31
339.106	102.31
339.334	92.31
339.562	91.31
339.79	89.31
340.018	92.31
340.246	99.31
340.474	86.31
340.702	92.31
340.93	84.31
341.158	97.31
341.386	82.31
341.614	92.31
341.842	99.31
342.07	91.31
342.298	92.31
342.526	83.31
342.754	87.31
342.981	93.31
343.209	95.31
343.437	84.31
343.665	82.31
343.893	73.31
344.12	95.31
344.348	93.31
344.576	75.31
344.804	83.31
345.031	86.31
345.259	95.31
345.487	99.31
345.714	95.31
345.942	94.31
346.17	97.31
346.397	93.31
346.625	91.31
346.853	93.31
347.08	89.31
347.308	94.31
347.535	86.31
347.763	109.31
347.99	98.31
348.218	95.31
348.445	98.31
348.673	91.31
348.9	75.31
349.128	88.31
349.355	89.31
349.583	103.31
349.81	96.31
350.037	85.31
350.265	92.31
350.492	85.31
350.72	88.31
350.947	85.31
351.174	94.31
351.402	100.31
351.629	103.31
351.856	89.31
352.083	101.31
352.311	106.31
352.538	122.31
352.765	95.31
352.992	112.31
353.22	113.31
353.447	113.31
353.674	98.31
353.901	82.31
354.128	78.31
354.355	90.31
354.583	90.31
354.81	98.31
355.037	114.31
355.264	93.31
355.491	95.31
355.718	86.31
355.945	83.31
356.172	100.31
356.399	100.31
356.626	84.31
356.853	87.31
357.08	100.31
357.307	90.31
357.534	90.31
357.761	88.31
357.988	92.31
358.215	94.31
358.441	82.31
358.668	90.31
358.895	89.31
359.122	90.31
359.349	86.31
359.576	93.31
359.802	95.31
360.029	92.31
360.256	105.31
360.483	101.31
360.709	77.31
360.936	97.31
361.163	103.31
361.39	91.31
361.616	75.31
361.843	92.31
362.07	106.31
362.296	89.31
362.523	83.31
362.749	73.31
362.976	92.31
363.203	78.31
363.429	85.31
363.656	90.31
363.882	91.31
364.109	90.31
364.335	97.31
364.562	93.31
364.788	85.31
365.015	101.31
365.241	76.31
365.468	87.31
365.694	113.31
365.92	97.31
366.147	87.31
366.373	76.31
366.599	80.31
366.826	85.31
367.052	98.31
367.278	96.31
367.505	89.31
367.731	103.31
367.957	93.31
368.184	90.31
368.41	92.31
368.636	101.31
368.862	109.31
369.089	108.31
369.315	94.31
369.541	87.31
369.767	90.31
369.993	82.31
370.219	78.31
370.445	81.31
370.672	103.31
370.898	89.31
371.124	96.31
371.35	78.31
371.576	79.31
371.802	87.31
372.028	92.31
372.254	91.31
372.48	84.31
372.706	75.31
372.932	84.31
373.158	98.31
373.384	76.31
373.61	78.31
373.835	78.31
374.061	86.31
374.287	89.31
374.513	86.31
374.739	83.31
374.965	92.31
375.191	83.31
375.416	87.31
375.642	89.31
375.868	86.31
376.094	103.31
376.319	79.31
376.545	89.31
376.771	92.31
376.997	89.31
377.222	87.31
377.448	93.31
377.674	78.31
377.899	82.31
378.125	88.31
378.35	80.31
378.576	78.31
378.802	95.31
379.027	103.31
379.253	77.31
379.478	89.31
379.704	93.31
379.929	100.31
380.155	102.31
380.38	106.31
380.606	93.31
380.831	76.31
381.057	98.31
381.282	88.31
381.507	94.31
381.733	92.31
381.958	93.31
382.184	90.31
382.409	98.31
382.634	105.31
382.86	96.31
383.085	101.31
383.31	99.31
383.535	113.31
383.761	100.31
383.986	98.31
384.211	107.31
384.436	102.31
384.662	104.31
384.887	105.31
385.112	99.31
385.337	114.31
385.562	97.31
385.787	88.31
386.013	100.31
386.238	105.31
386.463	113.31
386.688	105.31
386.913	111.31
387.138	109.31
387.363	103.31
387.588	110.31
387.813	101.31
388.038	101.31
388.263	119.31
388.488	120.31
388.713	92.31
388.938	107.31
389.163	110.31
389.387	100.31
389.612	91.31
389.837	81.31
390.062	103.31
390.287	95.31
390.512	92.31
390.736	77.31
390.961	102.31
391.186	92.31
391.411	86.31
391.636	70.31
391.86	86.31
392.085	78.31
392.31	64.31
392.534	77.31
392.759	87.31
392.984	89.31
393.208	94.31
393.433	118.31
393.658	112.31
393.882	78.31
394.107	84.31
394.331	94.31
394.556	91.31
394.78	84.31
395.005	94.31
395.229	79.31
395.454	71.31
395.678	73.31
395.903	108.31
396.127	95.31
396.352	85.31
396.576	70.31
396.801	74.31
397.025	92.31
397.249	85.31
397.474	83.31
397.698	88.31
397.922	73.31
398.147	87.31
398.371	84.31
398.595	86.31
398.82	87.31
399.044	90.31
399.268	87.31
399.492	81.31
399.717	71.31
399.941	91.31
400.165	87.31
400.389	79.31
400.613	91.31
400.837	82.31
401.062	90.31
401.286	81.31
401.51	89.31
401.734	90.31
401.958	98.31
402.182	101.31
402.406	130.31
402.63	118.31
402.854	92.31
403.078	76.31
403.302	74.31
403.526	96.31
403.75	81.31
403.974	77.31
404.198	83.31
404.422	68.31
404.645	85.31
404.869	92.31
405.093	93.31
405.317	88.31
405.541	87.31
405.765	92.31
405.988	102.31
406.212	155.31
406.436	189.31
406.66	137.31
406.883	77.31
407.107	84.31
407.331	97.31
407.555	85.31
407.778	86.31
408.002	86.31
408.226	91.31
408.449	70.31
408.673	93.31
408.896	92.31
409.12	85.31
409.344	92.31
409.567	84.31
409.791	77.31
410.014	86.31
410.238	85.31
410.461	81.31
410.685	93.31
410.908	90.31
411.132	94.31
411.355	106.31
411.578	87.31
411.802	91.31
412.025	89.31
412.249	82.31
412.472	86.31
412.695	86.31
412.919	94.31
413.142	91.31
413.365	82.31
413.589	75.31
413.812	91.31
414.035	84.31
414.258	92.31
414.482	84.31
414.705	93.31
414.928	92.31
415.151	84.31
415.374	92.31
415.597	93.31
415.821	66.31
416.044	89.31
416.267	87.31
416.49	96.31
416.713	100.31
416.936	106.31
417.159	73.31
417.382	88.31
417.605	81.31
417.828	85.31
418.051	89.31
418.274	84.31
418.497	83.31
418.72	90.31
418.943	75.31
419.166	79.31
419.389	85.31
419.611	91.31
419.834	92.31
420.057	88.31
420.28	80.31
420.503	90.31
420.726	79.31
420.948	90.31
421.171	88.31
421.394	94.31
421.617	84.31
421.839	77.31
422.062	81.31
422.285	96.31
422.507	103.31
422.73	116.31
422.953	93.31
423.175	79.31
423.398	93.31
423.621	90.31
423.843	93.31
424.066	87.31
424.288	81.31
424.511	75.31
424.733	99.31
424.956	96.31
425.178	93.31
425.401	78.31
425.623	90.31
425.846	88.31
426.068	95.31
426.291	79.31
426.513	86.31
426.735	76.31
426.958	75.31
427.18	110.31
427.402	117.31
427.625	139.31
427.847	123.31
428.069	122.31
428.292	90.31
428.514	101.31
428.736	78.31
428.958	65.31
429.181	77.31
429.403	61.31
429.625	93.31
429.847	82.31
430.069	82.31
430.292	98.31
430.514	77.31
430.736	97.31
430.958	83.31
431.18	92.31
431.402	74.31
431.624	83.31
431.846	87.31
432.068	91.31
432.29	83.31
432.512	97.31
432.734	88.31
432.956	98.31
433.178	98.31
433.4	88.31
433.622	102.31
433.844	89.31
434.066	76.31
434.287	90.31
434.509	86.31
434.731	98.31
434.953	83.31
435.175	84.31
435.397	84.31
435.618	88.31
435.84	109.31
436.062	106.31
436.284	98.31
436.505	86.31
436.727	109.31
436.949	74.31
437.17	87.31
437.392	78.31
437.614	96.31
437.835	98.31
438.057	106.31
438.278	93.31
438.5	93.31
438.721	110.31
438.943	90.31
439.165	85.31
439.386	100.31
439.608	86.31
439.829	94.31
440.05	118.31
440.272	117.31
440.493	85.31
440.715	84.31
440.936	105.31
441.158	84.31
441.379	86.31
441.6	83.31
441.822	86.31
442.043	88.31
442.264	102.31
442.486	89.31
442.707	87.31
442.928	93.31
443.149	113.31
443.371	106.31
443.592	94.31
443.813	106.31
444.034	98.31
444.255	79.31
444.476	94.31
444.698	94.31
444.919	92.31
445.14	143.31
445.361	122.31
445.582	94.31
445.803	118.31
446.024	123.31
446.245	120.31
446.466	84.31
446.687	81.31
446.908	87.31
447.129	88.31
447.35	82.31
447.571	87.31
447.792	86.31
448.013	91.31
448.234	103.31
448.455	97.31
448.675	111.31
448.896	114.31
449.117	88.31
449.338	103.31
449.559	130.31
449.779	122.31
450	95.31
450.221	83.31
450.442	79.31
450.662	92.31
450.883	93.31
451.104	106.31
451.324	77.31
451.545	77.31
451.766	80.31
451.986	71.31
452.207	78.31
452.428	85.31
452.648	94.31
452.869	98.31
453.089	99.31
453.31	106.31
453.53	84.31
453.751	90.31
453.971	99.31
454.192	95.31
454.412	73.31
454.633	92.31
454.853	87.31
455.073	81.31
455.294	83.31
455.514	86.31
455.734	82.31
455.955	83.31
456.175	97.31
456.395	83.31
456.616	94.31
456.836	78.31
457.056	77.31
457.276	85.31
457.497	84.31
457.717	93.31
457.937	87.31
458.157	79.31
458.377	81.31
458.598	83.31
458.818	136.31
459.038	139.31
459.258	121.31
459.478	90.31
459.698	79.31
459.918	72.31
460.138	84.31
460.358	72.31
460.578	73.31
460.798	82.31
461.018	87.31
461.238	73.31
461.458	68.31
461.678	76.31
461.898	91.31
462.118	87.31
462.338	82.31
462.558	84.31
462.777	89.31
462.997	90.31
463.217	75.31
463.437	74.31
463.657	93.31
463.876	84.31
464.096	87.31
464.316	92.31
464.536	90.31
464.755	84.31
464.975	90.31
465.195	138.31
465.414	125.31
465.634	75.31
465.854	92.31
466.073	100.31
466.293	85.31
466.512	75.31
466.732	92.31
466.951	96.31
467.171	84.31
467.391	81.31
467.61	101.31
467.829	94.31
468.049	93.31
468.268	115.31
468.488	79.31
468.707	80.31
468.927	76.31
469.146	76.31
469.365	84.31
469.585	72.31
469.804	92.31
470.023	90.31
470.243	92.31
470.462	86.31
470.681	113.31
470.901	96.31
471.12	86.31
471.339	85.31
471.558	98.31
471.777	88.31
471.997	82.31
472.216	118.31
472.435	183.31
472.654	100.31
472.873	95.31
473.092	90.31
473.311	85.31
473.53	75.31
473.749	92.31
473.968	82.31
474.187	101.31
474.406	96.31
474.625	74.31
474.844	83.31
475.063	91.31
475.282	81.31
475.501	77.31
475.72	86.31
475.939	92.31
476.158	92.31
476.377	85.31
476.596	97.31
476.814	84.31
477.033	86.31
477.252	77.31
477.471	93.31
477.69	84.31
477.908	82.31
478.127	79.31
478.346	71.31
478.564	65.31
478.783	101.31
479.002	84.31
479.22	84.31
479.439	89.31
479.658	96.31
479.876	85.31
480.095	92.31
480.313	97.31
480.532	90.31
480.751	107.31
480.969	131.31
481.188	259.31
481.406	189.31
481.624	104.31
481.843	100.31
482.061	85.31
482.28	90.31
482.498	88.31
482.717	86.31
482.935	82.31
483.153	76.31
483.372	92.31
483.59	77.31
483.808	83.31
484.027	89.31
484.245	97.31
484.463	76.31
484.681	95.31
484.9	90.31
485.118	98.31
485.336	106.31
485.554	106.31
485.772	97.31
485.99	103.31
486.209	117.31
486.427	109.31
486.645	118.31
486.863	112.31
487.081	99.31
487.299	93.31
487.517	87.31
487.735	73.31
487.953	83.31
488.171	90.31
488.389	97.31
488.607	94.31
488.825	89.31
489.043	83.31
489.261	98.31
489.479	77.31
489.696	91.31
489.914	88.31
490.132	81.31
490.35	94.31
490.568	103.31
490.786	92.31
491.003	89.31
491.221	92.31
491.439	86.31
491.657	100.31
491.874	87.31
492.092	97.31
492.31	84.31
492.527	77.31
492.745	86.31
492.963	91.31
493.18	87.31
493.398	93.31
493.615	94.31
493.833	82.31
494.05	90.31
494.268	93.31
494.485	81.31
494.703	92.31
494.92	89.31
495.138	65.31
495.355	71.31
495.573	95.31
495.79	93.31
496.008	104.31
496.225	95.31
496.442	97.31
496.66	101.31
496.877	95.31
497.094	93.31
497.312	86.31
497.529	82.31
497.746	86.31
497.963	79.31
498.181	88.31
498.398	92.31
498.615	103.31
498.832	108.31
499.049	79.31
499.267	98.31
499.484	96.31
499.701	90.31
499.918	89.31
500.135	78.31
500.352	95.31
500.569	83.31
500.786	89.31
501.003	78.31
501.22	97.31
501.437	87.31
501.654	100.31
501.871	84.31
502.088	78.31
502.305	99.31
502.522	98.31
502.739	97.31
502.956	87.31
503.172	82.31
503.389	97.31
503.606	114.31
503.823	91.31
504.04	97.31
504.256	89.31
504.473	93.31
504.69	101.31
504.907	90.31
505.123	83.31
505.34	89.31
505.557	95.31
505.773	82.31
505.99	92.31
506.207	89.31
506.423	82.31
506.64	82.31
506.856	90.31
507.073	93.31
507.289	89.31
507.506	107.31
507.722	103.31
507.939	102.31
508.155	79.31
508.372	89.31
508.588	84.31
508.805	103.31
509.021	95.31
509.238	99.31
509.454	105.31
509.67	105.31
509.887	86.31
510.103	129.31
510.319	190.31
510.536	596.31
510.752	2005.31
510.968	579.31
511.184	137.31
511.401	113.31
511.617	93.31
511.833	90.31
512.049	88.31
512.265	78.31
512.481	90.31
512.698	72.31
512.914	88.31
513.13	92.31
513.346	79.31
513.562	93.31
513.778	95.31
513.994	90.31
514.21	101.31
514.426	117.31
514.642	112.31
514.858	115.31
515.074	130.31
515.29	375.31
515.506	1156.31
515.721	459.31
515.937	151.31
516.153	107.31
516.369	95.31
516.585	92.31
