Data from Circ_2010_H10_HRD10591_00073.txt Node
Date: Wed Jan 03 10:09:55 EST 2024
User: Yrep
Spectrometer: HR+D1059
Trigger mode: 1
Integration Time (sec): 1.000000E-1
Scans to average: 1
Electric dark correction enabled: true
Nonlinearity correction enabled: false
Boxcar width: 0
XAxis mode: Wavelengths
Number of Pixels in Spectrum: 2048
>>>>>Begin Spectral Data<<<<<
223.165	-6.06
223.4	-6.06
223.635	-6.06
223.869	-25.06
224.104	-26.06
224.338	-23.06
224.573	-15.06
224.808	-25.06
225.042	-3.06
225.277	-9.06
225.511	-7.06
225.746	-2.06
225.98	4.94
226.215	19.94
226.449	19.94
226.683	40.94
226.918	33.94
227.152	21.94
227.387	43.94
227.621	36.94
227.856	31.94
228.09	56.94
228.324	60.94
228.559	43.94
228.793	57.94
229.027	45.94
229.262	55.94
229.496	71.94
229.73	63.94
229.964	88.94
230.199	88.94
230.433	73.94
230.667	66.94
230.901	81.94
231.136	70.94
231.37	83.94
231.604	93.94
231.838	83.94
232.072	77.94
232.306	70.94
232.541	71.94
232.775	71.94
233.009	68.94
233.243	68.94
233.477	69.94
233.711	84.94
233.945	83.94
234.179	75.94
234.413	96.94
234.647	79.94
234.881	78.94
235.115	76.94
235.349	80.94
235.583	92.94
235.817	77.94
236.051	88.94
236.285	87.94
236.519	91.94
236.753	78.94
236.987	86.94
237.221	81.94
237.455	76.94
237.689	82.94
237.922	74.94
238.156	86.94
238.39	73.94
238.624	64.94
238.858	76.94
239.091	67.94
239.325	83.94
239.559	90.94
239.793	84.94
240.027	80.94
240.26	79.94
240.494	78.94
240.728	86.94
240.961	72.94
241.195	84.94
241.429	80.94
241.662	76.94
241.896	75.94
242.13	69.94
242.363	77.94
242.597	71.94
242.83	69.94
243.064	81.94
243.298	78.94
243.531	77.94
243.765	82.94
243.998	68.94
244.232	70.94
244.465	92.94
244.699	76.94
244.932	72.94
245.166	96.94
245.399	82.94
245.633	56.94
245.866	74.94
246.099	67.94
246.333	83.94
246.566	63.94
246.8	72.94
247.033	67.94
247.266	64.94
247.5	75.94
247.733	78.94
247.966	75.94
248.2	66.94
248.433	72.94
248.666	68.94
248.899	65.94
249.133	100.94
249.366	92.94
249.599	90.94
249.832	84.94
250.066	59.94
250.299	81.94
250.532	79.94
250.765	72.94
250.998	81.94
251.231	93.94
251.465	86.94
251.698	80.94
251.931	84.94
252.164	90.94
252.397	84.94
252.63	79.94
252.863	68.94
253.096	75.94
253.329	75.94
253.562	84.94
253.795	72.94
254.028	85.94
254.261	90.94
254.494	93.94
254.727	85.94
254.96	83.94
255.193	87.94
255.426	74.94
255.659	80.94
255.892	81.94
256.124	86.94
256.357	67.94
256.59	77.94
256.823	83.94
257.056	86.94
257.289	74.94
257.521	78.94
257.754	90.94
257.987	89.94
258.22	86.94
258.452	87.94
258.685	73.94
258.918	65.94
259.151	80.94
259.383	80.94
259.616	79.94
259.849	78.94
260.081	83.94
260.314	83.94
260.547	84.94
260.779	81.94
261.012	88.94
261.244	102.94
261.477	91.94
261.71	86.94
261.942	121.94
262.175	111.94
262.407	89.94
262.64	84.94
262.872	94.94
263.105	83.94
263.337	97.94
263.57	78.94
263.802	71.94
264.035	72.94
264.267	79.94
264.499	71.94
264.732	86.94
264.964	91.94
265.197	88.94
265.429	83.94
265.661	72.94
265.894	95.94
266.126	90.94
266.358	84.94
266.591	76.94
266.823	67.94
267.055	91.94
267.287	83.94
267.52	95.94
267.752	78.94
267.984	68.94
268.216	91.94
268.448	75.94
268.681	84.94
268.913	86.94
269.145	99.94
269.377	81.94
269.609	72.94
269.841	79.94
270.073	69.94
270.306	85.94
270.538	84.94
270.77	76.94
271.002	82.94
271.234	89.94
271.466	93.94
271.698	91.94
271.93	76.94
272.162	77.94
272.394	79.94
272.626	83.94
272.858	89.94
273.09	88.94
273.322	75.94
273.553	87.94
273.785	89.94
274.017	85.94
274.249	72.94
274.481	75.94
274.713	92.94
274.945	81.94
275.176	88.94
275.408	77.94
275.64	80.94
275.872	89.94
276.104	93.94
276.335	99.94
276.567	95.94
276.799	100.94
277.031	114.94
277.262	109.94
277.494	95.94
277.726	84.94
277.957	92.94
278.189	82.94
278.421	76.94
278.652	92.94
278.884	82.94
279.115	83.94
279.347	85.94
279.579	90.94
279.81	76.94
280.042	118.94
280.273	130.94
280.505	97.94
280.736	78.94
280.968	89.94
281.199	92.94
281.431	96.94
281.662	76.94
281.894	89.94
282.125	99.94
282.356	138.94
282.588	143.94
282.819	102.94
283.051	94.94
283.282	80.94
283.513	81.94
283.745	84.94
283.976	75.94
284.207	84.94
284.439	100.94
284.67	88.94
284.901	88.94
285.132	85.94
285.364	89.94
285.595	88.94
285.826	81.94
286.057	91.94
286.288	91.94
286.52	68.94
286.751	90.94
286.982	76.94
287.213	77.94
287.444	89.94
287.675	89.94
287.906	84.94
288.138	85.94
288.369	86.94
288.6	73.94
288.831	92.94
289.062	77.94
289.293	77.94
289.524	83.94
289.755	96.94
289.986	91.94
290.217	97.94
290.448	82.94
290.679	87.94
290.91	89.94
291.141	85.94
291.371	95.94
291.602	94.94
291.833	81.94
292.064	88.94
292.295	86.94
292.526	85.94
292.757	88.94
292.987	89.94
293.218	81.94
293.449	88.94
293.68	84.94
293.91	94.94
294.141	83.94
294.372	84.94
294.603	85.94
294.833	85.94
295.064	84.94
295.295	78.94
295.525	93.94
295.756	106.94
295.987	113.94
296.217	136.94
296.448	137.94
296.679	91.94
296.909	83.94
297.14	87.94
297.37	100.94
297.601	82.94
297.831	87.94
298.062	84.94
298.292	79.94
298.523	88.94
298.753	91.94
298.984	73.94
299.214	97.94
299.445	98.94
299.675	90.94
299.905	87.94
300.136	81.94
300.366	74.94
300.597	98.94
300.827	87.94
301.057	99.94
301.288	88.94
301.518	79.94
301.748	73.94
301.979	101.94
302.209	103.94
302.439	85.94
302.669	92.94
302.9	102.94
303.13	92.94
303.36	101.94
303.59	112.94
303.82	108.94
304.051	86.94
304.281	87.94
304.511	80.94
304.741	81.94
304.971	99.94
305.201	81.94
305.431	95.94
305.661	80.94
305.891	87.94
306.121	84.94
306.352	87.94
306.582	106.94
306.812	104.94
307.042	102.94
307.272	99.94
307.502	111.94
307.731	99.94
307.961	96.94
308.191	84.94
308.421	90.94
308.651	87.94
308.881	96.94
309.111	81.94
309.341	87.94
309.571	102.94
309.8	83.94
310.03	101.94
310.26	92.94
310.49	94.94
310.72	94.94
310.949	113.94
311.179	90.94
311.409	87.94
311.639	97.94
311.868	88.94
312.098	96.94
312.328	108.94
312.557	113.94
312.787	113.94
313.017	105.94
313.246	91.94
313.476	95.94
313.706	91.94
313.935	97.94
314.165	89.94
314.394	96.94
314.624	102.94
314.853	110.94
315.083	90.94
315.312	89.94
315.542	92.94
315.771	62.94
316.001	91.94
316.23	110.94
316.46	96.94
316.689	96.94
316.919	94.94
317.148	88.94
317.377	100.94
317.607	98.94
317.836	98.94
318.065	89.94
318.295	90.94
318.524	85.94
318.753	89.94
318.983	100.94
319.212	99.94
319.441	99.94
319.67	103.94
319.9	83.94
320.129	83.94
320.358	96.94
320.587	100.94
320.816	107.94
321.046	83.94
321.275	115.94
321.504	106.94
321.733	90.94
321.962	92.94
322.191	101.94
322.42	97.94
322.649	110.94
322.878	115.94
323.108	119.94
323.337	117.94
323.566	140.94
323.795	160.94
324.024	214.94
324.253	419.94
324.482	883.94
324.71	1811.94
324.939	2375.94
325.168	869.94
325.397	261.94
325.626	151.94
325.855	123.94
326.084	116.94
326.313	136.94
326.542	151.94
326.77	251.94
326.999	499.94
327.228	1028.94
327.457	1807.94
327.686	1455.94
327.914	435.94
328.143	286.94
328.372	296.94
328.6	180.94
328.829	136.94
329.058	140.94
329.287	146.94
329.515	124.94
329.744	156.94
329.972	231.94
330.201	375.94
330.43	515.94
330.658	279.94
330.887	172.94
331.115	137.94
331.344	98.94
331.572	116.94
331.801	126.94
332.03	106.94
332.258	97.94
332.486	108.94
332.715	100.94
332.943	100.94
333.172	100.94
333.4	108.94
333.629	99.94
333.857	153.94
334.085	236.94
334.314	367.94
334.542	664.94
334.771	609.94
334.999	201.94
335.227	121.94
335.455	93.94
335.684	95.94
335.912	108.94
336.14	105.94
336.369	119.94
336.597	100.94
336.825	105.94
337.053	99.94
337.281	93.94
337.51	107.94
337.738	84.94
337.966	82.94
338.194	93.94
338.422	100.94
338.65	90.94
338.878	92.94
339.106	86.94
339.334	96.94
339.562	83.94
339.79	85.94
340.018	91.94
340.246	87.94
340.474	101.94
340.702	89.94
340.93	97.94
341.158	100.94
341.386	96.94
341.614	78.94
341.842	95.94
342.07	95.94
342.298	95.94
342.526	87.94
342.754	73.94
342.981	85.94
343.209	82.94
343.437	90.94
343.665	84.94
343.893	78.94
344.12	91.94
344.348	96.94
344.576	85.94
344.804	80.94
345.031	107.94
345.259	92.94
345.487	87.94
345.714	91.94
345.942	83.94
346.17	103.94
346.397	88.94
346.625	97.94
346.853	89.94
347.08	76.94
347.308	99.94
347.535	96.94
347.763	107.94
347.99	104.94
348.218	99.94
348.445	111.94
348.673	91.94
348.9	85.94
349.128	91.94
349.355	90.94
349.583	96.94
349.81	94.94
350.037	88.94
350.265	93.94
350.492	107.94
350.72	88.94
350.947	97.94
351.174	95.94
351.402	111.94
351.629	96.94
351.856	103.94
352.083	104.94
352.311	108.94
352.538	111.94
352.765	107.94
352.992	107.94
353.22	101.94
353.447	85.94
353.674	101.94
353.901	91.94
354.128	101.94
354.355	84.94
354.583	89.94
354.81	105.94
355.037	92.94
355.264	108.94
355.491	106.94
355.718	101.94
355.945	99.94
356.172	89.94
356.399	92.94
356.626	85.94
356.853	88.94
357.08	88.94
357.307	97.94
357.534	92.94
357.761	99.94
357.988	69.94
358.215	86.94
358.441	89.94
358.668	91.94
358.895	88.94
359.122	90.94
359.349	95.94
359.576	104.94
359.802	108.94
360.029	108.94
360.256	120.94
360.483	102.94
360.709	97.94
360.936	89.94
361.163	93.94
361.39	97.94
361.616	96.94
361.843	83.94
362.07	95.94
362.296	85.94
362.523	99.94
362.749	88.94
362.976	80.94
363.203	92.94
363.429	80.94
363.656	92.94
363.882	90.94
364.109	85.94
364.335	92.94
364.562	94.94
364.788	93.94
365.015	84.94
365.241	109.94
365.468	106.94
365.694	101.94
365.92	93.94
366.147	89.94
366.373	92.94
366.599	94.94
366.826	99.94
367.052	85.94
367.278	88.94
367.505	88.94
367.731	103.94
367.957	91.94
368.184	86.94
368.41	101.94
368.636	110.94
368.862	125.94
369.089	99.94
369.315	91.94
369.541	82.94
369.767	85.94
369.993	87.94
370.219	99.94
370.445	78.94
370.672	85.94
370.898	85.94
371.124	95.94
371.35	87.94
371.576	95.94
371.802	103.94
372.028	88.94
372.254	97.94
372.48	101.94
372.706	92.94
372.932	80.94
373.158	90.94
373.384	94.94
373.61	89.94
373.835	97.94
374.061	93.94
374.287	88.94
374.513	85.94
374.739	85.94
374.965	88.94
375.191	91.94
375.416	86.94
375.642	95.94
375.868	90.94
376.094	83.94
376.319	95.94
376.545	96.94
376.771	89.94
376.997	85.94
377.222	89.94
377.448	84.94
377.674	88.94
377.899	92.94
378.125	77.94
378.35	83.94
378.576	80.94
378.802	97.94
379.027	93.94
379.253	102.94
379.478	98.94
379.704	103.94
379.929	108.94
380.155	75.94
380.38	89.94
380.606	93.94
380.831	97.94
381.057	89.94
381.282	87.94
381.507	86.94
381.733	97.94
381.958	100.94
382.184	98.94
382.409	88.94
382.634	109.94
382.86	98.94
383.085	92.94
383.31	99.94
383.535	106.94
383.761	72.94
383.986	96.94
384.211	96.94
384.436	90.94
384.662	83.94
384.887	91.94
385.112	101.94
385.337	106.94
385.562	104.94
385.787	105.94
386.013	110.94
386.238	120.94
386.463	120.94
386.688	108.94
386.913	94.94
387.138	101.94
387.363	98.94
387.588	103.94
387.813	92.94
388.038	99.94
388.263	113.94
388.488	110.94
388.713	94.94
388.938	73.94
389.163	84.94
389.387	81.94
389.612	85.94
389.837	96.94
390.062	85.94
390.287	89.94
390.512	81.94
390.736	80.94
390.961	85.94
391.186	94.94
391.411	88.94
391.636	115.94
391.86	91.94
392.085	92.94
392.31	89.94
392.534	92.94
392.759	73.94
392.984	89.94
393.208	91.94
393.433	76.94
393.658	90.94
393.882	74.94
394.107	86.94
394.331	83.94
394.556	90.94
394.78	88.94
395.005	80.94
395.229	82.94
395.454	71.94
395.678	87.94
395.903	85.94
396.127	98.94
396.352	81.94
396.576	85.94
396.801	95.94
397.025	107.94
397.249	93.94
397.474	95.94
397.698	79.94
397.922	86.94
398.147	84.94
398.371	84.94
398.595	78.94
398.82	91.94
399.044	88.94
399.268	90.94
399.492	77.94
399.717	77.94
399.941	93.94
400.165	100.94
400.389	79.94
400.613	92.94
400.837	87.94
401.062	90.94
401.286	96.94
401.51	88.94
401.734	93.94
401.958	93.94
402.182	116.94
402.406	139.94
402.63	109.94
402.854	99.94
403.078	85.94
403.302	82.94
403.526	94.94
403.75	81.94
403.974	82.94
404.198	87.94
404.422	85.94
404.645	90.94
404.869	106.94
405.093	104.94
405.317	107.94
405.541	119.94
405.765	107.94
405.988	129.94
406.212	173.94
406.436	212.94
406.66	156.94
406.883	105.94
407.107	94.94
407.331	91.94
407.555	107.94
407.778	110.94
408.002	110.94
408.226	87.94
408.449	84.94
408.673	95.94
408.896	91.94
409.12	106.94
409.344	99.94
409.567	90.94
409.791	79.94
410.014	80.94
410.238	96.94
410.461	112.94
410.685	93.94
410.908	103.94
411.132	104.94
411.355	95.94
411.578	83.94
411.802	94.94
412.025	87.94
412.249	95.94
412.472	115.94
412.695	121.94
412.919	109.94
413.142	87.94
413.365	86.94
413.589	80.94
413.812	91.94
414.035	87.94
414.258	79.94
414.482	94.94
414.705	95.94
414.928	80.94
415.151	88.94
415.374	97.94
415.597	87.94
415.821	89.94
416.044	86.94
416.267	93.94
416.49	98.94
416.713	81.94
416.936	88.94
417.159	101.94
417.382	88.94
417.605	86.94
417.828	89.94
418.051	90.94
418.274	79.94
418.497	82.94
418.72	85.94
418.943	81.94
419.166	104.94
419.389	89.94
419.611	89.94
419.834	95.94
420.057	92.94
420.28	90.94
420.503	89.94
420.726	95.94
420.948	91.94
421.171	81.94
421.394	90.94
421.617	93.94
421.839	101.94
422.062	81.94
422.285	101.94
422.507	85.94
422.73	112.94
422.953	90.94
423.175	96.94
423.398	91.94
423.621	87.94
423.843	84.94
424.066	81.94
424.288	94.94
424.511	104.94
424.733	105.94
424.956	118.94
425.178	114.94
425.401	99.94
425.623	102.94
425.846	109.94
426.068	103.94
426.291	91.94
426.513	75.94
426.735	97.94
426.958	96.94
427.18	113.94
427.402	161.94
427.625	191.94
427.847	173.94
428.069	172.94
428.292	105.94
428.514	83.94
428.736	80.94
428.958	80.94
429.181	99.94
429.403	103.94
429.625	99.94
429.847	90.94
430.069	104.94
430.292	96.94
430.514	85.94
430.736	90.94
430.958	86.94
431.18	90.94
431.402	76.94
431.624	102.94
431.846	95.94
432.068	85.94
432.29	90.94
432.512	91.94
432.734	80.94
432.956	76.94
433.178	105.94
433.4	108.94
433.622	95.94
433.844	97.94
434.066	69.94
434.287	85.94
434.509	86.94
434.731	86.94
434.953	89.94
435.175	94.94
435.397	85.94
435.618	94.94
435.84	107.94
436.062	145.94
436.284	128.94
436.505	104.94
436.727	110.94
436.949	105.94
437.17	97.94
437.392	90.94
437.614	83.94
437.835	127.94
438.057	125.94
438.278	113.94
438.5	110.94
438.721	133.94
438.943	115.94
439.165	99.94
439.386	94.94
439.608	107.94
439.829	103.94
440.05	126.94
440.272	161.94
440.493	99.94
440.715	99.94
440.936	88.94
441.158	89.94
441.379	78.94
441.6	93.94
441.822	109.94
442.043	96.94
442.264	98.94
442.486	108.94
442.707	111.94
442.928	115.94
443.149	140.94
443.371	139.94
443.592	121.94
443.813	127.94
444.034	108.94
444.255	91.94
444.476	89.94
444.698	96.94
444.919	75.94
445.14	137.94
445.361	129.94
445.582	116.94
445.803	153.94
446.024	156.94
446.245	154.94
446.466	118.94
446.687	104.94
446.908	90.94
447.129	80.94
447.35	84.94
447.571	85.94
447.792	107.94
448.013	103.94
448.234	113.94
448.455	98.94
448.675	127.94
448.896	129.94
449.117	116.94
449.338	115.94
449.559	143.94
449.779	144.94
450	101.94
450.221	102.94
450.442	93.94
450.662	103.94
450.883	111.94
451.104	127.94
451.324	96.94
451.545	95.94
451.766	91.94
451.986	82.94
452.207	96.94
452.428	108.94
452.648	100.94
452.869	119.94
453.089	109.94
453.31	113.94
453.53	83.94
453.751	92.94
453.971	96.94
454.192	108.94
454.412	83.94
454.633	94.94
454.853	88.94
455.073	77.94
455.294	103.94
455.514	101.94
455.734	85.94
455.955	95.94
456.175	74.94
456.395	78.94
456.616	86.94
456.836	88.94
457.056	91.94
457.276	80.94
457.497	74.94
457.717	85.94
457.937	80.94
458.157	82.94
458.377	97.94
458.598	109.94
458.818	169.94
459.038	165.94
459.258	135.94
459.478	101.94
459.698	93.94
459.918	84.94
460.138	73.94
460.358	79.94
460.578	87.94
460.798	98.94
461.018	77.94
461.238	88.94
461.458	88.94
461.678	85.94
461.898	81.94
462.118	93.94
462.338	109.94
462.558	91.94
462.777	81.94
462.997	82.94
463.217	85.94
463.437	79.94
463.657	88.94
463.876	81.94
464.096	85.94
464.316	78.94
464.536	108.94
464.755	115.94
464.975	116.94
465.195	185.94
465.414	165.94
465.634	88.94
465.854	86.94
466.073	82.94
466.293	87.94
466.512	75.94
466.732	90.94
466.951	92.94
467.171	99.94
467.391	79.94
467.61	99.94
467.829	125.94
468.049	218.94
468.268	285.94
468.488	122.94
468.707	92.94
468.927	86.94
469.146	80.94
469.365	92.94
469.585	92.94
469.804	93.94
470.023	89.94
470.243	102.94
470.462	97.94
470.681	116.94
470.901	99.94
471.12	104.94
471.339	66.94
471.558	102.94
471.777	112.94
471.997	145.94
472.216	415.94
472.435	807.94
472.654	237.94
472.873	121.94
473.092	90.94
473.311	101.94
473.53	87.94
473.749	89.94
473.968	97.94
474.187	120.94
474.406	108.94
474.625	100.94
474.844	89.94
475.063	90.94
475.282	90.94
475.501	92.94
475.72	96.94
475.939	81.94
476.158	87.94
476.377	81.94
476.596	88.94
476.814	90.94
477.033	76.94
477.252	77.94
477.471	90.94
477.69	91.94
477.908	86.94
478.127	88.94
478.346	97.94
478.564	91.94
478.783	94.94
479.002	97.94
479.22	106.94
479.439	97.94
479.658	95.94
479.876	98.94
480.095	80.94
480.313	112.94
480.532	125.94
480.751	157.94
480.969	388.94
481.188	1357.94
481.406	859.94
481.624	190.94
481.843	94.94
482.061	95.94
482.28	93.94
482.498	90.94
482.717	94.94
482.935	112.94
483.153	93.94
483.372	69.94
483.59	90.94
483.808	80.94
484.027	96.94
484.245	95.94
484.463	90.94
484.681	88.94
484.9	93.94
485.118	103.94
485.336	87.94
485.554	93.94
485.772	91.94
485.99	100.94
486.209	111.94
486.427	103.94
486.645	106.94
486.863	118.94
487.081	101.94
487.299	96.94
487.517	93.94
487.735	100.94
487.953	107.94
488.171	102.94
488.389	93.94
488.607	102.94
488.825	99.94
489.043	84.94
489.261	87.94
489.479	94.94
489.696	90.94
489.914	87.94
490.132	84.94
490.35	96.94
490.568	88.94
490.786	89.94
491.003	78.94
491.221	87.94
491.439	96.94
491.657	96.94
491.874	88.94
492.092	88.94
492.31	92.94
492.527	89.94
492.745	90.94
492.963	89.94
493.18	95.94
493.398	95.94
493.615	81.94
493.833	99.94
494.05	95.94
494.268	93.94
494.485	93.94
494.703	84.94
494.92	83.94
495.138	79.94
495.355	87.94
495.573	85.94
495.79	104.94
496.008	98.94
496.225	94.94
496.442	91.94
496.66	80.94
496.877	79.94
497.094	95.94
497.312	96.94
497.529	79.94
497.746	93.94
497.963	80.94
498.181	106.94
498.398	96.94
498.615	103.94
498.832	96.94
499.049	98.94
499.267	78.94
499.484	77.94
499.701	94.94
499.918	108.94
500.135	92.94
500.352	94.94
500.569	78.94
500.786	86.94
501.003	91.94
501.22	93.94
501.437	101.94
501.654	110.94
501.871	122.94
502.088	97.94
502.305	93.94
502.522	76.94
502.739	84.94
502.956	92.94
503.172	89.94
503.389	86.94
503.606	112.94
503.823	100.94
504.04	93.94
504.256	93.94
504.473	87.94
504.69	93.94
504.907	96.94
505.123	92.94
505.34	80.94
505.557	89.94
505.773	89.94
505.99	95.94
506.207	99.94
506.423	88.94
506.64	83.94
506.856	100.94
507.073	93.94
507.289	100.94
507.506	109.94
507.722	112.94
507.939	109.94
508.155	81.94
508.372	103.94
508.588	91.94
508.805	98.94
509.021	90.94
509.238	89.94
509.454	102.94
509.67	86.94
509.887	99.94
510.103	131.94
510.319	209.94
510.536	638.94
510.752	2084.94
510.968	607.94
511.184	147.94
511.401	123.94
511.617	94.94
511.833	112.94
512.049	94.94
512.265	87.94
512.481	92.94
512.698	100.94
512.914	89.94
513.13	104.94
513.346	95.94
513.562	98.94
513.778	92.94
513.994	94.94
514.21	110.94
514.426	111.94
514.642	158.94
514.858	134.94
515.074	171.94
