Data from Circ_2010_H10_HRD10591_00065.txt Node
Date: Wed Jan 03 10:09:54 EST 2024
User: Yrep
Spectrometer: HR+D1059
Trigger mode: 1
Integration Time (sec): 1.000000E-1
Scans to average: 1
Electric dark correction enabled: true
Nonlinearity correction enabled: false
Boxcar width: 0
XAxis mode: Wavelengths
Number of Pixels in Spectrum: 2048
>>>>>Begin Spectral Data<<<<<
223.165	-19.12
223.4	-19.12
223.635	-19.12
223.869	-17.12
224.104	-9.12
224.338	-12.12
224.573	-13.12
224.808	-8.12
225.042	-19.12
225.277	5.88
225.511	1.88
225.746	2.88
225.98	-10.12
226.215	7.88
226.449	6.88
226.683	21.88
226.918	23.88
227.152	36.88
227.387	35.88
227.621	57.88
227.856	44.88
228.09	23.88
228.324	51.88
228.559	48.88
228.793	43.88
229.027	55.88
229.262	64.88
229.496	77.88
229.73	78.88
229.964	81.88
230.199	78.88
230.433	76.88
230.667	67.88
230.901	82.88
231.136	91.88
231.37	75.88
231.604	81.88
231.838	74.88
232.072	81.88
232.306	77.88
232.541	81.88
232.775	66.88
233.009	77.88
233.243	72.88
233.477	69.88
233.711	97.88
233.945	74.88
234.179	65.88
234.413	74.88
234.647	90.88
234.881	80.88
235.115	82.88
235.349	82.88
235.583	87.88
235.817	84.88
236.051	77.88
236.285	79.88
236.519	71.88
236.753	80.88
236.987	71.88
237.221	71.88
237.455	87.88
237.689	69.88
237.922	86.88
238.156	85.88
238.39	90.88
238.624	80.88
238.858	75.88
239.091	61.88
239.325	85.88
239.559	80.88
239.793	72.88
240.027	66.88
240.26	74.88
240.494	75.88
240.728	63.88
240.961	72.88
241.195	85.88
241.429	71.88
241.662	89.88
241.896	67.88
242.13	80.88
242.363	85.88
242.597	70.88
242.83	90.88
243.064	78.88
243.298	76.88
243.531	78.88
243.765	75.88
243.998	82.88
244.232	76.88
244.465	92.88
244.699	74.88
244.932	88.88
245.166	81.88
245.399	84.88
245.633	83.88
245.866	79.88
246.099	73.88
246.333	85.88
246.566	77.88
246.8	77.88
247.033	60.88
247.266	77.88
247.5	78.88
247.733	78.88
247.966	63.88
248.2	74.88
248.433	73.88
248.666	75.88
248.899	84.88
249.133	72.88
249.366	94.88
249.599	85.88
249.832	90.88
250.066	71.88
250.299	76.88
250.532	74.88
250.765	75.88
250.998	63.88
251.231	68.88
251.465	67.88
251.698	90.88
251.931	88.88
252.164	72.88
252.397	68.88
252.63	76.88
252.863	78.88
253.096	81.88
253.329	70.88
253.562	78.88
253.795	88.88
254.028	80.88
254.261	76.88
254.494	77.88
254.727	77.88
254.96	77.88
255.193	87.88
255.426	85.88
255.659	78.88
255.892	78.88
256.124	78.88
256.357	76.88
256.59	76.88
256.823	86.88
257.056	85.88
257.289	80.88
257.521	73.88
257.754	94.88
257.987	82.88
258.22	85.88
258.452	72.88
258.685	73.88
258.918	69.88
259.151	79.88
259.383	72.88
259.616	79.88
259.849	102.88
260.081	77.88
260.314	98.88
260.547	92.88
260.779	86.88
261.012	85.88
261.244	85.88
261.477	74.88
261.71	85.88
261.942	86.88
262.175	108.88
262.407	96.88
262.64	92.88
262.872	73.88
263.105	61.88
263.337	86.88
263.57	82.88
263.802	80.88
264.035	77.88
264.267	79.88
264.499	92.88
264.732	83.88
264.964	80.88
265.197	74.88
265.429	92.88
265.661	83.88
265.894	85.88
266.126	78.88
266.358	79.88
266.591	86.88
266.823	71.88
267.055	78.88
267.287	77.88
267.52	80.88
267.752	81.88
267.984	92.88
268.216	95.88
268.448	83.88
268.681	78.88
268.913	87.88
269.145	92.88
269.377	74.88
269.609	92.88
269.841	91.88
270.073	87.88
270.306	80.88
270.538	88.88
270.77	86.88
271.002	87.88
271.234	78.88
271.466	85.88
271.698	86.88
271.93	101.88
272.162	79.88
272.394	95.88
272.626	85.88
272.858	87.88
273.09	76.88
273.322	83.88
273.553	85.88
273.785	73.88
274.017	98.88
274.249	77.88
274.481	95.88
274.713	85.88
274.945	103.88
275.176	88.88
275.408	99.88
275.64	83.88
275.872	90.88
276.104	92.88
276.335	93.88
276.567	96.88
276.799	98.88
277.031	105.88
277.262	96.88
277.494	96.88
277.726	88.88
277.957	89.88
278.189	80.88
278.421	82.88
278.652	86.88
278.884	85.88
279.115	85.88
279.347	81.88
279.579	81.88
279.81	107.88
280.042	79.88
280.273	119.88
280.505	97.88
280.736	80.88
280.968	79.88
281.199	82.88
281.431	95.88
281.662	83.88
281.894	99.88
282.125	84.88
282.356	108.88
282.588	109.88
282.819	94.88
283.051	89.88
283.282	67.88
283.513	77.88
283.745	82.88
283.976	90.88
284.207	89.88
284.439	92.88
284.67	78.88
284.901	86.88
285.132	90.88
285.364	89.88
285.595	80.88
285.826	85.88
286.057	70.88
286.288	94.88
286.52	87.88
286.751	80.88
286.982	77.88
287.213	70.88
287.444	75.88
287.675	85.88
287.906	87.88
288.138	73.88
288.369	99.88
288.6	88.88
288.831	75.88
289.062	99.88
289.293	86.88
289.524	96.88
289.755	81.88
289.986	87.88
290.217	88.88
290.448	87.88
290.679	86.88
290.91	97.88
291.141	79.88
291.371	66.88
291.602	77.88
291.833	90.88
292.064	96.88
292.295	77.88
292.526	86.88
292.757	100.88
292.987	87.88
293.218	84.88
293.449	91.88
293.68	91.88
293.91	93.88
294.141	85.88
294.372	87.88
294.603	72.88
294.833	85.88
295.064	82.88
295.295	82.88
295.525	95.88
295.756	99.88
295.987	98.88
296.217	118.88
296.448	115.88
296.679	97.88
296.909	92.88
297.14	97.88
297.37	92.88
297.601	90.88
297.831	95.88
298.062	73.88
298.292	79.88
298.523	88.88
298.753	89.88
298.984	89.88
299.214	87.88
299.445	80.88
299.675	89.88
299.905	94.88
300.136	80.88
300.366	87.88
300.597	95.88
300.827	86.88
301.057	91.88
301.288	94.88
301.518	89.88
301.748	86.88
301.979	103.88
302.209	80.88
302.439	88.88
302.669	98.88
302.9	93.88
303.13	79.88
303.36	103.88
303.59	90.88
303.82	104.88
304.051	88.88
304.281	78.88
304.511	94.88
304.741	95.88
304.971	90.88
305.201	74.88
305.431	80.88
305.661	97.88
305.891	100.88
306.121	86.88
306.352	87.88
306.582	96.88
306.812	98.88
307.042	93.88
307.272	112.88
307.502	99.88
307.731	107.88
307.961	93.88
308.191	92.88
308.421	87.88
308.651	79.88
308.881	99.88
309.111	104.88
309.341	104.88
309.571	81.88
309.8	90.88
310.03	94.88
310.26	105.88
310.49	88.88
310.72	101.88
310.949	111.88
311.179	95.88
311.409	85.88
311.639	98.88
311.868	99.88
312.098	95.88
312.328	96.88
312.557	101.88
312.787	114.88
313.017	101.88
313.246	102.88
313.476	89.88
313.706	100.88
313.935	100.88
314.165	90.88
314.394	87.88
314.624	97.88
314.853	75.88
315.083	93.88
315.312	105.88
315.542	92.88
315.771	88.88
316.001	106.88
316.23	87.88
316.46	88.88
316.689	95.88
316.919	86.88
317.148	97.88
317.377	97.88
317.607	105.88
317.836	106.88
318.065	108.88
318.295	84.88
318.524	97.88
318.753	88.88
318.983	77.88
319.212	89.88
319.441	95.88
319.67	105.88
319.9	98.88
320.129	92.88
320.358	90.88
320.587	111.88
320.816	95.88
321.046	91.88
321.275	104.88
321.504	102.88
321.733	88.88
321.962	87.88
322.191	88.88
322.42	93.88
322.649	109.88
322.878	110.88
323.108	107.88
323.337	117.88
323.566	123.88
323.795	131.88
324.024	171.88
324.253	331.88
324.482	677.88
324.71	1351.88
324.939	1763.88
325.168	674.88
325.397	211.88
325.626	128.88
325.855	135.88
326.084	128.88
326.313	120.88
326.542	148.88
326.77	206.88
326.999	395.88
327.228	778.88
327.457	1409.88
327.686	1094.88
327.914	329.88
328.143	211.88
328.372	185.88
328.6	141.88
328.829	114.88
329.058	120.88
329.287	123.88
329.515	116.88
329.744	124.88
329.972	151.88
330.201	214.88
330.43	267.88
330.658	157.88
330.887	144.88
331.115	124.88
331.344	99.88
331.572	99.88
331.801	94.88
332.03	92.88
332.258	109.88
332.486	92.88
332.715	82.88
332.943	97.88
333.172	98.88
333.4	95.88
333.629	107.88
333.857	117.88
334.085	141.88
334.314	206.88
334.542	304.88
334.771	284.88
334.999	145.88
335.227	106.88
335.455	103.88
335.684	119.88
335.912	99.88
336.14	96.88
336.369	101.88
336.597	105.88
336.825	105.88
337.053	97.88
337.281	98.88
337.51	92.88
337.738	101.88
337.966	90.88
338.194	87.88
338.422	82.88
338.65	93.88
338.878	86.88
339.106	89.88
339.334	103.88
339.562	88.88
339.79	94.88
340.018	93.88
340.246	95.88
340.474	89.88
340.702	74.88
340.93	99.88
341.158	99.88
341.386	93.88
341.614	99.88
341.842	91.88
342.07	79.88
342.298	90.88
342.526	107.88
342.754	103.88
342.981	82.88
343.209	108.88
343.437	91.88
343.665	92.88
343.893	108.88
344.12	84.88
344.348	76.88
344.576	94.88
344.804	92.88
345.031	93.88
345.259	95.88
345.487	83.88
345.714	94.88
345.942	88.88
346.17	91.88
346.397	95.88
346.625	95.88
346.853	92.88
347.08	92.88
347.308	86.88
347.535	104.88
347.763	104.88
347.99	109.88
348.218	90.88
348.445	98.88
348.673	103.88
348.9	102.88
349.128	96.88
349.355	103.88
349.583	91.88
349.81	82.88
350.037	95.88
350.265	96.88
350.492	103.88
350.72	101.88
350.947	97.88
351.174	110.88
351.402	111.88
351.629	103.88
351.856	98.88
352.083	96.88
352.311	104.88
352.538	95.88
352.765	108.88
352.992	115.88
353.22	105.88
353.447	100.88
353.674	94.88
353.901	109.88
354.128	74.88
354.355	89.88
354.583	98.88
354.81	114.88
355.037	105.88
355.264	88.88
355.491	103.88
355.718	98.88
355.945	96.88
356.172	91.88
356.399	100.88
356.626	97.88
356.853	90.88
357.08	94.88
357.307	80.88
357.534	86.88
357.761	95.88
357.988	79.88
358.215	103.88
358.441	92.88
358.668	96.88
358.895	92.88
359.122	94.88
359.349	89.88
359.576	80.88
359.802	80.88
360.029	99.88
360.256	111.88
360.483	92.88
360.709	100.88
360.936	109.88
361.163	97.88
361.39	79.88
361.616	80.88
361.843	93.88
362.07	97.88
362.296	97.88
362.523	89.88
362.749	91.88
362.976	91.88
363.203	100.88
363.429	97.88
363.656	99.88
363.882	93.88
364.109	80.88
364.335	100.88
364.562	104.88
364.788	81.88
365.015	94.88
365.241	100.88
365.468	96.88
365.694	86.88
365.92	87.88
366.147	93.88
366.373	78.88
366.599	74.88
366.826	89.88
367.052	90.88
367.278	86.88
367.505	86.88
367.731	85.88
367.957	95.88
368.184	93.88
368.41	99.88
368.636	104.88
368.862	116.88
369.089	106.88
369.315	85.88
369.541	92.88
369.767	86.88
369.993	79.88
370.219	80.88
370.445	78.88
370.672	89.88
370.898	83.88
371.124	102.88
371.35	87.88
371.576	80.88
371.802	90.88
372.028	80.88
372.254	84.88
372.48	93.88
372.706	88.88
372.932	80.88
373.158	87.88
373.384	85.88
373.61	81.88
373.835	88.88
374.061	87.88
374.287	86.88
374.513	91.88
374.739	77.88
374.965	96.88
375.191	78.88
375.416	93.88
375.642	85.88
375.868	75.88
376.094	78.88
376.319	86.88
376.545	92.88
376.771	98.88
376.997	86.88
377.222	103.88
377.448	89.88
377.674	105.88
377.899	96.88
378.125	83.88
378.35	92.88
378.576	81.88
378.802	90.88
379.027	87.88
379.253	88.88
379.478	77.88
379.704	97.88
379.929	71.88
380.155	83.88
380.38	90.88
380.606	97.88
380.831	99.88
381.057	99.88
381.282	78.88
381.507	95.88
381.733	92.88
381.958	87.88
382.184	94.88
382.409	88.88
382.634	106.88
382.86	86.88
383.085	85.88
383.31	95.88
383.535	89.88
383.761	90.88
383.986	99.88
384.211	81.88
384.436	112.88
384.662	81.88
384.887	112.88
385.112	99.88
385.337	90.88
385.562	102.88
385.787	108.88
386.013	100.88
386.238	99.88
386.463	111.88
386.688	108.88
386.913	103.88
387.138	94.88
387.363	99.88
387.588	96.88
387.813	96.88
388.038	93.88
388.263	104.88
388.488	105.88
388.713	94.88
388.938	82.88
389.163	103.88
389.387	90.88
389.612	102.88
389.837	97.88
390.062	101.88
390.287	88.88
390.512	86.88
390.736	89.88
390.961	91.88
391.186	85.88
391.411	100.88
391.636	83.88
391.86	95.88
392.085	90.88
392.31	86.88
392.534	91.88
392.759	106.88
392.984	88.88
393.208	91.88
393.433	99.88
393.658	116.88
393.882	94.88
394.107	79.88
394.331	80.88
394.556	88.88
394.78	86.88
395.005	99.88
395.229	86.88
395.454	80.88
395.678	80.88
395.903	90.88
396.127	89.88
396.352	86.88
396.576	93.88
396.801	85.88
397.025	91.88
397.249	92.88
397.474	89.88
397.698	83.88
397.922	92.88
398.147	81.88
398.371	76.88
398.595	87.88
398.82	86.88
399.044	89.88
399.268	91.88
399.492	112.88
399.717	100.88
399.941	91.88
400.165	78.88
400.389	79.88
400.613	89.88
400.837	86.88
401.062	91.88
401.286	72.88
401.51	96.88
401.734	85.88
401.958	104.88
402.182	105.88
402.406	149.88
402.63	110.88
402.854	92.88
403.078	83.88
403.302	83.88
403.526	85.88
403.75	91.88
403.974	87.88
404.198	94.88
404.422	85.88
404.645	87.88
404.869	79.88
405.093	104.88
405.317	101.88
405.541	98.88
405.765	88.88
405.988	105.88
406.212	151.88
406.436	184.88
406.66	131.88
406.883	85.88
407.107	100.88
407.331	89.88
407.555	100.88
407.778	83.88
408.002	89.88
408.226	84.88
408.449	83.88
408.673	95.88
408.896	101.88
409.12	106.88
409.344	76.88
409.567	78.88
409.791	77.88
410.014	100.88
410.238	81.88
410.461	83.88
410.685	94.88
410.908	91.88
411.132	110.88
411.355	86.88
411.578	95.88
411.802	95.88
412.025	84.88
412.249	84.88
412.472	80.88
412.695	97.88
412.919	95.88
413.142	96.88
413.365	101.88
413.589	89.88
413.812	91.88
414.035	94.88
414.258	96.88
414.482	87.88
414.705	96.88
414.928	96.88
415.151	100.88
415.374	101.88
415.597	92.88
415.821	84.88
416.044	102.88
416.267	87.88
416.49	94.88
416.713	77.88
416.936	75.88
417.159	78.88
417.382	85.88
417.605	89.88
417.828	96.88
418.051	92.88
418.274	90.88
418.497	85.88
418.72	89.88
418.943	89.88
419.166	80.88
419.389	80.88
419.611	85.88
419.834	88.88
420.057	86.88
420.28	88.88
420.503	79.88
420.726	83.88
420.948	66.88
421.171	98.88
421.394	94.88
421.617	91.88
421.839	73.88
422.062	96.88
422.285	82.88
422.507	100.88
422.73	97.88
422.953	89.88
423.175	85.88
423.398	83.88
423.621	97.88
423.843	80.88
424.066	91.88
424.288	86.88
424.511	93.88
424.733	80.88
424.956	101.88
425.178	98.88
425.401	104.88
425.623	88.88
425.846	89.88
426.068	86.88
426.291	81.88
426.513	96.88
426.735	89.88
426.958	91.88
427.18	107.88
427.402	134.88
427.625	145.88
427.847	135.88
428.069	109.88
428.292	80.88
428.514	84.88
428.736	62.88
428.958	87.88
429.181	87.88
429.403	91.88
429.625	91.88
429.847	87.88
430.069	77.88
430.292	103.88
430.514	80.88
430.736	88.88
430.958	97.88
431.18	89.88
431.402	80.88
431.624	94.88
431.846	87.88
432.068	93.88
432.29	82.88
432.512	90.88
432.734	68.88
432.956	91.88
433.178	107.88
433.4	88.88
433.622	91.88
433.844	83.88
434.066	90.88
434.287	84.88
434.509	77.88
434.731	84.88
434.953	74.88
435.175	87.88
435.397	89.88
435.618	83.88
435.84	92.88
436.062	110.88
436.284	115.88
436.505	110.88
436.727	105.88
436.949	91.88
437.17	101.88
437.392	86.88
437.614	88.88
437.835	93.88
438.057	108.88
438.278	102.88
438.5	94.88
438.721	119.88
438.943	84.88
439.165	80.88
439.386	91.88
439.608	94.88
439.829	96.88
440.05	121.88
440.272	139.88
440.493	97.88
440.715	78.88
440.936	83.88
441.158	94.88
441.379	86.88
441.6	91.88
441.822	100.88
442.043	92.88
442.264	100.88
442.486	94.88
442.707	95.88
442.928	97.88
443.149	111.88
443.371	113.88
443.592	95.88
443.813	98.88
444.034	106.88
444.255	85.88
444.476	95.88
444.698	86.88
444.919	85.88
445.14	131.88
445.361	122.88
445.582	120.88
445.803	131.88
446.024	120.88
446.245	126.88
446.466	108.88
446.687	92.88
446.908	86.88
447.129	99.88
447.35	104.88
447.571	90.88
447.792	91.88
448.013	93.88
448.234	103.88
448.455	94.88
448.675	95.88
448.896	109.88
449.117	100.88
449.338	107.88
449.559	112.88
449.779	122.88
450	91.88
450.221	79.88
450.442	91.88
450.662	90.88
450.883	88.88
451.104	107.88
451.324	95.88
451.545	87.88
451.766	99.88
451.986	83.88
452.207	78.88
452.428	85.88
452.648	92.88
452.869	109.88
453.089	111.88
453.31	109.88
453.53	99.88
453.751	90.88
453.971	102.88
454.192	93.88
454.412	85.88
454.633	91.88
454.853	93.88
455.073	79.88
455.294	83.88
455.514	103.88
455.734	82.88
455.955	96.88
456.175	78.88
456.395	84.88
456.616	86.88
456.836	91.88
457.056	107.88
457.276	86.88
457.497	94.88
457.717	90.88
457.937	87.88
458.157	91.88
458.377	102.88
458.598	87.88
458.818	143.88
459.038	147.88
459.258	119.88
459.478	88.88
459.698	80.88
459.918	68.88
460.138	81.88
460.358	96.88
460.578	94.88
460.798	88.88
461.018	84.88
461.238	93.88
461.458	95.88
461.678	85.88
461.898	90.88
462.118	79.88
462.338	100.88
462.558	75.88
462.777	78.88
462.997	82.88
463.217	85.88
463.437	89.88
463.657	84.88
463.876	80.88
464.096	88.88
464.316	89.88
464.536	92.88
464.755	94.88
464.975	106.88
465.195	139.88
465.414	146.88
465.634	81.88
465.854	93.88
466.073	96.88
466.293	81.88
466.512	88.88
466.732	91.88
466.951	98.88
467.171	99.88
467.391	88.88
467.61	96.88
467.829	110.88
468.049	156.88
468.268	171.88
468.488	102.88
468.707	93.88
468.927	88.88
469.146	81.88
469.365	78.88
469.585	96.88
469.804	81.88
470.023	93.88
470.243	83.88
470.462	100.88
470.681	99.88
470.901	83.88
471.12	87.88
471.339	78.88
471.558	92.88
471.777	97.88
471.997	118.88
472.216	236.88
472.435	429.88
472.654	152.88
472.873	103.88
473.092	93.88
473.311	99.88
473.53	85.88
473.749	86.88
473.968	77.88
474.187	94.88
474.406	96.88
474.625	79.88
474.844	90.88
475.063	87.88
475.282	99.88
475.501	67.88
475.72	97.88
475.939	93.88
476.158	92.88
476.377	86.88
476.596	88.88
476.814	70.88
477.033	94.88
477.252	88.88
477.471	95.88
477.69	83.88
477.908	84.88
478.127	100.88
478.346	93.88
478.564	81.88
478.783	71.88
479.002	90.88
479.22	81.88
479.439	98.88
479.658	103.88
479.876	89.88
480.095	94.88
480.313	79.88
480.532	93.88
480.751	121.88
480.969	231.88
481.188	699.88
481.406	435.88
481.624	136.88
481.843	101.88
482.061	96.88
482.28	84.88
482.498	81.88
482.717	89.88
482.935	81.88
483.153	78.88
483.372	88.88
483.59	81.88
483.808	96.88
484.027	81.88
484.245	95.88
484.463	91.88
484.681	103.88
484.9	91.88
485.118	85.88
485.336	73.88
485.554	83.88
485.772	101.88
485.99	95.88
486.209	103.88
486.427	91.88
486.645	97.88
486.863	107.88
487.081	110.88
487.299	90.88
487.517	94.88
487.735	100.88
487.953	86.88
488.171	85.88
488.389	88.88
488.607	85.88
488.825	84.88
489.043	94.88
489.261	108.88
489.479	92.88
489.696	88.88
489.914	94.88
490.132	98.88
490.35	89.88
490.568	96.88
490.786	86.88
491.003	105.88
491.221	86.88
491.439	83.88
491.657	91.88
491.874	89.88
492.092	88.88
492.31	98.88
492.527	88.88
492.745	76.88
492.963	87.88
493.18	80.88
493.398	85.88
493.615	99.88
493.833	94.88
494.05	88.88
494.268	86.88
494.485	81.88
494.703	88.88
494.92	80.88
495.138	78.88
495.355	90.88
495.573	88.88
495.79	93.88
496.008	94.88
496.225	81.88
496.442	97.88
496.66	99.88
496.877	98.88
497.094	100.88
497.312	84.88
497.529	94.88
497.746	72.88
497.963	102.88
498.181	81.88
498.398	94.88
498.615	109.88
498.832	103.88
499.049	93.88
499.267	95.88
499.484	96.88
499.701	85.88
499.918	91.88
500.135	99.88
500.352	79.88
500.569	80.88
500.786	81.88
501.003	84.88
501.22	80.88
501.437	77.88
501.654	104.88
501.871	101.88
502.088	85.88
502.305	87.88
502.522	85.88
502.739	94.88
502.956	89.88
503.172	79.88
503.389	98.88
503.606	96.88
503.823	110.88
504.04	91.88
504.256	79.88
504.473	87.88
504.69	84.88
504.907	89.88
505.123	78.88
505.34	81.88
505.557	94.88
505.773	90.88
505.99	83.88
506.207	73.88
506.423	69.88
506.64	100.88
506.856	97.88
507.073	93.88
507.289	80.88
507.506	89.88
507.722	113.88
507.939	111.88
508.155	87.88
508.372	93.88
508.588	91.88
508.805	106.88
509.021	107.88
509.238	91.88
509.454	89.88
509.67	92.88
509.887	120.88
510.103	104.88
510.319	184.88
510.536	606.88
510.752	1884.88
510.968	540.88
511.184	138.88
511.401	97.88
511.617	101.88
511.833	97.88
512.049	80.88
512.265	95.88
512.481	94.88
512.698	84.88
512.914	84.88
513.13	84.88
513.346	85.88
513.562	88.88
513.778	89.88
513.994	96.88
514.21	86.88
514.426	105.88
514.642	107.88
514.858	104.88
515.074	147.88
515.29	371.88
515.506	1169.88
515.721	464.88
515.937	127.88
516.153	99.88
