Data from Circ_2010_H10_HRD10591_00021.txt Node
Date: Wed Jan 03 10:09:45 EST 2024
User: Yrep
Spectrometer: HR+D1059
Trigger mode: 1
Integration Time (sec): 1.000000E-1
Scans to average: 1
Electric dark correction enabled: true
Nonlinearity correction enabled: false
Boxcar width: 0
XAxis mode: Wavelengths
Number of Pixels in Spectrum: 2048
>>>>>Begin Spectral Data<<<<<
223.165	-22.25
223.4	-22.25
223.635	-22.25
223.869	-23.25
224.104	-19.25
224.338	-11.25
224.573	-7.25
224.808	-0.25
225.042	-10.25
225.277	-11.25
225.511	-7.25
225.746	0.75
225.98	2.75
226.215	16.75
226.449	9.75
226.683	15.75
226.918	33.75
227.152	32.75
227.387	18.75
227.621	40.75
227.856	41.75
228.09	52.75
228.324	39.75
228.559	37.75
228.793	58.75
229.027	59.75
229.262	64.75
229.496	69.75
229.73	79.75
229.964	81.75
230.199	67.75
230.433	69.75
230.667	80.75
230.901	71.75
231.136	61.75
231.37	62.75
231.604	88.75
231.838	75.75
232.072	83.75
232.306	82.75
232.541	81.75
232.775	93.75
233.009	80.75
233.243	77.75
233.477	75.75
233.711	76.75
233.945	80.75
234.179	68.75
234.413	79.75
234.647	81.75
234.881	89.75
235.115	78.75
235.349	67.75
235.583	75.75
235.817	89.75
236.051	83.75
236.285	84.75
236.519	87.75
236.753	88.75
236.987	64.75
237.221	85.75
237.455	78.75
237.689	73.75
237.922	92.75
238.156	76.75
238.39	63.75
238.624	81.75
238.858	69.75
239.091	68.75
239.325	72.75
239.559	69.75
239.793	88.75
240.027	70.75
240.26	62.75
240.494	80.75
240.728	74.75
240.961	78.75
241.195	67.75
241.429	71.75
241.662	82.75
241.896	67.75
242.13	79.75
242.363	69.75
242.597	85.75
242.83	78.75
243.064	69.75
243.298	62.75
243.531	72.75
243.765	70.75
243.998	79.75
244.232	73.75
244.465	85.75
244.699	79.75
244.932	82.75
245.166	77.75
245.399	75.75
245.633	60.75
245.866	62.75
246.099	87.75
246.333	60.75
246.566	90.75
246.8	75.75
247.033	64.75
247.266	83.75
247.5	65.75
247.733	64.75
247.966	84.75
248.2	76.75
248.433	81.75
248.666	64.75
248.899	70.75
249.133	65.75
249.366	87.75
249.599	81.75
249.832	82.75
250.066	73.75
250.299	85.75
250.532	78.75
250.765	83.75
250.998	73.75
251.231	67.75
251.465	85.75
251.698	76.75
251.931	75.75
252.164	84.75
252.397	83.75
252.63	72.75
252.863	68.75
253.096	76.75
253.329	60.75
253.562	64.75
253.795	64.75
254.028	87.75
254.261	73.75
254.494	81.75
254.727	77.75
254.96	73.75
255.193	80.75
255.426	63.75
255.659	75.75
255.892	77.75
256.124	71.75
256.357	83.75
256.59	72.75
256.823	75.75
257.056	61.75
257.289	74.75
257.521	78.75
257.754	88.75
257.987	66.75
258.22	83.75
258.452	72.75
258.685	67.75
258.918	82.75
259.151	74.75
259.383	88.75
259.616	98.75
259.849	87.75
260.081	94.75
260.314	84.75
260.547	102.75
260.779	69.75
261.012	76.75
261.244	83.75
261.477	72.75
261.71	86.75
261.942	113.75
262.175	103.75
262.407	101.75
262.64	75.75
262.872	66.75
263.105	64.75
263.337	77.75
263.57	65.75
263.802	76.75
264.035	77.75
264.267	67.75
264.499	69.75
264.732	73.75
264.964	64.75
265.197	80.75
265.429	82.75
265.661	80.75
265.894	87.75
266.126	88.75
266.358	77.75
266.591	81.75
266.823	77.75
267.055	77.75
267.287	79.75
267.52	82.75
267.752	86.75
267.984	72.75
268.216	85.75
268.448	82.75
268.681	78.75
268.913	87.75
269.145	75.75
269.377	75.75
269.609	78.75
269.841	75.75
270.073	77.75
270.306	85.75
270.538	69.75
270.77	77.75
271.002	83.75
271.234	68.75
271.466	83.75
271.698	84.75
271.93	81.75
272.162	80.75
272.394	76.75
272.626	74.75
272.858	65.75
273.09	61.75
273.322	86.75
273.553	81.75
273.785	86.75
274.017	90.75
274.249	80.75
274.481	82.75
274.713	79.75
274.945	88.75
275.176	88.75
275.408	88.75
275.64	80.75
275.872	67.75
276.104	85.75
276.335	88.75
276.567	85.75
276.799	92.75
277.031	97.75
277.262	89.75
277.494	72.75
277.726	73.75
277.957	73.75
278.189	95.75
278.421	87.75
278.652	81.75
278.884	80.75
279.115	85.75
279.347	80.75
279.579	77.75
279.81	81.75
280.042	83.75
280.273	91.75
280.505	96.75
280.736	81.75
280.968	65.75
281.199	63.75
281.431	90.75
281.662	70.75
281.894	86.75
282.125	82.75
282.356	111.75
282.588	116.75
282.819	110.75
283.051	85.75
283.282	86.75
283.513	89.75
283.745	65.75
283.976	81.75
284.207	79.75
284.439	77.75
284.67	92.75
284.901	74.75
285.132	75.75
285.364	77.75
285.595	89.75
285.826	79.75
286.057	96.75
286.288	72.75
286.52	68.75
286.751	76.75
286.982	80.75
287.213	85.75
287.444	76.75
287.675	86.75
287.906	81.75
288.138	86.75
288.369	92.75
288.6	84.75
288.831	88.75
289.062	68.75
289.293	72.75
289.524	65.75
289.755	77.75
289.986	75.75
290.217	85.75
290.448	78.75
290.679	82.75
290.91	87.75
291.141	73.75
291.371	75.75
291.602	85.75
291.833	92.75
292.064	66.75
292.295	82.75
292.526	86.75
292.757	91.75
292.987	83.75
293.218	80.75
293.449	92.75
293.68	91.75
293.91	73.75
294.141	71.75
294.372	77.75
294.603	90.75
294.833	77.75
295.064	97.75
295.295	89.75
295.525	85.75
295.756	95.75
295.987	86.75
296.217	113.75
296.448	100.75
296.679	85.75
296.909	67.75
297.14	85.75
297.37	85.75
297.601	87.75
297.831	95.75
298.062	83.75
298.292	72.75
298.523	76.75
298.753	75.75
298.984	74.75
299.214	63.75
299.445	72.75
299.675	86.75
299.905	88.75
300.136	82.75
300.366	81.75
300.597	79.75
300.827	92.75
301.057	87.75
301.288	102.75
301.518	87.75
301.748	95.75
301.979	93.75
302.209	86.75
302.439	82.75
302.669	88.75
302.9	68.75
303.13	79.75
303.36	95.75
303.59	97.75
303.82	85.75
304.051	85.75
304.281	91.75
304.511	77.75
304.741	86.75
304.971	69.75
305.201	90.75
305.431	73.75
305.661	92.75
305.891	102.75
306.121	90.75
306.352	103.75
306.582	86.75
306.812	91.75
307.042	82.75
307.272	95.75
307.502	100.75
307.731	89.75
307.961	90.75
308.191	91.75
308.421	92.75
308.651	83.75
308.881	91.75
309.111	93.75
309.341	92.75
309.571	92.75
309.8	85.75
310.03	87.75
310.26	84.75
310.49	100.75
310.72	96.75
310.949	108.75
311.179	82.75
311.409	95.75
311.639	89.75
311.868	94.75
312.098	84.75
312.328	83.75
312.557	87.75
312.787	84.75
313.017	79.75
313.246	83.75
313.476	84.75
313.706	97.75
313.935	84.75
314.165	91.75
314.394	107.75
314.624	92.75
314.853	89.75
315.083	84.75
315.312	93.75
315.542	90.75
315.771	90.75
316.001	81.75
316.23	83.75
316.46	74.75
316.689	72.75
316.919	88.75
317.148	96.75
317.377	87.75
317.607	83.75
317.836	94.75
318.065	83.75
318.295	86.75
318.524	97.75
318.753	83.75
318.983	88.75
319.212	91.75
319.441	102.75
319.67	97.75
319.9	91.75
320.129	94.75
320.358	84.75
320.587	74.75
320.816	85.75
321.046	92.75
321.275	81.75
321.504	80.75
321.733	90.75
321.962	99.75
322.191	87.75
322.42	85.75
322.649	99.75
322.878	99.75
323.108	111.75
323.337	116.75
323.566	128.75
323.795	144.75
324.024	186.75
324.253	341.75
324.482	705.75
324.71	1462.75
324.939	1816.75
325.168	696.75
325.397	222.75
325.626	138.75
325.855	106.75
326.084	100.75
326.313	105.75
326.542	136.75
326.77	214.75
326.999	392.75
327.228	815.75
327.457	1456.75
327.686	1188.75
327.914	327.75
328.143	184.75
328.372	143.75
328.6	115.75
328.829	126.75
329.058	128.75
329.287	98.75
329.515	98.75
329.744	108.75
329.972	108.75
330.201	138.75
330.43	159.75
330.658	137.75
330.887	126.75
331.115	111.75
331.344	111.75
331.572	102.75
331.801	107.75
332.03	96.75
332.258	88.75
332.486	84.75
332.715	92.75
332.943	78.75
333.172	75.75
333.4	92.75
333.629	95.75
333.857	105.75
334.085	116.75
334.314	149.75
334.542	171.75
334.771	162.75
334.999	101.75
335.227	83.75
335.455	84.75
335.684	88.75
335.912	108.75
336.14	100.75
336.369	75.75
336.597	112.75
336.825	89.75
337.053	80.75
337.281	101.75
337.51	84.75
337.738	85.75
337.966	92.75
338.194	86.75
338.422	94.75
338.65	100.75
338.878	81.75
339.106	82.75
339.334	96.75
339.562	84.75
339.79	81.75
340.018	77.75
340.246	77.75
340.474	84.75
340.702	94.75
340.93	80.75
341.158	92.75
341.386	83.75
341.614	93.75
341.842	66.75
342.07	76.75
342.298	79.75
342.526	92.75
342.754	85.75
342.981	82.75
343.209	86.75
343.437	102.75
343.665	89.75
343.893	101.75
344.12	96.75
344.348	87.75
344.576	83.75
344.804	80.75
345.031	74.75
345.259	96.75
345.487	71.75
345.714	81.75
345.942	90.75
346.17	75.75
346.397	77.75
346.625	93.75
346.853	94.75
347.08	81.75
347.308	99.75
347.535	97.75
347.763	116.75
347.99	94.75
348.218	95.75
348.445	80.75
348.673	88.75
348.9	86.75
349.128	91.75
349.355	99.75
349.583	85.75
349.81	86.75
350.037	104.75
350.265	91.75
350.492	82.75
350.72	92.75
350.947	87.75
351.174	102.75
351.402	104.75
351.629	93.75
351.856	99.75
352.083	79.75
352.311	99.75
352.538	97.75
352.765	106.75
352.992	99.75
353.22	109.75
353.447	111.75
353.674	101.75
353.901	99.75
354.128	86.75
354.355	91.75
354.583	87.75
354.81	85.75
355.037	95.75
355.264	90.75
355.491	89.75
355.718	82.75
355.945	85.75
356.172	84.75
356.399	93.75
356.626	95.75
356.853	83.75
357.08	83.75
357.307	96.75
357.534	87.75
357.761	72.75
357.988	87.75
358.215	91.75
358.441	85.75
358.668	70.75
358.895	96.75
359.122	96.75
359.349	89.75
359.576	78.75
359.802	86.75
360.029	93.75
360.256	112.75
360.483	91.75
360.709	85.75
360.936	77.75
361.163	81.75
361.39	81.75
361.616	84.75
361.843	66.75
362.07	80.75
362.296	88.75
362.523	92.75
362.749	88.75
362.976	88.75
363.203	91.75
363.429	93.75
363.656	85.75
363.882	96.75
364.109	75.75
364.335	98.75
364.562	86.75
364.788	71.75
365.015	92.75
365.241	101.75
365.468	84.75
365.694	97.75
365.92	97.75
366.147	85.75
366.373	82.75
366.599	84.75
366.826	89.75
367.052	91.75
367.278	102.75
367.505	85.75
367.731	90.75
367.957	88.75
368.184	115.75
368.41	94.75
368.636	92.75
368.862	134.75
369.089	111.75
369.315	90.75
369.541	89.75
369.767	86.75
369.993	91.75
370.219	88.75
370.445	92.75
370.672	97.75
370.898	68.75
371.124	85.75
371.35	83.75
371.576	85.75
371.802	94.75
372.028	95.75
372.254	87.75
372.48	82.75
372.706	85.75
372.932	91.75
373.158	81.75
373.384	80.75
373.61	83.75
373.835	74.75
374.061	91.75
374.287	82.75
374.513	92.75
374.739	89.75
374.965	91.75
375.191	98.75
375.416	80.75
375.642	89.75
375.868	71.75
376.094	83.75
376.319	86.75
376.545	91.75
376.771	83.75
376.997	85.75
377.222	86.75
377.448	76.75
377.674	81.75
377.899	76.75
378.125	87.75
378.35	91.75
378.576	99.75
378.802	102.75
379.027	94.75
379.253	81.75
379.478	76.75
379.704	96.75
379.929	93.75
380.155	80.75
380.38	91.75
380.606	91.75
380.831	84.75
381.057	82.75
381.282	75.75
381.507	75.75
381.733	81.75
381.958	103.75
382.184	76.75
382.409	109.75
382.634	98.75
382.86	108.75
383.085	108.75
383.31	100.75
383.535	96.75
383.761	77.75
383.986	97.75
384.211	68.75
384.436	100.75
384.662	97.75
384.887	97.75
385.112	98.75
385.337	90.75
385.562	99.75
385.787	115.75
386.013	104.75
386.238	114.75
386.463	89.75
386.688	109.75
386.913	99.75
387.138	98.75
387.363	97.75
387.588	86.75
387.813	99.75
388.038	80.75
388.263	101.75
388.488	107.75
388.713	91.75
388.938	85.75
389.163	76.75
389.387	84.75
389.612	101.75
389.837	90.75
390.062	93.75
390.287	104.75
390.512	96.75
390.736	84.75
390.961	78.75
391.186	76.75
391.411	95.75
391.636	90.75
391.86	77.75
392.085	82.75
392.31	86.75
392.534	96.75
392.759	80.75
392.984	82.75
393.208	95.75
393.433	105.75
393.658	101.75
393.882	85.75
394.107	85.75
394.331	86.75
394.556	84.75
394.78	85.75
395.005	91.75
395.229	86.75
395.454	76.75
395.678	93.75
395.903	96.75
396.127	80.75
396.352	83.75
396.576	90.75
396.801	89.75
397.025	100.75
397.249	96.75
397.474	81.75
397.698	82.75
397.922	81.75
398.147	75.75
398.371	82.75
398.595	74.75
398.82	74.75
399.044	60.75
399.268	82.75
399.492	75.75
399.717	79.75
399.941	75.75
400.165	84.75
400.389	76.75
400.613	81.75
400.837	71.75
401.062	75.75
401.286	84.75
401.51	90.75
401.734	83.75
401.958	100.75
402.182	104.75
402.406	139.75
402.63	113.75
402.854	86.75
403.078	89.75
403.302	82.75
403.526	74.75
403.75	76.75
403.974	68.75
404.198	79.75
404.422	85.75
404.645	90.75
404.869	79.75
405.093	83.75
405.317	86.75
405.541	87.75
405.765	97.75
405.988	113.75
406.212	139.75
406.436	197.75
406.66	130.75
406.883	100.75
407.107	72.75
407.331	82.75
407.555	95.75
407.778	89.75
408.002	87.75
408.226	93.75
408.449	74.75
408.673	60.75
408.896	85.75
409.12	85.75
409.344	95.75
409.567	85.75
409.791	95.75
410.014	95.75
410.238	96.75
410.461	84.75
410.685	92.75
410.908	86.75
411.132	92.75
411.355	87.75
411.578	82.75
411.802	89.75
412.025	91.75
412.249	84.75
412.472	87.75
412.695	71.75
412.919	76.75
413.142	78.75
413.365	74.75
413.589	82.75
413.812	80.75
414.035	81.75
414.258	81.75
414.482	92.75
414.705	92.75
414.928	95.75
415.151	88.75
415.374	102.75
415.597	85.75
415.821	87.75
416.044	78.75
416.267	75.75
416.49	74.75
416.713	79.75
416.936	94.75
417.159	86.75
417.382	91.75
417.605	99.75
417.828	88.75
418.051	87.75
418.274	91.75
418.497	87.75
418.72	79.75
418.943	85.75
419.166	83.75
419.389	74.75
419.611	73.75
419.834	87.75
420.057	84.75
420.28	79.75
420.503	92.75
420.726	73.75
420.948	69.75
421.171	86.75
421.394	85.75
421.617	84.75
421.839	89.75
422.062	77.75
422.285	95.75
422.507	104.75
422.73	110.75
422.953	87.75
423.175	72.75
423.398	71.75
423.621	79.75
423.843	74.75
424.066	84.75
424.288	82.75
424.511	99.75
424.733	103.75
424.956	91.75
425.178	89.75
425.401	93.75
425.623	101.75
425.846	89.75
426.068	100.75
426.291	77.75
426.513	86.75
426.735	83.75
426.958	81.75
427.18	115.75
427.402	125.75
427.625	146.75
427.847	107.75
428.069	119.75
428.292	83.75
428.514	67.75
428.736	82.75
428.958	78.75
429.181	74.75
429.403	87.75
429.625	81.75
429.847	92.75
430.069	101.75
430.292	88.75
430.514	82.75
430.736	83.75
430.958	83.75
431.18	87.75
431.402	90.75
431.624	77.75
431.846	93.75
432.068	86.75
432.29	85.75
432.512	85.75
432.734	85.75
432.956	80.75
433.178	82.75
433.4	97.75
433.622	92.75
433.844	88.75
434.066	82.75
434.287	93.75
434.509	83.75
434.731	82.75
434.953	85.75
435.175	87.75
435.397	80.75
435.618	84.75
435.84	91.75
436.062	99.75
436.284	107.75
436.505	92.75
436.727	90.75
436.949	85.75
437.17	61.75
437.392	83.75
437.614	85.75
437.835	100.75
438.057	108.75
438.278	103.75
438.5	96.75
438.721	114.75
438.943	100.75
439.165	75.75
439.386	92.75
439.608	99.75
439.829	90.75
440.05	98.75
440.272	125.75
440.493	95.75
440.715	80.75
440.936	80.75
441.158	72.75
441.379	96.75
441.6	94.75
441.822	74.75
442.043	100.75
442.264	113.75
442.486	98.75
442.707	81.75
442.928	95.75
443.149	124.75
443.371	125.75
443.592	99.75
443.813	112.75
444.034	95.75
444.255	84.75
444.476	94.75
444.698	107.75
444.919	89.75
445.14	117.75
445.361	123.75
445.582	106.75
445.803	129.75
446.024	117.75
446.245	117.75
446.466	106.75
446.687	73.75
446.908	83.75
447.129	91.75
447.35	85.75
447.571	84.75
447.792	85.75
448.013	97.75
448.234	95.75
448.455	97.75
448.675	89.75
448.896	108.75
449.117	100.75
449.338	101.75
449.559	107.75
449.779	131.75
450	96.75
450.221	82.75
450.442	77.75
450.662	85.75
450.883	86.75
451.104	107.75
451.324	95.75
451.545	83.75
451.766	85.75
451.986	83.75
452.207	81.75
452.428	82.75
452.648	85.75
452.869	113.75
453.089	93.75
453.31	116.75
453.53	92.75
453.751	88.75
453.971	97.75
454.192	93.75
454.412	81.75
454.633	85.75
454.853	89.75
455.073	84.75
455.294	91.75
455.514	93.75
455.734	81.75
455.955	83.75
456.175	85.75
456.395	72.75
456.616	87.75
456.836	72.75
457.056	87.75
457.276	86.75
457.497	77.75
457.717	75.75
457.937	83.75
458.157	86.75
458.377	90.75
458.598	104.75
458.818	145.75
459.038	146.75
459.258	116.75
459.478	85.75
459.698	85.75
459.918	78.75
460.138	71.75
460.358	72.75
460.578	88.75
460.798	97.75
461.018	96.75
461.238	74.75
461.458	71.75
461.678	74.75
461.898	93.75
462.118	91.75
462.338	88.75
462.558	89.75
462.777	82.75
462.997	92.75
463.217	83.75
463.437	77.75
463.657	71.75
463.876	82.75
464.096	88.75
464.316	96.75
464.536	88.75
464.755	79.75
464.975	87.75
465.195	139.75
465.414	130.75
465.634	82.75
465.854	89.75
466.073	87.75
466.293	82.75
466.512	76.75
466.732	85.75
466.951	89.75
467.171	84.75
467.391	84.75
467.61	93.75
467.829	87.75
468.049	115.75
468.268	116.75
468.488	82.75
468.707	94.75
468.927	89.75
469.146	79.75
469.365	82.75
469.585	87.75
469.804	88.75
470.023	89.75
470.243	76.75
470.462	95.75
470.681	84.75
470.901	88.75
471.12	80.75
471.339	83.75
471.558	77.75
471.777	86.75
471.997	104.75
472.216	155.75
472.435	210.75
472.654	111.75
472.873	73.75
473.092	79.75
473.311	77.75
473.53	87.75
473.749	91.75
473.968	94.75
474.187	93.75
474.406	90.75
474.625	78.75
474.844	82.75
475.063	81.75
475.282	82.75
475.501	64.75
475.72	87.75
475.939	89.75
476.158	85.75
476.377	79.75
476.596	81.75
476.814	64.75
477.033	95.75
477.252	82.75
477.471	72.75
477.69	79.75
477.908	88.75
478.127	88.75
478.346	78.75
478.564	76.75
478.783	90.75
479.002	95.75
479.22	95.75
479.439	98.75
479.658	99.75
479.876	91.75
480.095	71.75
480.313	85.75
480.532	86.75
480.751	100.75
480.969	156.75
481.188	367.75
481.406	260.75
481.624	104.75
481.843	77.75
482.061	74.75
482.28	85.75
482.498	76.75
482.717	82.75
482.935	79.75
483.153	79.75
483.372	104.75
483.59	91.75
483.808	75.75
484.027	87.75
484.245	97.75
484.463	90.75
484.681	99.75
484.9	74.75
485.118	87.75
485.336	91.75
485.554	99.75
485.772	87.75
485.99	91.75
486.209	104.75
486.427	101.75
486.645	112.75
486.863	96.75
487.081	106.75
487.299	92.75
487.517	87.75
487.735	90.75
487.953	85.75
488.171	97.75
488.389	85.75
488.607	95.75
488.825	86.75
489.043	91.75
489.261	94.75
489.479	92.75
489.696	92.75
489.914	88.75
490.132	100.75
490.35	88.75
490.568	87.75
490.786	96.75
491.003	82.75
491.221	85.75
491.439	77.75
491.657	88.75
491.874	81.75
492.092	82.75
492.31	85.75
492.527	81.75
492.745	71.75
492.963	78.75
493.18	93.75
493.398	80.75
493.615	108.75
493.833	96.75
494.05	81.75
494.268	77.75
494.485	90.75
494.703	85.75
494.92	94.75
495.138	91.75
495.355	99.75
495.573	100.75
495.79	82.75
496.008	81.75
496.225	95.75
496.442	82.75
496.66	84.75
496.877	86.75
497.094	86.75
497.312	79.75
497.529	91.75
497.746	94.75
497.963	77.75
498.181	78.75
498.398	95.75
498.615	114.75
498.832	100.75
499.049	96.75
499.267	103.75
499.484	77.75
499.701	100.75
499.918	72.75
500.135	89.75
500.352	89.75
500.569	77.75
500.786	76.75
501.003	85.75
501.22	100.75
501.437	77.75
501.654	84.75
501.871	89.75
502.088	96.75
502.305	88.75
502.522	100.75
502.739	83.75
502.956	78.75
503.172	96.75
503.389	92.75
503.606	99.75
503.823	80.75
504.04	76.75
504.256	89.75
504.473	83.75
504.69	82.75
504.907	83.75
505.123	92.75
505.34	77.75
505.557	88.75
505.773	81.75
505.99	80.75
506.207	88.75
506.423	87.75
506.64	82.75
506.856	86.75
507.073	80.75
507.289	78.75
507.506	86.75
507.722	101.75
507.939	106.75
508.155	91.75
508.372	87.75
508.588	81.75
508.805	85.75
509.021	84.75
509.238	103.75
509.454	94.75
509.67	98.75
509.887	98.75
510.103	114.75
510.319	193.75
510.536	665.75
510.752	2080.75
510.968	614.75
511.184	147.75
511.401	111.75
511.617	84.75
511.833	92.75
512.049	97.75
512.265	85.75
512.481	66.75
512.698	84.75
512.914	70.75
513.13	90.75
513.346	92.75
513.562	87.75
513.778	81.75
513.994	98.75
514.21	92.75
514.426	106.75
514.642	136.75
514.858	123.75
515.074	149.75
515.29	385.75
515.506	1277.75
515.721	492.75
515.937	145.75
516.153	103.75
516.369	107.75
516.585	96.75
516.801	92.75
517.016	91.75
517.232	83.75
