Data from Circ_2010_H10_HRD10591_00052.txt Node
Date: Wed Jan 03 10:09:51 EST 2024
User: Yrep
Spectrometer: HR+D1059
Trigger mode: 1
Integration Time (sec): 1.000000E-1
Scans to average: 1
Electric dark correction enabled: true
Nonlinearity correction enabled: false
Boxcar width: 0
XAxis mode: Wavelengths
Number of Pixels in Spectrum: 2048
>>>>>Begin Spectral Data<<<<<
223.165	-20.81
223.4	-20.81
223.635	-20.81
223.869	-19.81
224.104	-4.81
224.338	-22.81
224.573	-11.81
224.808	-7.81
225.042	-7.81
225.277	0.19
225.511	-11.81
225.746	8.19
225.98	-2.81
226.215	13.19
226.449	14.19
226.683	20.19
226.918	28.19
227.152	26.19
227.387	29.19
227.621	41.19
227.856	33.19
228.09	27.19
228.324	53.19
228.559	53.19
228.793	46.19
229.027	57.19
229.262	62.19
229.496	72.19
229.73	67.19
229.964	87.19
230.199	81.19
230.433	87.19
230.667	71.19
230.901	74.19
231.136	76.19
231.37	75.19
231.604	65.19
231.838	67.19
232.072	70.19
232.306	83.19
232.541	66.19
232.775	85.19
233.009	65.19
233.243	74.19
233.477	69.19
233.711	72.19
233.945	71.19
234.179	81.19
234.413	72.19
234.647	84.19
234.881	77.19
235.115	74.19
235.349	73.19
235.583	75.19
235.817	84.19
236.051	80.19
236.285	83.19
236.519	73.19
236.753	80.19
236.987	81.19
237.221	85.19
237.455	89.19
237.689	78.19
237.922	57.19
238.156	80.19
238.39	77.19
238.624	74.19
238.858	74.19
239.091	75.19
239.325	86.19
239.559	79.19
239.793	68.19
240.027	66.19
240.26	61.19
240.494	73.19
240.728	66.19
240.961	81.19
241.195	81.19
241.429	85.19
241.662	76.19
241.896	83.19
242.13	69.19
242.363	72.19
242.597	69.19
242.83	84.19
243.064	74.19
243.298	76.19
243.531	72.19
243.765	74.19
243.998	74.19
244.232	87.19
244.465	65.19
244.699	74.19
244.932	73.19
245.166	71.19
245.399	76.19
245.633	75.19
245.866	85.19
246.099	71.19
246.333	70.19
246.566	86.19
246.8	69.19
247.033	86.19
247.266	73.19
247.5	67.19
247.733	61.19
247.966	69.19
248.2	82.19
248.433	60.19
248.666	70.19
248.899	84.19
249.133	89.19
249.366	86.19
249.599	98.19
249.832	71.19
250.066	95.19
250.299	65.19
250.532	61.19
250.765	78.19
250.998	80.19
251.231	71.19
251.465	91.19
251.698	89.19
251.931	82.19
252.164	82.19
252.397	73.19
252.63	82.19
252.863	67.19
253.096	86.19
253.329	77.19
253.562	91.19
253.795	77.19
254.028	83.19
254.261	86.19
254.494	74.19
254.727	91.19
254.96	87.19
255.193	74.19
255.426	85.19
255.659	80.19
255.892	76.19
256.124	81.19
256.357	91.19
256.59	80.19
256.823	76.19
257.056	82.19
257.289	81.19
257.521	75.19
257.754	73.19
257.987	78.19
258.22	74.19
258.452	75.19
258.685	88.19
258.918	70.19
259.151	82.19
259.383	89.19
259.616	87.19
259.849	80.19
260.081	87.19
260.314	83.19
260.547	90.19
260.779	84.19
261.012	91.19
261.244	84.19
261.477	90.19
261.71	85.19
261.942	96.19
262.175	89.19
262.407	82.19
262.64	84.19
262.872	63.19
263.105	88.19
263.337	66.19
263.57	84.19
263.802	90.19
264.035	82.19
264.267	86.19
264.499	89.19
264.732	97.19
264.964	87.19
265.197	83.19
265.429	71.19
265.661	78.19
265.894	73.19
266.126	94.19
266.358	74.19
266.591	66.19
266.823	96.19
267.055	88.19
267.287	69.19
267.52	71.19
267.752	78.19
267.984	92.19
268.216	94.19
268.448	75.19
268.681	100.19
268.913	81.19
269.145	83.19
269.377	86.19
269.609	72.19
269.841	79.19
270.073	91.19
270.306	79.19
270.538	69.19
270.77	79.19
271.002	82.19
271.234	96.19
271.466	75.19
271.698	85.19
271.93	69.19
272.162	81.19
272.394	82.19
272.626	76.19
272.858	81.19
273.09	95.19
273.322	76.19
273.553	81.19
273.785	82.19
274.017	80.19
274.249	79.19
274.481	95.19
274.713	98.19
274.945	74.19
275.176	79.19
275.408	94.19
275.64	93.19
275.872	85.19
276.104	81.19
276.335	64.19
276.567	97.19
276.799	93.19
277.031	105.19
277.262	87.19
277.494	75.19
277.726	84.19
277.957	103.19
278.189	94.19
278.421	71.19
278.652	86.19
278.884	86.19
279.115	72.19
279.347	81.19
279.579	84.19
279.81	90.19
280.042	89.19
280.273	84.19
280.505	84.19
280.736	88.19
280.968	93.19
281.199	94.19
281.431	86.19
281.662	90.19
281.894	90.19
282.125	90.19
282.356	102.19
282.588	117.19
282.819	101.19
283.051	96.19
283.282	70.19
283.513	84.19
283.745	80.19
283.976	85.19
284.207	74.19
284.439	83.19
284.67	78.19
284.901	74.19
285.132	70.19
285.364	90.19
285.595	79.19
285.826	97.19
286.057	93.19
286.288	90.19
286.52	91.19
286.751	77.19
286.982	80.19
287.213	75.19
287.444	80.19
287.675	93.19
287.906	97.19
288.138	84.19
288.369	75.19
288.6	97.19
288.831	76.19
289.062	70.19
289.293	83.19
289.524	82.19
289.755	79.19
289.986	87.19
290.217	79.19
290.448	83.19
290.679	68.19
290.91	80.19
291.141	85.19
291.371	92.19
291.602	79.19
291.833	86.19
292.064	86.19
292.295	90.19
292.526	86.19
292.757	100.19
292.987	91.19
293.218	84.19
293.449	88.19
293.68	90.19
293.91	91.19
294.141	85.19
294.372	89.19
294.603	83.19
294.833	92.19
295.064	84.19
295.295	86.19
295.525	81.19
295.756	87.19
295.987	114.19
296.217	115.19
296.448	106.19
296.679	85.19
296.909	95.19
297.14	83.19
297.37	81.19
297.601	72.19
297.831	78.19
298.062	82.19
298.292	88.19
298.523	87.19
298.753	80.19
298.984	75.19
299.214	87.19
299.445	90.19
299.675	93.19
299.905	88.19
300.136	67.19
300.366	74.19
300.597	79.19
300.827	96.19
301.057	89.19
301.288	99.19
301.518	74.19
301.748	83.19
301.979	98.19
302.209	89.19
302.439	82.19
302.669	81.19
302.9	82.19
303.13	113.19
303.36	98.19
303.59	90.19
303.82	98.19
304.051	92.19
304.281	94.19
304.511	94.19
304.741	91.19
304.971	95.19
305.201	83.19
305.431	93.19
305.661	95.19
305.891	90.19
306.121	76.19
306.352	92.19
306.582	88.19
306.812	98.19
307.042	97.19
307.272	78.19
307.502	102.19
307.731	99.19
307.961	95.19
308.191	99.19
308.421	93.19
308.651	108.19
308.881	89.19
309.111	95.19
309.341	98.19
309.571	75.19
309.8	85.19
310.03	89.19
310.26	93.19
310.49	86.19
310.72	85.19
310.949	90.19
311.179	92.19
311.409	93.19
311.639	88.19
311.868	80.19
312.098	93.19
312.328	93.19
312.557	87.19
312.787	78.19
313.017	88.19
313.246	79.19
313.476	86.19
313.706	83.19
313.935	95.19
314.165	88.19
314.394	89.19
314.624	84.19
314.853	95.19
315.083	94.19
315.312	94.19
315.542	91.19
315.771	92.19
316.001	98.19
316.23	82.19
316.46	78.19
316.689	76.19
316.919	94.19
317.148	82.19
317.377	88.19
317.607	90.19
317.836	85.19
318.065	92.19
318.295	97.19
318.524	85.19
318.753	95.19
318.983	98.19
319.212	94.19
319.441	101.19
319.67	84.19
319.9	93.19
320.129	83.19
320.358	89.19
320.587	89.19
320.816	93.19
321.046	86.19
321.275	90.19
321.504	92.19
321.733	87.19
321.962	102.19
322.191	105.19
322.42	102.19
322.649	93.19
322.878	98.19
323.108	102.19
323.337	120.19
323.566	113.19
323.795	145.19
324.024	165.19
324.253	317.19
324.482	651.19
324.71	1284.19
324.939	1658.19
325.168	641.19
325.397	189.19
325.626	119.19
325.855	101.19
326.084	124.19
326.313	124.19
326.542	135.19
326.77	198.19
326.999	373.19
327.228	750.19
327.457	1326.19
327.686	1061.19
327.914	317.19
328.143	190.19
328.372	162.19
328.6	129.19
328.829	108.19
329.058	117.19
329.287	101.19
329.515	118.19
329.744	115.19
329.972	130.19
330.201	173.19
330.43	229.19
330.658	146.19
330.887	101.19
331.115	115.19
331.344	93.19
331.572	108.19
331.801	107.19
332.03	97.19
332.258	92.19
332.486	85.19
332.715	93.19
332.943	100.19
333.172	108.19
333.4	90.19
333.629	98.19
333.857	115.19
334.085	116.19
334.314	165.19
334.542	250.19
334.771	231.19
334.999	127.19
335.227	107.19
335.455	98.19
335.684	93.19
335.912	100.19
336.14	105.19
336.369	87.19
336.597	85.19
336.825	80.19
337.053	91.19
337.281	85.19
337.51	95.19
337.738	76.19
337.966	90.19
338.194	82.19
338.422	99.19
338.65	80.19
338.878	97.19
339.106	94.19
339.334	93.19
339.562	93.19
339.79	83.19
340.018	90.19
340.246	100.19
340.474	86.19
340.702	91.19
340.93	80.19
341.158	94.19
341.386	89.19
341.614	89.19
341.842	103.19
342.07	94.19
342.298	97.19
342.526	79.19
342.754	82.19
342.981	90.19
343.209	85.19
343.437	93.19
343.665	91.19
343.893	99.19
344.12	88.19
344.348	94.19
344.576	83.19
344.804	92.19
345.031	92.19
345.259	92.19
345.487	105.19
345.714	94.19
345.942	84.19
346.17	85.19
346.397	76.19
346.625	87.19
346.853	95.19
347.08	95.19
347.308	113.19
347.535	93.19
347.763	89.19
347.99	94.19
348.218	94.19
348.445	89.19
348.673	98.19
348.9	88.19
349.128	98.19
349.355	100.19
349.583	75.19
349.81	88.19
350.037	98.19
350.265	91.19
350.492	98.19
350.72	92.19
350.947	76.19
351.174	102.19
351.402	108.19
351.629	103.19
351.856	78.19
352.083	84.19
352.311	104.19
352.538	113.19
352.765	89.19
352.992	110.19
353.22	118.19
353.447	102.19
353.674	95.19
353.901	99.19
354.128	93.19
354.355	97.19
354.583	88.19
354.81	78.19
355.037	89.19
355.264	86.19
355.491	95.19
355.718	97.19
355.945	84.19
356.172	87.19
356.399	90.19
356.626	93.19
356.853	82.19
357.08	84.19
357.307	100.19
357.534	86.19
357.761	73.19
357.988	85.19
358.215	102.19
358.441	92.19
358.668	82.19
358.895	90.19
359.122	80.19
359.349	85.19
359.576	84.19
359.802	89.19
360.029	100.19
360.256	109.19
360.483	95.19
360.709	95.19
360.936	94.19
361.163	83.19
361.39	100.19
361.616	99.19
361.843	86.19
362.07	88.19
362.296	81.19
362.523	102.19
362.749	89.19
362.976	90.19
363.203	78.19
363.429	92.19
363.656	92.19
363.882	82.19
364.109	73.19
364.335	96.19
364.562	96.19
364.788	89.19
365.015	94.19
365.241	95.19
365.468	104.19
365.694	82.19
365.92	87.19
366.147	81.19
366.373	90.19
366.599	79.19
366.826	93.19
367.052	95.19
367.278	99.19
367.505	90.19
367.731	92.19
367.957	81.19
368.184	82.19
368.41	91.19
368.636	97.19
368.862	109.19
369.089	103.19
369.315	83.19
369.541	82.19
369.767	91.19
369.993	91.19
370.219	81.19
370.445	76.19
370.672	81.19
370.898	88.19
371.124	80.19
371.35	97.19
371.576	78.19
371.802	77.19
372.028	85.19
372.254	81.19
372.48	85.19
372.706	94.19
372.932	93.19
373.158	92.19
373.384	95.19
373.61	94.19
373.835	86.19
374.061	81.19
374.287	94.19
374.513	84.19
374.739	89.19
374.965	98.19
375.191	84.19
375.416	82.19
375.642	92.19
375.868	81.19
376.094	91.19
376.319	83.19
376.545	74.19
376.771	77.19
376.997	91.19
377.222	81.19
377.448	79.19
377.674	78.19
377.899	92.19
378.125	87.19
378.35	95.19
378.576	97.19
378.802	98.19
379.027	99.19
379.253	90.19
379.478	83.19
379.704	84.19
379.929	84.19
380.155	92.19
380.38	94.19
380.606	68.19
380.831	88.19
381.057	104.19
381.282	93.19
381.507	81.19
381.733	83.19
381.958	85.19
382.184	94.19
382.409	94.19
382.634	97.19
382.86	98.19
383.085	102.19
383.31	91.19
383.535	92.19
383.761	101.19
383.986	97.19
384.211	91.19
384.436	103.19
384.662	100.19
384.887	98.19
385.112	102.19
385.337	75.19
385.562	85.19
385.787	97.19
386.013	102.19
386.238	111.19
386.463	93.19
386.688	102.19
386.913	98.19
387.138	100.19
387.363	110.19
387.588	92.19
387.813	88.19
388.038	95.19
388.263	101.19
388.488	98.19
388.713	97.19
388.938	85.19
389.163	96.19
389.387	93.19
389.612	95.19
389.837	85.19
390.062	89.19
390.287	92.19
390.512	90.19
390.736	98.19
390.961	89.19
391.186	89.19
391.411	97.19
391.636	88.19
391.86	85.19
392.085	78.19
392.31	80.19
392.534	84.19
392.759	99.19
392.984	77.19
393.208	85.19
393.433	94.19
393.658	97.19
393.882	70.19
394.107	78.19
394.331	83.19
394.556	90.19
394.78	93.19
395.005	95.19
395.229	93.19
395.454	90.19
395.678	92.19
395.903	95.19
396.127	98.19
396.352	103.19
396.576	85.19
396.801	97.19
397.025	97.19
397.249	81.19
397.474	86.19
397.698	77.19
397.922	78.19
398.147	83.19
398.371	92.19
398.595	78.19
398.82	69.19
399.044	91.19
399.268	75.19
399.492	82.19
399.717	81.19
399.941	89.19
400.165	89.19
400.389	94.19
400.613	72.19
400.837	73.19
401.062	87.19
401.286	86.19
401.51	86.19
401.734	103.19
401.958	90.19
402.182	111.19
402.406	145.19
402.63	110.19
402.854	89.19
403.078	91.19
403.302	86.19
403.526	81.19
403.75	88.19
403.974	78.19
404.198	89.19
404.422	90.19
404.645	86.19
404.869	83.19
405.093	88.19
405.317	93.19
405.541	98.19
405.765	95.19
405.988	102.19
406.212	138.19
406.436	171.19
406.66	115.19
406.883	89.19
407.107	87.19
407.331	92.19
407.555	82.19
407.778	85.19
408.002	70.19
408.226	93.19
408.449	80.19
408.673	102.19
408.896	87.19
409.12	90.19
409.344	92.19
409.567	79.19
409.791	76.19
410.014	84.19
410.238	94.19
410.461	93.19
410.685	76.19
410.908	97.19
411.132	90.19
411.355	84.19
411.578	89.19
411.802	72.19
412.025	78.19
412.249	98.19
412.472	87.19
412.695	101.19
412.919	85.19
413.142	76.19
413.365	97.19
413.589	98.19
413.812	63.19
414.035	97.19
414.258	99.19
414.482	87.19
414.705	87.19
414.928	85.19
415.151	84.19
415.374	102.19
415.597	93.19
415.821	86.19
416.044	89.19
416.267	90.19
416.49	82.19
416.713	73.19
416.936	82.19
417.159	89.19
417.382	89.19
417.605	84.19
417.828	94.19
418.051	71.19
418.274	82.19
418.497	87.19
418.72	91.19
418.943	79.19
419.166	84.19
419.389	76.19
419.611	85.19
419.834	85.19
420.057	105.19
420.28	92.19
420.503	75.19
420.726	87.19
420.948	84.19
421.171	83.19
421.394	107.19
421.617	86.19
421.839	70.19
422.062	91.19
422.285	81.19
422.507	97.19
422.73	96.19
422.953	86.19
423.175	90.19
423.398	81.19
423.621	85.19
423.843	85.19
424.066	82.19
424.288	81.19
424.511	84.19
424.733	97.19
424.956	94.19
425.178	87.19
425.401	83.19
425.623	97.19
425.846	92.19
426.068	87.19
426.291	101.19
426.513	95.19
426.735	81.19
426.958	85.19
427.18	103.19
427.402	116.19
427.625	143.19
427.847	113.19
428.069	99.19
428.292	76.19
428.514	72.19
428.736	89.19
428.958	97.19
429.181	82.19
429.403	79.19
429.625	73.19
429.847	74.19
430.069	97.19
430.292	98.19
430.514	81.19
430.736	100.19
430.958	82.19
431.18	75.19
431.402	78.19
431.624	85.19
431.846	90.19
432.068	89.19
432.29	76.19
432.512	87.19
432.734	74.19
432.956	91.19
433.178	90.19
433.4	77.19
433.622	78.19
433.844	75.19
434.066	87.19
434.287	80.19
434.509	88.19
434.731	86.19
434.953	73.19
435.175	88.19
435.397	94.19
435.618	83.19
435.84	102.19
436.062	113.19
436.284	118.19
436.505	77.19
436.727	105.19
436.949	91.19
437.17	92.19
437.392	79.19
437.614	78.19
437.835	97.19
438.057	94.19
438.278	104.19
438.5	89.19
438.721	105.19
438.943	97.19
439.165	78.19
439.386	85.19
439.608	81.19
439.829	99.19
440.05	106.19
440.272	114.19
440.493	91.19
440.715	91.19
440.936	90.19
441.158	78.19
441.379	74.19
441.6	103.19
441.822	90.19
442.043	89.19
442.264	94.19
442.486	91.19
442.707	93.19
442.928	101.19
443.149	105.19
443.371	109.19
443.592	90.19
443.813	97.19
444.034	97.19
444.255	93.19
444.476	94.19
444.698	82.19
444.919	83.19
445.14	116.19
445.361	103.19
445.582	95.19
445.803	92.19
446.024	105.19
446.245	110.19
446.466	98.19
446.687	87.19
446.908	97.19
447.129	91.19
447.35	81.19
447.571	85.19
447.792	78.19
448.013	99.19
448.234	77.19
448.455	91.19
448.675	118.19
448.896	129.19
449.117	106.19
449.338	104.19
449.559	106.19
449.779	118.19
450	81.19
450.221	78.19
450.442	77.19
450.662	81.19
450.883	99.19
451.104	109.19
451.324	98.19
451.545	95.19
451.766	83.19
451.986	84.19
452.207	100.19
452.428	90.19
452.648	86.19
452.869	101.19
453.089	104.19
453.31	91.19
453.53	87.19
453.751	95.19
453.971	78.19
454.192	97.19
454.412	85.19
454.633	92.19
454.853	79.19
455.073	71.19
455.294	101.19
455.514	98.19
455.734	85.19
455.955	84.19
456.175	79.19
456.395	74.19
456.616	84.19
456.836	78.19
457.056	90.19
457.276	77.19
457.497	87.19
457.717	97.19
457.937	85.19
458.157	82.19
458.377	88.19
458.598	86.19
458.818	125.19
459.038	126.19
459.258	88.19
459.478	102.19
459.698	102.19
459.918	83.19
460.138	65.19
460.358	84.19
460.578	87.19
460.798	85.19
461.018	83.19
461.238	85.19
461.458	96.19
461.678	82.19
461.898	81.19
462.118	65.19
462.338	86.19
462.558	93.19
462.777	97.19
462.997	90.19
463.217	78.19
463.437	86.19
463.657	83.19
463.876	80.19
464.096	79.19
464.316	78.19
464.536	74.19
464.755	90.19
464.975	107.19
465.195	125.19
465.414	118.19
465.634	99.19
465.854	88.19
466.073	84.19
466.293	76.19
466.512	105.19
466.732	69.19
466.951	78.19
467.171	90.19
467.391	91.19
467.61	100.19
467.829	96.19
468.049	126.19
468.268	153.19
468.488	97.19
468.707	89.19
468.927	98.19
469.146	88.19
469.365	81.19
469.585	92.19
469.804	95.19
470.023	87.19
470.243	82.19
470.462	86.19
470.681	90.19
470.901	88.19
471.12	88.19
471.339	86.19
471.558	75.19
471.777	96.19
471.997	110.19
472.216	198.19
472.435	314.19
472.654	144.19
472.873	86.19
473.092	88.19
473.311	87.19
473.53	83.19
473.749	83.19
473.968	101.19
474.187	97.19
474.406	78.19
474.625	88.19
474.844	89.19
475.063	77.19
475.282	78.19
475.501	91.19
475.72	100.19
475.939	89.19
476.158	100.19
476.377	94.19
476.596	88.19
476.814	85.19
477.033	85.19
477.252	91.19
477.471	71.19
477.69	81.19
477.908	77.19
478.127	82.19
478.346	73.19
478.564	91.19
478.783	93.19
479.002	89.19
479.22	75.19
479.439	90.19
479.658	93.19
479.876	96.19
480.095	89.19
480.313	100.19
480.532	106.19
480.751	132.19
480.969	185.19
481.188	516.19
481.406	314.19
481.624	118.19
481.843	87.19
482.061	78.19
482.28	88.19
482.498	80.19
482.717	88.19
482.935	97.19
483.153	78.19
483.372	70.19
483.59	84.19
483.808	86.19
484.027	94.19
484.245	94.19
484.463	86.19
484.681	95.19
484.9	87.19
485.118	84.19
485.336	75.19
485.554	93.19
485.772	96.19
485.99	95.19
486.209	94.19
486.427	111.19
486.645	100.19
486.863	102.19
487.081	86.19
487.299	100.19
487.517	107.19
487.735	84.19
487.953	86.19
488.171	93.19
488.389	87.19
488.607	90.19
488.825	86.19
489.043	97.19
489.261	89.19
489.479	88.19
489.696	91.19
489.914	86.19
490.132	82.19
490.35	85.19
490.568	82.19
490.786	81.19
491.003	82.19
491.221	90.19
491.439	77.19
491.657	94.19
491.874	75.19
492.092	78.19
492.31	81.19
492.527	93.19
492.745	79.19
492.963	96.19
493.18	92.19
493.398	89.19
493.615	93.19
493.833	84.19
494.05	85.19
494.268	83.19
494.485	88.19
494.703	92.19
494.92	93.19
495.138	87.19
495.355	87.19
495.573	95.19
495.79	90.19
496.008	84.19
496.225	75.19
496.442	85.19
496.66	79.19
496.877	80.19
497.094	94.19
497.312	90.19
497.529	82.19
497.746	97.19
497.963	86.19
498.181	92.19
498.398	89.19
498.615	110.19
498.832	93.19
499.049	92.19
499.267	100.19
499.484	89.19
499.701	79.19
499.918	99.19
500.135	89.19
500.352	79.19
500.569	70.19
500.786	85.19
501.003	96.19
501.22	82.19
501.437	91.19
501.654	90.19
501.871	94.19
502.088	91.19
502.305	86.19
502.522	91.19
502.739	82.19
502.956	77.19
503.172	89.19
503.389	86.19
503.606	102.19
503.823	90.19
504.04	95.19
504.256	83.19
504.473	90.19
504.69	85.19
504.907	92.19
505.123	96.19
505.34	81.19
505.557	85.19
505.773	89.19
505.99	86.19
506.207	89.19
506.423	69.19
506.64	98.19
506.856	81.19
507.073	75.19
507.289	92.19
507.506	100.19
507.722	107.19
507.939	102.19
508.155	96.19
508.372	82.19
508.588	90.19
508.805	89.19
509.021	76.19
509.238	92.19
509.454	96.19
509.67	87.19
509.887	111.19
510.103	114.19
510.319	163.19
510.536	545.19
510.752	1659.19
510.968	476.19
511.184	128.19
511.401	110.19
511.617	83.19
511.833	99.19
512.049	73.19
512.265	88.19
512.481	81.19
512.698	96.19
512.914	85.19
513.13	97.19
513.346	90.19
513.562	101.19
513.778	98.19
513.994	99.19
514.21	93.19
514.426	93.19
514.642	114.19
514.858	116.19
515.074	139.19
515.29	337.19
515.506	973.19
515.721	395.19
515.937	135.19
516.153	105.19
516.369	109.19
516.585	94.19
516.801	91.19
517.016	106.19
517.232	93.19
