Data from Circ_2010_H10_HRD10591_00006.txt Node
Date: Wed Jan 03 10:09:42 EST 2024
User: Yrep
Spectrometer: HR+D1059
Trigger mode: 1
Integration Time (sec): 1.000000E-1
Scans to average: 1
Electric dark correction enabled: true
Nonlinearity correction enabled: false
Boxcar width: 0
XAxis mode: Wavelengths
Number of Pixels in Spectrum: 2048
>>>>>Begin Spectral Data<<<<<
223.165	-18.69
223.4	-18.69
223.635	-18.69
223.869	-33.69
224.104	-22.69
224.338	-8.69
224.573	-17.69
224.808	-17.69
225.042	0.31
225.277	-11.69
225.511	-5.69
225.746	2.31
225.98	-1.69
226.215	13.31
226.449	15.31
226.683	38.31
226.918	23.31
227.152	45.31
227.387	29.31
227.621	29.31
227.856	36.31
228.09	43.31
228.324	50.31
228.559	61.31
228.793	53.31
229.027	51.31
229.262	54.31
229.496	65.31
229.73	70.31
229.964	80.31
230.199	73.31
230.433	66.31
230.667	72.31
230.901	95.31
231.136	84.31
231.37	67.31
231.604	83.31
231.838	70.31
232.072	76.31
232.306	78.31
232.541	56.31
232.775	87.31
233.009	85.31
233.243	68.31
233.477	75.31
233.711	79.31
233.945	68.31
234.179	71.31
234.413	80.31
234.647	76.31
234.881	82.31
235.115	77.31
235.349	83.31
235.583	81.31
235.817	73.31
236.051	74.31
236.285	64.31
236.519	62.31
236.753	78.31
236.987	85.31
237.221	73.31
237.455	65.31
237.689	69.31
237.922	85.31
238.156	79.31
238.39	68.31
238.624	80.31
238.858	70.31
239.091	62.31
239.325	66.31
239.559	67.31
239.793	68.31
240.027	64.31
240.26	89.31
240.494	65.31
240.728	63.31
240.961	63.31
241.195	64.31
241.429	73.31
241.662	60.31
241.896	72.31
242.13	65.31
242.363	60.31
242.597	71.31
242.83	64.31
243.064	66.31
243.298	65.31
243.531	75.31
243.765	81.31
243.998	73.31
244.232	83.31
244.465	88.31
244.699	85.31
244.932	73.31
245.166	74.31
245.399	66.31
245.633	78.31
245.866	69.31
246.099	67.31
246.333	75.31
246.566	70.31
246.8	69.31
247.033	73.31
247.266	72.31
247.5	70.31
247.733	75.31
247.966	84.31
248.2	79.31
248.433	66.31
248.666	73.31
248.899	63.31
249.133	73.31
249.366	101.31
249.599	96.31
249.832	80.31
250.066	70.31
250.299	70.31
250.532	83.31
250.765	69.31
250.998	73.31
251.231	73.31
251.465	68.31
251.698	66.31
251.931	78.31
252.164	71.31
252.397	80.31
252.63	73.31
252.863	72.31
253.096	79.31
253.329	71.31
253.562	77.31
253.795	80.31
254.028	66.31
254.261	81.31
254.494	72.31
254.727	72.31
254.96	71.31
255.193	79.31
255.426	61.31
255.659	73.31
255.892	81.31
256.124	72.31
256.357	73.31
256.59	70.31
256.823	75.31
257.056	80.31
257.289	69.31
257.521	74.31
257.754	61.31
257.987	61.31
258.22	83.31
258.452	81.31
258.685	70.31
258.918	74.31
259.151	76.31
259.383	71.31
259.616	74.31
259.849	72.31
260.081	70.31
260.314	90.31
260.547	89.31
260.779	64.31
261.012	65.31
261.244	75.31
261.477	75.31
261.71	91.31
261.942	86.31
262.175	100.31
262.407	74.31
262.64	84.31
262.872	65.31
263.105	79.31
263.337	74.31
263.57	66.31
263.802	62.31
264.035	77.31
264.267	72.31
264.499	91.31
264.732	86.31
264.964	83.31
265.197	85.31
265.429	68.31
265.661	86.31
265.894	95.31
266.126	89.31
266.358	74.31
266.591	81.31
266.823	76.31
267.055	64.31
267.287	70.31
267.52	64.31
267.752	81.31
267.984	77.31
268.216	82.31
268.448	81.31
268.681	79.31
268.913	85.31
269.145	73.31
269.377	81.31
269.609	83.31
269.841	69.31
270.073	79.31
270.306	91.31
270.538	93.31
270.77	82.31
271.002	81.31
271.234	66.31
271.466	85.31
271.698	74.31
271.93	75.31
272.162	74.31
272.394	79.31
272.626	84.31
272.858	81.31
273.09	79.31
273.322	84.31
273.553	87.31
273.785	83.31
274.017	70.31
274.249	58.31
274.481	75.31
274.713	62.31
274.945	73.31
275.176	78.31
275.408	83.31
275.64	65.31
275.872	85.31
276.104	91.31
276.335	85.31
276.567	93.31
276.799	103.31
277.031	85.31
277.262	84.31
277.494	80.31
277.726	80.31
277.957	64.31
278.189	72.31
278.421	71.31
278.652	69.31
278.884	90.31
279.115	85.31
279.347	87.31
279.579	83.31
279.81	97.31
280.042	88.31
280.273	90.31
280.505	71.31
280.736	80.31
280.968	90.31
281.199	79.31
281.431	78.31
281.662	72.31
281.894	90.31
282.125	86.31
282.356	106.31
282.588	111.31
282.819	103.31
283.051	87.31
283.282	86.31
283.513	75.31
283.745	68.31
283.976	78.31
284.207	78.31
284.439	79.31
284.67	86.31
284.901	85.31
285.132	91.31
285.364	78.31
285.595	76.31
285.826	89.31
286.057	90.31
286.288	82.31
286.52	82.31
286.751	68.31
286.982	79.31
287.213	81.31
287.444	90.31
287.675	87.31
287.906	90.31
288.138	104.31
288.369	83.31
288.6	82.31
288.831	82.31
289.062	81.31
289.293	91.31
289.524	79.31
289.755	86.31
289.986	86.31
290.217	90.31
290.448	70.31
290.679	81.31
290.91	75.31
291.141	89.31
291.371	90.31
291.602	98.31
291.833	92.31
292.064	86.31
292.295	75.31
292.526	88.31
292.757	77.31
292.987	88.31
293.218	82.31
293.449	90.31
293.68	87.31
293.91	78.31
294.141	73.31
294.372	79.31
294.603	61.31
294.833	81.31
295.064	83.31
295.295	99.31
295.525	81.31
295.756	100.31
295.987	107.31
296.217	126.31
296.448	106.31
296.679	81.31
296.909	62.31
297.14	74.31
297.37	74.31
297.601	98.31
297.831	82.31
298.062	92.31
298.292	75.31
298.523	79.31
298.753	85.31
298.984	74.31
299.214	80.31
299.445	79.31
299.675	91.31
299.905	100.31
300.136	93.31
300.366	80.31
300.597	79.31
300.827	86.31
301.057	92.31
301.288	90.31
301.518	83.31
301.748	89.31
301.979	94.31
302.209	71.31
302.439	61.31
302.669	66.31
302.9	89.31
303.13	79.31
303.36	93.31
303.59	102.31
303.82	103.31
304.051	75.31
304.281	67.31
304.511	89.31
304.741	75.31
304.971	83.31
305.201	92.31
305.431	76.31
305.661	94.31
305.891	89.31
306.121	84.31
306.352	97.31
306.582	92.31
306.812	88.31
307.042	85.31
307.272	88.31
307.502	84.31
307.731	74.31
307.961	96.31
308.191	82.31
308.421	87.31
308.651	95.31
308.881	87.31
309.111	83.31
309.341	85.31
309.571	103.31
309.8	80.31
310.03	93.31
310.26	93.31
310.49	89.31
310.72	95.31
310.949	94.31
311.179	80.31
311.409	86.31
311.639	90.31
311.868	85.31
312.098	93.31
312.328	87.31
312.557	105.31
312.787	85.31
313.017	79.31
313.246	104.31
313.476	69.31
313.706	90.31
313.935	99.31
314.165	90.31
314.394	83.31
314.624	88.31
314.853	90.31
315.083	85.31
315.312	77.31
315.542	95.31
315.771	87.31
316.001	80.31
316.23	62.31
316.46	79.31
316.689	80.31
316.919	100.31
317.148	84.31
317.377	92.31
317.607	89.31
317.836	77.31
318.065	85.31
318.295	70.31
318.524	84.31
318.753	83.31
318.983	79.31
319.212	86.31
319.441	94.31
319.67	98.31
319.9	95.31
320.129	75.31
320.358	94.31
320.587	77.31
320.816	93.31
321.046	87.31
321.275	106.31
321.504	84.31
321.733	87.31
321.962	100.31
322.191	96.31
322.42	101.31
322.649	99.31
322.878	96.31
323.108	96.31
323.337	120.31
323.566	117.31
323.795	142.31
324.024	185.31
324.253	322.31
324.482	665.31
324.71	1343.31
324.939	1756.31
325.168	665.31
325.397	205.31
325.626	139.31
325.855	117.31
326.084	115.31
326.313	130.31
326.542	138.31
326.77	192.31
326.999	374.31
327.228	759.31
327.457	1339.31
327.686	1054.31
327.914	294.31
328.143	171.31
328.372	143.31
328.6	117.31
328.829	111.31
329.058	118.31
329.287	112.31
329.515	91.31
329.744	123.31
329.972	113.31
330.201	143.31
330.43	159.31
330.658	132.31
330.887	118.31
331.115	109.31
331.344	91.31
331.572	99.31
331.801	89.31
332.03	90.31
332.258	84.31
332.486	84.31
332.715	76.31
332.943	75.31
333.172	93.31
333.4	75.31
333.629	105.31
333.857	109.31
334.085	105.31
334.314	118.31
334.542	173.31
334.771	168.31
334.999	109.31
335.227	93.31
335.455	75.31
335.684	99.31
335.912	102.31
336.14	100.31
336.369	91.31
336.597	93.31
336.825	88.31
337.053	76.31
337.281	97.31
337.51	103.31
337.738	96.31
337.966	85.31
338.194	83.31
338.422	80.31
338.65	94.31
338.878	100.31
339.106	86.31
339.334	73.31
339.562	88.31
339.79	86.31
340.018	83.31
340.246	82.31
340.474	85.31
340.702	91.31
340.93	93.31
341.158	88.31
341.386	82.31
341.614	86.31
341.842	79.31
342.07	79.31
342.298	81.31
342.526	77.31
342.754	91.31
342.981	80.31
343.209	73.31
343.437	83.31
343.665	86.31
343.893	82.31
344.12	78.31
344.348	83.31
344.576	84.31
344.804	86.31
345.031	92.31
345.259	96.31
345.487	95.31
345.714	84.31
345.942	87.31
346.17	90.31
346.397	84.31
346.625	79.31
346.853	86.31
347.08	79.31
347.308	92.31
347.535	77.31
347.763	96.31
347.99	84.31
348.218	93.31
348.445	89.31
348.673	98.31
348.9	89.31
349.128	66.31
349.355	86.31
349.583	90.31
349.81	82.31
350.037	82.31
350.265	79.31
350.492	91.31
350.72	85.31
350.947	97.31
351.174	96.31
351.402	109.31
351.629	91.31
351.856	84.31
352.083	92.31
352.311	93.31
352.538	91.31
352.765	94.31
352.992	91.31
353.22	111.31
353.447	97.31
353.674	98.31
353.901	93.31
354.128	99.31
354.355	96.31
354.583	101.31
354.81	103.31
355.037	101.31
355.264	92.31
355.491	86.31
355.718	71.31
355.945	73.31
356.172	90.31
356.399	90.31
356.626	89.31
356.853	91.31
357.08	85.31
357.307	92.31
357.534	86.31
357.761	82.31
357.988	85.31
358.215	88.31
358.441	98.31
358.668	84.31
358.895	72.31
359.122	82.31
359.349	90.31
359.576	96.31
359.802	82.31
360.029	97.31
360.256	99.31
360.483	95.31
360.709	80.31
360.936	86.31
361.163	77.31
361.39	113.31
361.616	78.31
361.843	77.31
362.07	77.31
362.296	87.31
362.523	84.31
362.749	94.31
362.976	98.31
363.203	85.31
363.429	92.31
363.656	74.31
363.882	91.31
364.109	95.31
364.335	82.31
364.562	94.31
364.788	89.31
365.015	87.31
365.241	83.31
365.468	92.31
365.694	93.31
365.92	68.31
366.147	74.31
366.373	75.31
366.599	85.31
366.826	72.31
367.052	77.31
367.278	86.31
367.505	91.31
367.731	83.31
367.957	70.31
368.184	81.31
368.41	101.31
368.636	102.31
368.862	94.31
369.089	91.31
369.315	96.31
369.541	88.31
369.767	90.31
369.993	62.31
370.219	79.31
370.445	80.31
370.672	81.31
370.898	90.31
371.124	81.31
371.35	93.31
371.576	83.31
371.802	82.31
372.028	80.31
372.254	88.31
372.48	73.31
372.706	89.31
372.932	81.31
373.158	71.31
373.384	93.31
373.61	73.31
373.835	78.31
374.061	90.31
374.287	95.31
374.513	90.31
374.739	91.31
374.965	87.31
375.191	81.31
375.416	67.31
375.642	94.31
375.868	73.31
376.094	96.31
376.319	96.31
376.545	80.31
376.771	73.31
376.997	83.31
377.222	82.31
377.448	86.31
377.674	101.31
377.899	72.31
378.125	78.31
378.35	79.31
378.576	84.31
378.802	84.31
379.027	81.31
379.253	83.31
379.478	91.31
379.704	109.31
379.929	87.31
380.155	85.31
380.38	92.31
380.606	78.31
380.831	90.31
381.057	79.31
381.282	87.31
381.507	82.31
381.733	86.31
381.958	93.31
382.184	95.31
382.409	95.31
382.634	89.31
382.86	86.31
383.085	107.31
383.31	97.31
383.535	95.31
383.761	84.31
383.986	93.31
384.211	90.31
384.436	103.31
384.662	110.31
384.887	80.31
385.112	89.31
385.337	94.31
385.562	102.31
385.787	104.31
386.013	106.31
386.238	98.31
386.463	105.31
386.688	100.31
386.913	104.31
387.138	108.31
387.363	106.31
387.588	81.31
387.813	91.31
388.038	95.31
388.263	101.31
388.488	104.31
388.713	85.31
388.938	87.31
389.163	89.31
389.387	85.31
389.612	106.31
389.837	83.31
390.062	78.31
390.287	88.31
390.512	87.31
390.736	76.31
390.961	95.31
391.186	98.31
391.411	93.31
391.636	79.31
391.86	101.31
392.085	89.31
392.31	87.31
392.534	85.31
392.759	80.31
392.984	83.31
393.208	94.31
393.433	98.31
393.658	97.31
393.882	86.31
394.107	79.31
394.331	69.31
394.556	93.31
394.78	78.31
395.005	68.31
395.229	80.31
395.454	73.31
395.678	84.31
395.903	90.31
396.127	70.31
396.352	72.31
396.576	93.31
396.801	81.31
397.025	95.31
397.249	91.31
397.474	86.31
397.698	80.31
397.922	78.31
398.147	81.31
398.371	75.31
398.595	74.31
398.82	63.31
399.044	68.31
399.268	77.31
399.492	87.31
399.717	65.31
399.941	81.31
400.165	89.31
400.389	57.31
400.613	75.31
400.837	75.31
401.062	81.31
401.286	83.31
401.51	89.31
401.734	83.31
401.958	76.31
402.182	114.31
402.406	143.31
402.63	113.31
402.854	88.31
403.078	77.31
403.302	76.31
403.526	88.31
403.75	84.31
403.974	70.31
404.198	74.31
404.422	85.31
404.645	72.31
404.869	74.31
405.093	90.31
405.317	93.31
405.541	92.31
405.765	80.31
405.988	96.31
406.212	135.31
406.436	203.31
406.66	115.31
406.883	81.31
407.107	82.31
407.331	97.31
407.555	88.31
407.778	77.31
408.002	93.31
408.226	89.31
408.449	80.31
408.673	67.31
408.896	86.31
409.12	90.31
409.344	81.31
409.567	90.31
409.791	82.31
410.014	71.31
410.238	85.31
410.461	71.31
410.685	90.31
410.908	85.31
411.132	84.31
411.355	81.31
411.578	82.31
411.802	77.31
412.025	83.31
412.249	84.31
412.472	95.31
412.695	91.31
412.919	91.31
413.142	90.31
413.365	95.31
413.589	73.31
413.812	88.31
414.035	75.31
414.258	88.31
414.482	74.31
414.705	88.31
414.928	79.31
415.151	81.31
415.374	68.31
415.597	80.31
415.821	78.31
416.044	75.31
416.267	88.31
416.49	90.31
416.713	72.31
416.936	72.31
417.159	87.31
417.382	89.31
417.605	82.31
417.828	90.31
418.051	76.31
418.274	69.31
418.497	73.31
418.72	80.31
418.943	88.31
419.166	82.31
419.389	93.31
419.611	83.31
419.834	88.31
420.057	82.31
420.28	89.31
420.503	98.31
420.726	83.31
420.948	76.31
421.171	71.31
421.394	87.31
421.617	82.31
421.839	79.31
422.062	91.31
422.285	75.31
422.507	110.31
422.73	87.31
422.953	89.31
423.175	91.31
423.398	85.31
423.621	78.31
423.843	70.31
424.066	80.31
424.288	87.31
424.511	73.31
424.733	71.31
424.956	106.31
425.178	89.31
425.401	92.31
425.623	100.31
425.846	91.31
426.068	78.31
426.291	82.31
426.513	83.31
426.735	85.31
426.958	82.31
427.18	90.31
427.402	113.31
427.625	143.31
427.847	113.31
428.069	103.31
428.292	87.31
428.514	63.31
428.736	86.31
428.958	79.31
429.181	83.31
429.403	76.31
429.625	74.31
429.847	85.31
430.069	89.31
430.292	63.31
430.514	79.31
430.736	87.31
430.958	75.31
431.18	72.31
431.402	86.31
431.624	76.31
431.846	74.31
432.068	79.31
432.29	89.31
432.512	79.31
432.734	79.31
432.956	78.31
433.178	87.31
433.4	97.31
433.622	92.31
433.844	74.31
434.066	78.31
434.287	78.31
434.509	75.31
434.731	82.31
434.953	83.31
435.175	89.31
435.397	71.31
435.618	77.31
435.84	88.31
436.062	100.31
436.284	106.31
436.505	81.31
436.727	82.31
436.949	84.31
437.17	88.31
437.392	82.31
437.614	78.31
437.835	89.31
438.057	106.31
438.278	97.31
438.5	91.31
438.721	86.31
438.943	90.31
439.165	89.31
439.386	70.31
439.608	75.31
439.829	89.31
440.05	100.31
440.272	125.31
440.493	94.31
440.715	73.31
440.936	96.31
441.158	88.31
441.379	89.31
441.6	92.31
441.822	87.31
442.043	95.31
442.264	90.31
442.486	88.31
442.707	72.31
442.928	98.31
443.149	109.31
443.371	108.31
443.592	97.31
443.813	82.31
444.034	80.31
444.255	81.31
444.476	73.31
444.698	73.31
444.919	86.31
445.14	128.31
445.361	117.31
445.582	106.31
445.803	111.31
446.024	116.31
446.245	119.31
446.466	96.31
446.687	71.31
446.908	72.31
447.129	74.31
447.35	87.31
447.571	82.31
447.792	88.31
448.013	95.31
448.234	92.31
448.455	83.31
448.675	90.31
448.896	112.31
449.117	82.31
449.338	85.31
449.559	101.31
449.779	111.31
450	75.31
450.221	85.31
450.442	72.31
450.662	92.31
450.883	96.31
451.104	98.31
451.324	85.31
451.545	83.31
451.766	77.31
451.986	77.31
452.207	53.31
452.428	97.31
452.648	86.31
452.869	87.31
453.089	117.31
453.31	111.31
453.53	80.31
453.751	88.31
453.971	102.31
454.192	93.31
454.412	90.31
454.633	77.31
454.853	90.31
455.073	75.31
455.294	91.31
455.514	77.31
455.734	90.31
455.955	79.31
456.175	74.31
456.395	90.31
456.616	65.31
456.836	65.31
457.056	87.31
457.276	88.31
457.497	74.31
457.717	76.31
457.937	67.31
458.157	80.31
458.377	78.31
458.598	94.31
458.818	123.31
459.038	133.31
459.258	99.31
459.478	77.31
459.698	80.31
459.918	68.31
460.138	81.31
460.358	80.31
460.578	87.31
460.798	82.31
461.018	88.31
461.238	73.31
461.458	77.31
461.678	63.31
461.898	85.31
462.118	78.31
462.338	74.31
462.558	81.31
462.777	87.31
462.997	82.31
463.217	77.31
463.437	78.31
463.657	75.31
463.876	84.31
464.096	83.31
464.316	91.31
464.536	80.31
464.755	73.31
464.975	93.31
465.195	154.31
465.414	137.31
465.634	74.31
465.854	94.31
466.073	74.31
466.293	74.31
466.512	75.31
466.732	85.31
466.951	67.31
467.171	91.31
467.391	66.31
467.61	96.31
467.829	98.31
468.049	102.31
468.268	100.31
468.488	78.31
468.707	82.31
468.927	73.31
469.146	79.31
469.365	63.31
469.585	87.31
469.804	85.31
470.023	83.31
470.243	69.31
470.462	98.31
470.681	85.31
470.901	85.31
471.12	60.31
471.339	70.31
471.558	91.31
471.777	84.31
471.997	82.31
472.216	140.31
472.435	210.31
472.654	86.31
472.873	84.31
473.092	69.31
473.311	89.31
473.53	69.31
473.749	73.31
473.968	87.31
474.187	104.31
474.406	91.31
474.625	74.31
474.844	84.31
475.063	75.31
475.282	92.31
475.501	75.31
475.72	84.31
475.939	78.31
476.158	75.31
476.377	86.31
476.596	74.31
476.814	84.31
477.033	73.31
477.252	93.31
477.471	79.31
477.69	84.31
477.908	72.31
478.127	85.31
478.346	65.31
478.564	80.31
478.783	73.31
479.002	75.31
479.22	91.31
479.439	77.31
479.658	84.31
479.876	88.31
480.095	85.31
480.313	79.31
480.532	77.31
480.751	74.31
480.969	128.31
481.188	305.31
481.406	206.31
481.624	97.31
481.843	82.31
482.061	81.31
482.28	80.31
482.498	81.31
482.717	82.31
482.935	84.31
483.153	80.31
483.372	84.31
483.59	70.31
483.808	80.31
484.027	75.31
484.245	81.31
484.463	91.31
484.681	81.31
484.9	76.31
485.118	88.31
485.336	95.31
485.554	88.31
485.772	86.31
485.99	95.31
486.209	96.31
486.427	90.31
486.645	96.31
486.863	114.31
487.081	86.31
487.299	72.31
487.517	92.31
487.735	97.31
487.953	75.31
488.171	84.31
488.389	96.31
488.607	85.31
488.825	88.31
489.043	84.31
489.261	98.31
489.479	79.31
489.696	86.31
489.914	69.31
490.132	84.31
490.35	81.31
490.568	79.31
490.786	82.31
491.003	83.31
491.221	75.31
491.439	82.31
491.657	89.31
491.874	81.31
492.092	85.31
492.31	79.31
492.527	79.31
492.745	81.31
492.963	87.31
493.18	83.31
493.398	81.31
493.615	88.31
493.833	80.31
494.05	80.31
494.268	90.31
494.485	77.31
494.703	91.31
494.92	91.31
495.138	67.31
495.355	94.31
495.573	86.31
495.79	79.31
496.008	94.31
496.225	89.31
496.442	71.31
496.66	90.31
496.877	75.31
497.094	96.31
497.312	79.31
497.529	88.31
497.746	98.31
497.963	83.31
498.181	69.31
498.398	92.31
498.615	83.31
498.832	101.31
499.049	82.31
499.267	79.31
499.484	77.31
499.701	79.31
499.918	87.31
500.135	77.31
500.352	74.31
500.569	81.31
500.786	95.31
501.003	83.31
501.22	81.31
501.437	67.31
501.654	102.31
501.871	92.31
502.088	85.31
502.305	93.31
502.522	92.31
502.739	80.31
502.956	81.31
503.172	76.31
503.389	85.31
503.606	96.31
503.823	81.31
504.04	83.31
504.256	97.31
504.473	91.31
504.69	78.31
504.907	85.31
505.123	79.31
505.34	91.31
505.557	93.31
505.773	74.31
505.99	86.31
506.207	84.31
506.423	88.31
506.64	85.31
506.856	78.31
507.073	92.31
507.289	91.31
507.506	84.31
507.722	100.31
507.939	107.31
508.155	93.31
508.372	74.31
508.588	82.31
508.805	85.31
509.021	93.31
509.238	94.31
509.454	92.31
509.67	85.31
509.887	97.31
510.103	106.31
510.319	173.31
510.536	626.31
510.752	1981.31
510.968	602.31
511.184	137.31
511.401	113.31
511.617	93.31
511.833	80.31
512.049	81.31
512.265	83.31
512.481	100.31
512.698	81.31
512.914	84.31
513.13	74.31
513.346	83.31
513.562	89.31
513.778	73.31
513.994	86.31
514.21	105.31
514.426	102.31
514.642	117.31
514.858	98.31
515.074	144.31
515.29	354.31
515.506	1189.31
515.721	473.31
515.937	141.31
516.153	85.31
516.369	100.31
516.585	101.31
516.801	88.31
517.016	88.31
517.232	76.31
517.448	80.31
517.664	98.31
517.879	75.31
