Data from Circ_2010_H10_HRD10591_00029.txt Node
Date: Wed Jan 03 10:09:47 EST 2024
User: Yrep
Spectrometer: HR+D1059
Trigger mode: 1
Integration Time (sec): 1.000000E-1
Scans to average: 1
Electric dark correction enabled: true
Nonlinearity correction enabled: false
Boxcar width: 0
XAxis mode: Wavelengths
Number of Pixels in Spectrum: 2048
>>>>>Begin Spectral Data<<<<<
223.165	-12.88
223.4	-12.88
223.635	-12.88
223.869	-16.88
224.104	-10.88
224.338	-13.88
224.573	-5.88
224.808	-7.88
225.042	2.12
225.277	-10.88
225.511	-2.88
225.746	-0.88
225.98	8.12
226.215	-1.88
226.449	3.12
226.683	14.12
226.918	31.12
227.152	26.12
227.387	40.12
227.621	33.12
227.856	53.12
228.09	55.12
228.324	44.12
228.559	50.12
228.793	38.12
229.027	52.12
229.262	69.12
229.496	72.12
229.73	83.12
229.964	80.12
230.199	60.12
230.433	72.12
230.667	79.12
230.901	83.12
231.136	80.12
231.37	67.12
231.604	76.12
231.838	85.12
232.072	83.12
232.306	87.12
232.541	70.12
232.775	78.12
233.009	81.12
233.243	88.12
233.477	88.12
233.711	84.12
233.945	87.12
234.179	86.12
234.413	80.12
234.647	87.12
234.881	79.12
235.115	70.12
235.349	66.12
235.583	78.12
235.817	70.12
236.051	74.12
236.285	80.12
236.519	71.12
236.753	66.12
236.987	72.12
237.221	73.12
237.455	89.12
237.689	73.12
237.922	79.12
238.156	79.12
238.39	72.12
238.624	76.12
238.858	77.12
239.091	74.12
239.325	74.12
239.559	80.12
239.793	82.12
240.027	69.12
240.26	70.12
240.494	59.12
240.728	57.12
240.961	76.12
241.195	80.12
241.429	72.12
241.662	74.12
241.896	75.12
242.13	77.12
242.363	72.12
242.597	89.12
242.83	77.12
243.064	79.12
243.298	86.12
243.531	84.12
243.765	73.12
243.998	87.12
244.232	78.12
244.465	77.12
244.699	91.12
244.932	76.12
245.166	81.12
245.399	77.12
245.633	79.12
245.866	87.12
246.099	83.12
246.333	84.12
246.566	81.12
246.8	77.12
247.033	67.12
247.266	80.12
247.5	75.12
247.733	77.12
247.966	82.12
248.2	90.12
248.433	82.12
248.666	71.12
248.899	89.12
249.133	77.12
249.366	97.12
249.599	102.12
249.832	83.12
250.066	91.12
250.299	62.12
250.532	77.12
250.765	82.12
250.998	84.12
251.231	82.12
251.465	78.12
251.698	76.12
251.931	78.12
252.164	72.12
252.397	69.12
252.63	85.12
252.863	82.12
253.096	67.12
253.329	72.12
253.562	79.12
253.795	80.12
254.028	82.12
254.261	70.12
254.494	72.12
254.727	74.12
254.96	84.12
255.193	76.12
255.426	88.12
255.659	86.12
255.892	73.12
256.124	78.12
256.357	98.12
256.59	86.12
256.823	77.12
257.056	95.12
257.289	95.12
257.521	85.12
257.754	97.12
257.987	78.12
258.22	77.12
258.452	81.12
258.685	69.12
258.918	86.12
259.151	77.12
259.383	96.12
259.616	90.12
259.849	76.12
260.081	80.12
260.314	90.12
260.547	80.12
260.779	87.12
261.012	90.12
261.244	76.12
261.477	97.12
261.71	94.12
261.942	102.12
262.175	99.12
262.407	86.12
262.64	84.12
262.872	75.12
263.105	87.12
263.337	89.12
263.57	84.12
263.802	91.12
264.035	79.12
264.267	81.12
264.499	76.12
264.732	80.12
264.964	100.12
265.197	74.12
265.429	76.12
265.661	74.12
265.894	81.12
266.126	74.12
266.358	73.12
266.591	82.12
266.823	84.12
267.055	92.12
267.287	78.12
267.52	83.12
267.752	75.12
267.984	91.12
268.216	79.12
268.448	78.12
268.681	85.12
268.913	92.12
269.145	87.12
269.377	87.12
269.609	86.12
269.841	82.12
270.073	83.12
270.306	89.12
270.538	91.12
270.77	83.12
271.002	91.12
271.234	96.12
271.466	75.12
271.698	89.12
271.93	86.12
272.162	86.12
272.394	86.12
272.626	82.12
272.858	84.12
273.09	82.12
273.322	87.12
273.553	99.12
273.785	76.12
274.017	86.12
274.249	78.12
274.481	83.12
274.713	84.12
274.945	70.12
275.176	71.12
275.408	85.12
275.64	91.12
275.872	90.12
276.104	91.12
276.335	86.12
276.567	103.12
276.799	107.12
277.031	95.12
277.262	87.12
277.494	97.12
277.726	79.12
277.957	91.12
278.189	79.12
278.421	86.12
278.652	86.12
278.884	78.12
279.115	79.12
279.347	89.12
279.579	80.12
279.81	84.12
280.042	91.12
280.273	92.12
280.505	80.12
280.736	81.12
280.968	77.12
281.199	95.12
281.431	91.12
281.662	77.12
281.894	74.12
282.125	88.12
282.356	98.12
282.588	128.12
282.819	100.12
283.051	85.12
283.282	90.12
283.513	79.12
283.745	89.12
283.976	93.12
284.207	83.12
284.439	77.12
284.67	81.12
284.901	91.12
285.132	83.12
285.364	95.12
285.595	87.12
285.826	87.12
286.057	88.12
286.288	94.12
286.52	84.12
286.751	94.12
286.982	86.12
287.213	76.12
287.444	97.12
287.675	84.12
287.906	81.12
288.138	94.12
288.369	83.12
288.6	93.12
288.831	97.12
289.062	92.12
289.293	88.12
289.524	90.12
289.755	63.12
289.986	88.12
290.217	88.12
290.448	91.12
290.679	79.12
290.91	87.12
291.141	83.12
291.371	82.12
291.602	84.12
291.833	87.12
292.064	85.12
292.295	89.12
292.526	88.12
292.757	82.12
292.987	75.12
293.218	76.12
293.449	87.12
293.68	86.12
293.91	104.12
294.141	78.12
294.372	80.12
294.603	93.12
294.833	87.12
295.064	99.12
295.295	90.12
295.525	90.12
295.756	104.12
295.987	106.12
296.217	129.12
296.448	107.12
296.679	89.12
296.909	91.12
297.14	91.12
297.37	102.12
297.601	100.12
297.831	92.12
298.062	94.12
298.292	90.12
298.523	96.12
298.753	105.12
298.984	78.12
299.214	79.12
299.445	80.12
299.675	92.12
299.905	88.12
300.136	83.12
300.366	74.12
300.597	81.12
300.827	102.12
301.057	97.12
301.288	105.12
301.518	101.12
301.748	102.12
301.979	94.12
302.209	88.12
302.439	107.12
302.669	90.12
302.9	83.12
303.13	98.12
303.36	91.12
303.59	83.12
303.82	116.12
304.051	109.12
304.281	94.12
304.511	100.12
304.741	103.12
304.971	91.12
305.201	99.12
305.431	91.12
305.661	98.12
305.891	94.12
306.121	103.12
306.352	83.12
306.582	103.12
306.812	85.12
307.042	104.12
307.272	108.12
307.502	98.12
307.731	100.12
307.961	95.12
308.191	92.12
308.421	99.12
308.651	92.12
308.881	88.12
309.111	99.12
309.341	86.12
309.571	73.12
309.8	97.12
310.03	85.12
310.26	101.12
310.49	104.12
310.72	95.12
310.949	99.12
311.179	104.12
311.409	85.12
311.639	102.12
311.868	93.12
312.098	85.12
312.328	99.12
312.557	93.12
312.787	112.12
313.017	104.12
313.246	96.12
313.476	92.12
313.706	96.12
313.935	88.12
314.165	95.12
314.394	105.12
314.624	101.12
314.853	87.12
315.083	95.12
315.312	88.12
315.542	74.12
315.771	86.12
316.001	84.12
316.23	93.12
316.46	85.12
316.689	87.12
316.919	87.12
317.148	80.12
317.377	95.12
317.607	101.12
317.836	90.12
318.065	88.12
318.295	84.12
318.524	78.12
318.753	107.12
318.983	97.12
319.212	93.12
319.441	99.12
319.67	96.12
319.9	90.12
320.129	83.12
320.358	106.12
320.587	103.12
320.816	93.12
321.046	103.12
321.275	86.12
321.504	105.12
321.733	96.12
321.962	86.12
322.191	90.12
322.42	103.12
322.649	102.12
322.878	104.12
323.108	107.12
323.337	114.12
323.566	128.12
323.795	143.12
324.024	167.12
324.253	323.12
324.482	683.12
324.71	1401.12
324.939	1797.12
325.168	682.12
325.397	219.12
325.626	128.12
325.855	130.12
326.084	121.12
326.313	126.12
326.542	148.12
326.77	211.12
326.999	405.12
327.228	787.12
327.457	1410.12
327.686	1108.12
327.914	328.12
328.143	174.12
328.372	152.12
328.6	117.12
328.829	105.12
329.058	122.12
329.287	124.12
329.515	86.12
329.744	112.12
329.972	120.12
330.201	156.12
330.43	204.12
330.658	144.12
330.887	127.12
331.115	119.12
331.344	90.12
331.572	96.12
331.801	95.12
332.03	105.12
332.258	108.12
332.486	85.12
332.715	100.12
332.943	98.12
333.172	93.12
333.4	101.12
333.629	95.12
333.857	128.12
334.085	130.12
334.314	171.12
334.542	237.12
334.771	220.12
334.999	112.12
335.227	88.12
335.455	89.12
335.684	105.12
335.912	81.12
336.14	101.12
336.369	106.12
336.597	102.12
336.825	90.12
337.053	96.12
337.281	82.12
337.51	75.12
337.738	88.12
337.966	86.12
338.194	90.12
338.422	92.12
338.65	93.12
338.878	101.12
339.106	93.12
339.334	90.12
339.562	89.12
339.79	78.12
340.018	92.12
340.246	95.12
340.474	95.12
340.702	85.12
340.93	90.12
341.158	101.12
341.386	100.12
341.614	94.12
341.842	99.12
342.07	93.12
342.298	95.12
342.526	91.12
342.754	92.12
342.981	105.12
343.209	88.12
343.437	91.12
343.665	82.12
343.893	99.12
344.12	85.12
344.348	73.12
344.576	85.12
344.804	87.12
345.031	99.12
345.259	105.12
345.487	105.12
345.714	86.12
345.942	96.12
346.17	87.12
346.397	87.12
346.625	91.12
346.853	94.12
347.08	95.12
347.308	99.12
347.535	110.12
347.763	87.12
347.99	97.12
348.218	83.12
348.445	91.12
348.673	89.12
348.9	101.12
349.128	82.12
349.355	82.12
349.583	83.12
349.81	92.12
350.037	98.12
350.265	90.12
350.492	95.12
350.72	94.12
350.947	105.12
351.174	115.12
351.402	116.12
351.629	111.12
351.856	104.12
352.083	100.12
352.311	100.12
352.538	88.12
352.765	111.12
352.992	112.12
353.22	94.12
353.447	91.12
353.674	96.12
353.901	108.12
354.128	92.12
354.355	104.12
354.583	95.12
354.81	82.12
355.037	99.12
355.264	112.12
355.491	103.12
355.718	111.12
355.945	89.12
356.172	92.12
356.399	96.12
356.626	88.12
356.853	96.12
357.08	91.12
357.307	83.12
357.534	82.12
357.761	100.12
357.988	93.12
358.215	103.12
358.441	85.12
358.668	96.12
358.895	86.12
359.122	84.12
359.349	76.12
359.576	93.12
359.802	106.12
360.029	95.12
360.256	116.12
360.483	93.12
360.709	87.12
360.936	92.12
361.163	71.12
361.39	99.12
361.616	92.12
361.843	92.12
362.07	90.12
362.296	96.12
362.523	85.12
362.749	85.12
362.976	92.12
363.203	82.12
363.429	98.12
363.656	86.12
363.882	83.12
364.109	93.12
364.335	78.12
364.562	96.12
364.788	75.12
365.015	110.12
365.241	94.12
365.468	102.12
365.694	97.12
365.92	84.12
366.147	93.12
366.373	83.12
366.599	95.12
366.826	89.12
367.052	76.12
367.278	75.12
367.505	90.12
367.731	84.12
367.957	90.12
368.184	105.12
368.41	97.12
368.636	92.12
368.862	109.12
369.089	98.12
369.315	76.12
369.541	76.12
369.767	95.12
369.993	88.12
370.219	86.12
370.445	89.12
370.672	93.12
370.898	81.12
371.124	86.12
371.35	84.12
371.576	99.12
371.802	97.12
372.028	93.12
372.254	79.12
372.48	86.12
372.706	79.12
372.932	94.12
373.158	78.12
373.384	87.12
373.61	91.12
373.835	93.12
374.061	77.12
374.287	74.12
374.513	103.12
374.739	95.12
374.965	102.12
375.191	86.12
375.416	94.12
375.642	105.12
375.868	94.12
376.094	83.12
376.319	88.12
376.545	84.12
376.771	83.12
376.997	76.12
377.222	91.12
377.448	100.12
377.674	92.12
377.899	85.12
378.125	91.12
378.35	81.12
378.576	90.12
378.802	85.12
379.027	82.12
379.253	95.12
379.478	81.12
379.704	85.12
379.929	86.12
380.155	94.12
380.38	89.12
380.606	88.12
380.831	101.12
381.057	108.12
381.282	88.12
381.507	94.12
381.733	85.12
381.958	98.12
382.184	96.12
382.409	104.12
382.634	85.12
382.86	106.12
383.085	104.12
383.31	104.12
383.535	95.12
383.761	95.12
383.986	102.12
384.211	86.12
384.436	105.12
384.662	92.12
384.887	98.12
385.112	100.12
385.337	88.12
385.562	102.12
385.787	116.12
386.013	104.12
386.238	105.12
386.463	104.12
386.688	101.12
386.913	95.12
387.138	87.12
387.363	91.12
387.588	88.12
387.813	109.12
388.038	94.12
388.263	116.12
388.488	91.12
388.713	105.12
388.938	101.12
389.163	90.12
389.387	100.12
389.612	94.12
389.837	89.12
390.062	94.12
390.287	98.12
390.512	102.12
390.736	96.12
390.961	91.12
391.186	88.12
391.411	106.12
391.636	84.12
391.86	96.12
392.085	93.12
392.31	72.12
392.534	85.12
392.759	78.12
392.984	85.12
393.208	103.12
393.433	96.12
393.658	98.12
393.882	86.12
394.107	86.12
394.331	77.12
394.556	91.12
394.78	85.12
395.005	83.12
395.229	85.12
395.454	88.12
395.678	84.12
395.903	69.12
396.127	84.12
396.352	72.12
396.576	90.12
396.801	75.12
397.025	96.12
397.249	104.12
397.474	80.12
397.698	84.12
397.922	97.12
398.147	95.12
398.371	94.12
398.595	99.12
398.82	82.12
399.044	83.12
399.268	82.12
399.492	101.12
399.717	91.12
399.941	89.12
400.165	91.12
400.389	85.12
400.613	98.12
400.837	95.12
401.062	98.12
401.286	100.12
401.51	102.12
401.734	90.12
401.958	103.12
402.182	111.12
402.406	147.12
402.63	105.12
402.854	96.12
403.078	99.12
403.302	92.12
403.526	92.12
403.75	90.12
403.974	71.12
404.198	92.12
404.422	80.12
404.645	71.12
404.869	93.12
405.093	96.12
405.317	108.12
405.541	101.12
405.765	92.12
405.988	101.12
406.212	154.12
406.436	190.12
406.66	122.12
406.883	96.12
407.107	102.12
407.331	90.12
407.555	83.12
407.778	89.12
408.002	88.12
408.226	83.12
408.449	84.12
408.673	85.12
408.896	102.12
409.12	92.12
409.344	107.12
409.567	100.12
409.791	101.12
410.014	86.12
410.238	96.12
410.461	95.12
410.685	86.12
410.908	108.12
411.132	101.12
411.355	94.12
411.578	84.12
411.802	75.12
412.025	94.12
412.249	106.12
412.472	103.12
412.695	96.12
412.919	94.12
413.142	76.12
413.365	95.12
413.589	88.12
413.812	85.12
414.035	95.12
414.258	85.12
414.482	87.12
414.705	78.12
414.928	76.12
415.151	96.12
415.374	93.12
415.597	87.12
415.821	93.12
416.044	94.12
416.267	80.12
416.49	79.12
416.713	104.12
416.936	85.12
417.159	92.12
417.382	86.12
417.605	95.12
417.828	93.12
418.051	93.12
418.274	86.12
418.497	107.12
418.72	75.12
418.943	96.12
419.166	92.12
419.389	81.12
419.611	83.12
419.834	82.12
420.057	81.12
420.28	84.12
420.503	100.12
420.726	86.12
420.948	85.12
421.171	88.12
421.394	95.12
421.617	89.12
421.839	95.12
422.062	77.12
422.285	94.12
422.507	95.12
422.73	97.12
422.953	88.12
423.175	88.12
423.398	84.12
423.621	87.12
423.843	73.12
424.066	86.12
424.288	93.12
424.511	84.12
424.733	86.12
424.956	96.12
425.178	80.12
425.401	82.12
425.623	115.12
425.846	86.12
426.068	86.12
426.291	93.12
426.513	97.12
426.735	84.12
426.958	101.12
427.18	105.12
427.402	135.12
427.625	154.12
427.847	125.12
428.069	131.12
428.292	97.12
428.514	95.12
428.736	80.12
428.958	77.12
429.181	84.12
429.403	84.12
429.625	84.12
429.847	90.12
430.069	95.12
430.292	84.12
430.514	96.12
430.736	89.12
430.958	83.12
431.18	76.12
431.402	87.12
431.624	71.12
431.846	90.12
432.068	91.12
432.29	80.12
432.512	87.12
432.734	80.12
432.956	86.12
433.178	96.12
433.4	100.12
433.622	90.12
433.844	84.12
434.066	90.12
434.287	112.12
434.509	90.12
434.731	73.12
434.953	86.12
435.175	79.12
435.397	90.12
435.618	92.12
435.84	86.12
436.062	113.12
436.284	117.12
436.505	92.12
436.727	98.12
436.949	83.12
437.17	79.12
437.392	78.12
437.614	92.12
437.835	115.12
438.057	99.12
438.278	109.12
438.5	104.12
438.721	130.12
438.943	99.12
439.165	89.12
439.386	73.12
439.608	95.12
439.829	98.12
440.05	120.12
440.272	130.12
440.493	102.12
440.715	96.12
440.936	85.12
441.158	90.12
441.379	83.12
441.6	91.12
441.822	90.12
442.043	76.12
442.264	94.12
442.486	109.12
442.707	94.12
442.928	93.12
443.149	112.12
443.371	117.12
443.592	99.12
443.813	95.12
444.034	111.12
444.255	88.12
444.476	100.12
444.698	84.12
444.919	76.12
445.14	130.12
445.361	111.12
445.582	99.12
445.803	112.12
446.024	138.12
446.245	106.12
446.466	108.12
446.687	70.12
446.908	70.12
447.129	69.12
447.35	80.12
447.571	99.12
447.792	85.12
448.013	99.12
448.234	116.12
448.455	112.12
448.675	110.12
448.896	95.12
449.117	111.12
449.338	93.12
449.559	128.12
449.779	111.12
450	78.12
450.221	80.12
450.442	69.12
450.662	101.12
450.883	114.12
451.104	116.12
451.324	101.12
451.545	90.12
451.766	92.12
451.986	84.12
452.207	89.12
452.428	105.12
452.648	93.12
452.869	82.12
453.089	106.12
453.31	114.12
453.53	88.12
453.751	92.12
453.971	88.12
454.192	100.12
454.412	104.12
454.633	86.12
454.853	72.12
455.073	82.12
455.294	86.12
455.514	63.12
455.734	85.12
455.955	90.12
456.175	87.12
456.395	76.12
456.616	83.12
456.836	79.12
457.056	83.12
457.276	88.12
457.497	81.12
457.717	88.12
457.937	87.12
458.157	91.12
458.377	86.12
458.598	103.12
458.818	128.12
459.038	141.12
459.258	100.12
459.478	80.12
459.698	77.12
459.918	76.12
460.138	95.12
460.358	94.12
460.578	83.12
460.798	85.12
461.018	104.12
461.238	91.12
461.458	90.12
461.678	86.12
461.898	89.12
462.118	83.12
462.338	93.12
462.558	90.12
462.777	81.12
462.997	81.12
463.217	73.12
463.437	87.12
463.657	96.12
463.876	81.12
464.096	90.12
464.316	78.12
464.536	91.12
464.755	84.12
464.975	110.12
465.195	151.12
465.414	144.12
465.634	101.12
465.854	76.12
466.073	80.12
466.293	100.12
466.512	76.12
466.732	76.12
466.951	86.12
467.171	93.12
467.391	79.12
467.61	95.12
467.829	103.12
468.049	123.12
468.268	148.12
468.488	102.12
468.707	80.12
468.927	78.12
469.146	84.12
469.365	96.12
469.585	87.12
469.804	91.12
470.023	84.12
470.243	102.12
470.462	101.12
470.681	102.12
470.901	69.12
471.12	86.12
471.339	79.12
471.558	80.12
471.777	93.12
471.997	102.12
472.216	169.12
472.435	293.12
472.654	109.12
472.873	92.12
473.092	92.12
473.311	84.12
473.53	71.12
473.749	102.12
473.968	106.12
474.187	101.12
474.406	91.12
474.625	87.12
474.844	100.12
475.063	89.12
475.282	89.12
475.501	84.12
475.72	98.12
475.939	84.12
476.158	88.12
476.377	92.12
476.596	90.12
476.814	88.12
477.033	93.12
477.252	76.12
477.471	88.12
477.69	84.12
477.908	87.12
478.127	97.12
478.346	94.12
478.564	90.12
478.783	97.12
479.002	88.12
479.22	80.12
479.439	87.12
479.658	96.12
479.876	102.12
480.095	95.12
480.313	109.12
480.532	91.12
480.751	117.12
480.969	179.12
481.188	466.12
481.406	309.12
481.624	107.12
481.843	101.12
482.061	78.12
482.28	82.12
482.498	80.12
482.717	91.12
482.935	91.12
483.153	79.12
483.372	83.12
483.59	77.12
483.808	85.12
484.027	83.12
484.245	92.12
484.463	85.12
484.681	102.12
484.9	83.12
485.118	90.12
485.336	101.12
485.554	93.12
485.772	85.12
485.99	93.12
486.209	111.12
486.427	105.12
486.645	108.12
486.863	111.12
487.081	95.12
487.299	100.12
487.517	96.12
487.735	95.12
487.953	93.12
488.171	94.12
488.389	87.12
488.607	98.12
488.825	89.12
489.043	84.12
489.261	101.12
489.479	89.12
489.696	97.12
489.914	102.12
490.132	94.12
490.35	83.12
490.568	84.12
490.786	83.12
491.003	99.12
491.221	87.12
491.439	91.12
491.657	96.12
491.874	91.12
492.092	85.12
492.31	91.12
492.527	89.12
492.745	90.12
492.963	80.12
493.18	89.12
493.398	93.12
493.615	104.12
493.833	94.12
494.05	83.12
494.268	100.12
494.485	106.12
494.703	81.12
494.92	86.12
495.138	91.12
495.355	101.12
495.573	90.12
495.79	83.12
496.008	84.12
496.225	87.12
496.442	88.12
496.66	89.12
496.877	82.12
497.094	93.12
497.312	96.12
497.529	88.12
497.746	89.12
497.963	96.12
498.181	91.12
498.398	93.12
498.615	88.12
498.832	92.12
499.049	95.12
499.267	89.12
499.484	82.12
499.701	97.12
499.918	87.12
500.135	80.12
500.352	83.12
500.569	78.12
500.786	81.12
501.003	88.12
501.22	91.12
501.437	104.12
501.654	113.12
501.871	116.12
502.088	86.12
502.305	82.12
502.522	91.12
502.739	89.12
502.956	94.12
503.172	76.12
503.389	75.12
503.606	101.12
503.823	86.12
504.04	104.12
504.256	94.12
504.473	95.12
504.69	85.12
504.907	76.12
505.123	78.12
505.34	93.12
505.557	87.12
505.773	102.12
505.99	95.12
506.207	87.12
506.423	100.12
506.64	79.12
506.856	92.12
507.073	94.12
507.289	85.12
507.506	93.12
507.722	101.12
507.939	98.12
508.155	82.12
508.372	94.12
508.588	104.12
508.805	93.12
509.021	94.12
509.238	90.12
509.454	114.12
509.67	122.12
509.887	104.12
510.103	127.12
510.319	170.12
510.536	656.12
510.752	2011.12
510.968	573.12
511.184	135.12
511.401	99.12
511.617	95.12
511.833	89.12
512.049	98.12
512.265	99.12
512.481	86.12
512.698	86.12
512.914	94.12
513.13	96.12
513.346	69.12
513.562	91.12
513.778	82.12
513.994	93.12
514.21	96.12
514.426	116.12
514.642	118.12
514.858	121.12
515.074	161.12
515.29	400.12
515.506	1237.12
515.721	499.12
515.937	140.12
