Data from Circ_2010_H10_HRD10591_00046.txt Node
Date: Wed Jan 03 10:09:50 EST 2024
User: Yrep
Spectrometer: HR+D1059
Trigger mode: 1
Integration Time (sec): 1.000000E-1
Scans to average: 1
Electric dark correction enabled: true
Nonlinearity correction enabled: false
Boxcar width: 0
XAxis mode: Wavelengths
Number of Pixels in Spectrum: 2048
>>>>>Begin Spectral Data<<<<<
223.165	-26.19
223.4	-26.19
223.635	-26.19
223.869	-17.19
224.104	-13.19
224.338	-13.19
224.573	-15.19
224.808	-7.19
225.042	-6.19
225.277	-15.19
225.511	3.81
225.746	7.81
225.98	3.81
226.215	8.81
226.449	20.81
226.683	20.81
226.918	29.81
227.152	17.81
227.387	40.81
227.621	30.81
227.856	39.81
228.09	43.81
228.324	47.81
228.559	62.81
228.793	51.81
229.027	71.81
229.262	66.81
229.496	66.81
229.73	89.81
229.964	82.81
230.199	74.81
230.433	78.81
230.667	81.81
230.901	83.81
231.136	84.81
231.37	75.81
231.604	85.81
231.838	87.81
232.072	88.81
232.306	82.81
232.541	84.81
232.775	82.81
233.009	80.81
233.243	81.81
233.477	83.81
233.711	88.81
233.945	73.81
234.179	82.81
234.413	69.81
234.647	67.81
234.881	90.81
235.115	87.81
235.349	87.81
235.583	86.81
235.817	74.81
236.051	74.81
236.285	72.81
236.519	85.81
236.753	83.81
236.987	81.81
237.221	88.81
237.455	78.81
237.689	91.81
237.922	82.81
238.156	85.81
238.39	72.81
238.624	80.81
238.858	69.81
239.091	73.81
239.325	76.81
239.559	84.81
239.793	71.81
240.027	79.81
240.26	90.81
240.494	81.81
240.728	89.81
240.961	94.81
241.195	85.81
241.429	83.81
241.662	71.81
241.896	79.81
242.13	93.81
242.363	73.81
242.597	76.81
242.83	88.81
243.064	87.81
243.298	80.81
243.531	75.81
243.765	84.81
243.998	84.81
244.232	87.81
244.465	79.81
244.699	78.81
244.932	80.81
245.166	72.81
245.399	78.81
245.633	84.81
245.866	78.81
246.099	77.81
246.333	79.81
246.566	71.81
246.8	72.81
247.033	82.81
247.266	96.81
247.5	77.81
247.733	89.81
247.966	80.81
248.2	71.81
248.433	85.81
248.666	69.81
248.899	80.81
249.133	87.81
249.366	89.81
249.599	95.81
249.832	74.81
250.066	96.81
250.299	80.81
250.532	82.81
250.765	84.81
250.998	65.81
251.231	85.81
251.465	98.81
251.698	85.81
251.931	85.81
252.164	86.81
252.397	86.81
252.63	87.81
252.863	85.81
253.096	88.81
253.329	77.81
253.562	80.81
253.795	82.81
254.028	90.81
254.261	96.81
254.494	86.81
254.727	86.81
254.96	88.81
255.193	90.81
255.426	82.81
255.659	90.81
255.892	88.81
256.124	79.81
256.357	87.81
256.59	81.81
256.823	79.81
257.056	98.81
257.289	85.81
257.521	87.81
257.754	82.81
257.987	88.81
258.22	96.81
258.452	75.81
258.685	77.81
258.918	80.81
259.151	78.81
259.383	74.81
259.616	84.81
259.849	89.81
260.081	80.81
260.314	85.81
260.547	96.81
260.779	82.81
261.012	82.81
261.244	85.81
261.477	83.81
261.71	95.81
261.942	124.81
262.175	110.81
262.407	98.81
262.64	91.81
262.872	70.81
263.105	91.81
263.337	101.81
263.57	72.81
263.802	94.81
264.035	82.81
264.267	84.81
264.499	90.81
264.732	78.81
264.964	85.81
265.197	91.81
265.429	93.81
265.661	87.81
265.894	89.81
266.126	96.81
266.358	111.81
266.591	108.81
266.823	81.81
267.055	84.81
267.287	79.81
267.52	85.81
267.752	87.81
267.984	91.81
268.216	91.81
268.448	104.81
268.681	85.81
268.913	86.81
269.145	93.81
269.377	98.81
269.609	79.81
269.841	82.81
270.073	83.81
270.306	83.81
270.538	89.81
270.77	78.81
271.002	74.81
271.234	98.81
271.466	96.81
271.698	88.81
271.93	72.81
272.162	100.81
272.394	79.81
272.626	87.81
272.858	87.81
273.09	88.81
273.322	93.81
273.553	93.81
273.785	102.81
274.017	100.81
274.249	86.81
274.481	90.81
274.713	73.81
274.945	90.81
275.176	88.81
275.408	70.81
275.64	84.81
275.872	90.81
276.104	94.81
276.335	80.81
276.567	76.81
276.799	105.81
277.031	94.81
277.262	106.81
277.494	82.81
277.726	97.81
277.957	73.81
278.189	83.81
278.421	81.81
278.652	79.81
278.884	86.81
279.115	92.81
279.347	87.81
279.579	91.81
279.81	94.81
280.042	95.81
280.273	92.81
280.505	88.81
280.736	87.81
280.968	77.81
281.199	87.81
281.431	90.81
281.662	88.81
281.894	87.81
282.125	93.81
282.356	113.81
282.588	114.81
282.819	111.81
283.051	92.81
283.282	77.81
283.513	83.81
283.745	86.81
283.976	78.81
284.207	89.81
284.439	90.81
284.67	93.81
284.901	89.81
285.132	97.81
285.364	86.81
285.595	91.81
285.826	92.81
286.057	97.81
286.288	88.81
286.52	93.81
286.751	86.81
286.982	90.81
287.213	87.81
287.444	87.81
287.675	98.81
287.906	87.81
288.138	80.81
288.369	86.81
288.6	81.81
288.831	83.81
289.062	89.81
289.293	78.81
289.524	73.81
289.755	89.81
289.986	87.81
290.217	84.81
290.448	94.81
290.679	75.81
290.91	93.81
291.141	88.81
291.371	83.81
291.602	86.81
291.833	92.81
292.064	91.81
292.295	95.81
292.526	96.81
292.757	89.81
292.987	86.81
293.218	98.81
293.449	100.81
293.68	104.81
293.91	86.81
294.141	102.81
294.372	94.81
294.603	89.81
294.833	99.81
295.064	74.81
295.295	72.81
295.525	84.81
295.756	92.81
295.987	98.81
296.217	121.81
296.448	117.81
296.679	89.81
296.909	105.81
297.14	86.81
297.37	83.81
297.601	90.81
297.831	99.81
298.062	89.81
298.292	90.81
298.523	108.81
298.753	92.81
298.984	84.81
299.214	96.81
299.445	96.81
299.675	96.81
299.905	89.81
300.136	83.81
300.366	91.81
300.597	90.81
300.827	97.81
301.057	101.81
301.288	114.81
301.518	99.81
301.748	103.81
301.979	106.81
302.209	85.81
302.439	79.81
302.669	100.81
302.9	91.81
303.13	90.81
303.36	102.81
303.59	94.81
303.82	94.81
304.051	94.81
304.281	85.81
304.511	88.81
304.741	100.81
304.971	96.81
305.201	87.81
305.431	86.81
305.661	90.81
305.891	101.81
306.121	96.81
306.352	105.81
306.582	102.81
306.812	95.81
307.042	94.81
307.272	95.81
307.502	103.81
307.731	104.81
307.961	101.81
308.191	103.81
308.421	95.81
308.651	79.81
308.881	86.81
309.111	95.81
309.341	95.81
309.571	90.81
309.8	112.81
310.03	102.81
310.26	95.81
310.49	102.81
310.72	91.81
310.949	108.81
311.179	88.81
311.409	91.81
311.639	93.81
311.868	103.81
312.098	106.81
312.328	83.81
312.557	96.81
312.787	88.81
313.017	92.81
313.246	90.81
313.476	95.81
313.706	89.81
313.935	108.81
314.165	101.81
314.394	98.81
314.624	101.81
314.853	97.81
315.083	97.81
315.312	114.81
315.542	98.81
315.771	95.81
316.001	91.81
316.23	106.81
316.46	95.81
316.689	95.81
316.919	95.81
317.148	100.81
317.377	93.81
317.607	98.81
317.836	87.81
318.065	91.81
318.295	81.81
318.524	82.81
318.753	100.81
318.983	93.81
319.212	107.81
319.441	92.81
319.67	101.81
319.9	88.81
320.129	83.81
320.358	97.81
320.587	90.81
320.816	106.81
321.046	97.81
321.275	91.81
321.504	93.81
321.733	96.81
321.962	92.81
322.191	91.81
322.42	107.81
322.649	102.81
322.878	103.81
323.108	115.81
323.337	119.81
323.566	114.81
323.795	148.81
324.024	172.81
324.253	331.81
324.482	689.81
324.71	1337.81
324.939	1726.81
325.168	663.81
325.397	208.81
325.626	141.81
325.855	120.81
326.084	114.81
326.313	118.81
326.542	151.81
326.77	208.81
326.999	370.81
327.228	787.81
327.457	1367.81
327.686	1114.81
327.914	324.81
328.143	177.81
328.372	173.81
328.6	134.81
328.829	111.81
329.058	124.81
329.287	104.81
329.515	121.81
329.744	113.81
329.972	131.81
330.201	185.81
330.43	200.81
330.658	152.81
330.887	130.81
331.115	106.81
331.344	87.81
331.572	98.81
331.801	103.81
332.03	100.81
332.258	97.81
332.486	94.81
332.715	76.81
332.943	87.81
333.172	98.81
333.4	109.81
333.629	96.81
333.857	123.81
334.085	133.81
334.314	191.81
334.542	265.81
334.771	257.81
334.999	134.81
335.227	102.81
335.455	102.81
335.684	111.81
335.912	98.81
336.14	96.81
336.369	104.81
336.597	91.81
336.825	108.81
337.053	81.81
337.281	95.81
337.51	92.81
337.738	85.81
337.966	89.81
338.194	86.81
338.422	92.81
338.65	86.81
338.878	93.81
339.106	86.81
339.334	90.81
339.562	102.81
339.79	87.81
340.018	89.81
340.246	100.81
340.474	105.81
340.702	103.81
340.93	86.81
341.158	94.81
341.386	102.81
341.614	107.81
341.842	94.81
342.07	88.81
342.298	88.81
342.526	76.81
342.754	92.81
342.981	102.81
343.209	87.81
343.437	100.81
343.665	100.81
343.893	97.81
344.12	93.81
344.348	104.81
344.576	94.81
344.804	92.81
345.031	91.81
345.259	94.81
345.487	104.81
345.714	94.81
345.942	90.81
346.17	92.81
346.397	99.81
346.625	97.81
346.853	95.81
347.08	103.81
347.308	101.81
347.535	100.81
347.763	90.81
347.99	97.81
348.218	90.81
348.445	93.81
348.673	100.81
348.9	106.81
349.128	96.81
349.355	89.81
349.583	91.81
349.81	85.81
350.037	100.81
350.265	98.81
350.492	86.81
350.72	93.81
350.947	103.81
351.174	117.81
351.402	112.81
351.629	110.81
351.856	97.81
352.083	99.81
352.311	99.81
352.538	105.81
352.765	123.81
352.992	94.81
353.22	98.81
353.447	106.81
353.674	105.81
353.901	112.81
354.128	97.81
354.355	98.81
354.583	85.81
354.81	96.81
355.037	111.81
355.264	98.81
355.491	101.81
355.718	91.81
355.945	102.81
356.172	97.81
356.399	92.81
356.626	100.81
356.853	92.81
357.08	86.81
357.307	102.81
357.534	96.81
357.761	102.81
357.988	89.81
358.215	94.81
358.441	97.81
358.668	80.81
358.895	89.81
359.122	82.81
359.349	88.81
359.576	86.81
359.802	97.81
360.029	106.81
360.256	102.81
360.483	107.81
360.709	91.81
360.936	93.81
361.163	87.81
361.39	82.81
361.616	83.81
361.843	99.81
362.07	102.81
362.296	96.81
362.523	79.81
362.749	95.81
362.976	94.81
363.203	92.81
363.429	90.81
363.656	102.81
363.882	91.81
364.109	95.81
364.335	89.81
364.562	89.81
364.788	97.81
365.015	90.81
365.241	93.81
365.468	96.81
365.694	103.81
365.92	100.81
366.147	90.81
366.373	88.81
366.599	86.81
366.826	95.81
367.052	94.81
367.278	91.81
367.505	96.81
367.731	89.81
367.957	92.81
368.184	96.81
368.41	105.81
368.636	117.81
368.862	104.81
369.089	101.81
369.315	87.81
369.541	84.81
369.767	88.81
369.993	97.81
370.219	90.81
370.445	86.81
370.672	78.81
370.898	89.81
371.124	73.81
371.35	95.81
371.576	82.81
371.802	93.81
372.028	103.81
372.254	79.81
372.48	90.81
372.706	82.81
372.932	99.81
373.158	89.81
373.384	107.81
373.61	92.81
373.835	109.81
374.061	81.81
374.287	84.81
374.513	88.81
374.739	91.81
374.965	80.81
375.191	90.81
375.416	93.81
375.642	114.81
375.868	103.81
376.094	89.81
376.319	78.81
376.545	82.81
376.771	102.81
376.997	87.81
377.222	79.81
377.448	102.81
377.674	93.81
377.899	97.81
378.125	84.81
378.35	86.81
378.576	93.81
378.802	89.81
379.027	86.81
379.253	101.81
379.478	94.81
379.704	89.81
379.929	100.81
380.155	83.81
380.38	83.81
380.606	98.81
380.831	88.81
381.057	100.81
381.282	97.81
381.507	81.81
381.733	106.81
381.958	102.81
382.184	105.81
382.409	89.81
382.634	98.81
382.86	85.81
383.085	108.81
383.31	95.81
383.535	98.81
383.761	99.81
383.986	105.81
384.211	100.81
384.436	97.81
384.662	99.81
384.887	90.81
385.112	101.81
385.337	101.81
385.562	89.81
385.787	101.81
386.013	95.81
386.238	111.81
386.463	103.81
386.688	106.81
386.913	111.81
387.138	106.81
387.363	110.81
387.588	107.81
387.813	103.81
388.038	102.81
388.263	108.81
388.488	100.81
388.713	109.81
388.938	95.81
389.163	102.81
389.387	93.81
389.612	92.81
389.837	77.81
390.062	86.81
390.287	101.81
390.512	96.81
390.736	96.81
390.961	96.81
391.186	86.81
391.411	102.81
391.636	82.81
391.86	82.81
392.085	97.81
392.31	89.81
392.534	75.81
392.759	93.81
392.984	75.81
393.208	98.81
393.433	103.81
393.658	88.81
393.882	86.81
394.107	70.81
394.331	88.81
394.556	85.81
394.78	90.81
395.005	85.81
395.229	87.81
395.454	89.81
395.678	80.81
395.903	78.81
396.127	90.81
396.352	80.81
396.576	87.81
396.801	90.81
397.025	117.81
397.249	76.81
397.474	86.81
397.698	94.81
397.922	88.81
398.147	84.81
398.371	78.81
398.595	76.81
398.82	89.81
399.044	90.81
399.268	96.81
399.492	83.81
399.717	80.81
399.941	101.81
400.165	99.81
400.389	97.81
400.613	89.81
400.837	79.81
401.062	79.81
401.286	82.81
401.51	86.81
401.734	92.81
401.958	95.81
402.182	107.81
402.406	143.81
402.63	115.81
402.854	100.81
403.078	89.81
403.302	99.81
403.526	92.81
403.75	92.81
403.974	90.81
404.198	83.81
404.422	81.81
404.645	82.81
404.869	94.81
405.093	96.81
405.317	101.81
405.541	103.81
405.765	94.81
405.988	93.81
406.212	137.81
406.436	187.81
406.66	143.81
406.883	97.81
407.107	94.81
407.331	82.81
407.555	97.81
407.778	105.81
408.002	89.81
408.226	101.81
408.449	86.81
408.673	88.81
408.896	103.81
409.12	89.81
409.344	82.81
409.567	98.81
409.791	91.81
410.014	105.81
410.238	98.81
410.461	71.81
410.685	93.81
410.908	84.81
411.132	103.81
411.355	101.81
411.578	98.81
411.802	87.81
412.025	85.81
412.249	83.81
412.472	102.81
412.695	92.81
412.919	73.81
413.142	76.81
413.365	87.81
413.589	89.81
413.812	78.81
414.035	91.81
414.258	94.81
414.482	100.81
414.705	97.81
414.928	87.81
415.151	93.81
415.374	89.81
415.597	92.81
415.821	104.81
416.044	73.81
416.267	75.81
416.49	100.81
416.713	88.81
416.936	106.81
417.159	85.81
417.382	95.81
417.605	75.81
417.828	77.81
418.051	81.81
418.274	87.81
418.497	88.81
418.72	92.81
418.943	93.81
419.166	81.81
419.389	82.81
419.611	85.81
419.834	107.81
420.057	105.81
420.28	86.81
420.503	99.81
420.726	85.81
420.948	88.81
421.171	100.81
421.394	91.81
421.617	102.81
421.839	87.81
422.062	101.81
422.285	102.81
422.507	105.81
422.73	76.81
422.953	89.81
423.175	84.81
423.398	82.81
423.621	95.81
423.843	96.81
424.066	88.81
424.288	99.81
424.511	93.81
424.733	90.81
424.956	106.81
425.178	102.81
425.401	86.81
425.623	100.81
425.846	83.81
426.068	98.81
426.291	86.81
426.513	96.81
426.735	88.81
426.958	81.81
427.18	110.81
427.402	116.81
427.625	149.81
427.847	125.81
428.069	124.81
428.292	96.81
428.514	81.81
428.736	72.81
428.958	77.81
429.181	87.81
429.403	70.81
429.625	97.81
429.847	101.81
430.069	109.81
430.292	94.81
430.514	95.81
430.736	79.81
430.958	96.81
431.18	87.81
431.402	94.81
431.624	97.81
431.846	103.81
432.068	67.81
432.29	67.81
432.512	86.81
432.734	100.81
432.956	97.81
433.178	107.81
433.4	119.81
433.622	77.81
433.844	89.81
434.066	85.81
434.287	79.81
434.509	98.81
434.731	104.81
434.953	101.81
435.175	83.81
435.397	89.81
435.618	93.81
435.84	96.81
436.062	107.81
436.284	96.81
436.505	124.81
436.727	89.81
436.949	88.81
437.17	92.81
437.392	83.81
437.614	93.81
437.835	100.81
438.057	117.81
438.278	108.81
438.5	100.81
438.721	109.81
438.943	96.81
439.165	94.81
439.386	91.81
439.608	86.81
439.829	99.81
440.05	111.81
440.272	120.81
440.493	94.81
440.715	83.81
440.936	95.81
441.158	82.81
441.379	97.81
441.6	92.81
441.822	102.81
442.043	97.81
442.264	98.81
442.486	104.81
442.707	104.81
442.928	96.81
443.149	129.81
443.371	121.81
443.592	94.81
443.813	101.81
444.034	101.81
444.255	91.81
444.476	94.81
444.698	81.81
444.919	88.81
445.14	134.81
445.361	122.81
445.582	109.81
445.803	128.81
446.024	125.81
446.245	95.81
446.466	99.81
446.687	93.81
446.908	90.81
447.129	83.81
447.35	78.81
447.571	82.81
447.792	91.81
448.013	103.81
448.234	76.81
448.455	92.81
448.675	99.81
448.896	114.81
449.117	105.81
449.338	95.81
449.559	112.81
449.779	130.81
450	94.81
450.221	84.81
450.442	99.81
450.662	94.81
450.883	100.81
451.104	94.81
451.324	96.81
451.545	73.81
451.766	94.81
451.986	79.81
452.207	94.81
452.428	93.81
452.648	80.81
452.869	99.81
453.089	105.81
453.31	110.81
453.53	84.81
453.751	94.81
453.971	99.81
454.192	109.81
454.412	98.81
454.633	102.81
454.853	92.81
455.073	86.81
455.294	96.81
455.514	96.81
455.734	87.81
455.955	81.81
456.175	93.81
456.395	94.81
456.616	92.81
456.836	83.81
457.056	93.81
457.276	93.81
457.497	88.81
457.717	90.81
457.937	81.81
458.157	79.81
458.377	93.81
458.598	103.81
458.818	136.81
459.038	141.81
459.258	107.81
459.478	75.81
459.698	91.81
459.918	94.81
460.138	90.81
460.358	101.81
460.578	78.81
460.798	99.81
461.018	83.81
461.238	89.81
461.458	88.81
461.678	93.81
461.898	89.81
462.118	83.81
462.338	92.81
462.558	86.81
462.777	79.81
462.997	86.81
463.217	96.81
463.437	86.81
463.657	85.81
463.876	77.81
464.096	81.81
464.316	80.81
464.536	76.81
464.755	92.81
464.975	94.81
465.195	145.81
465.414	143.81
465.634	105.81
465.854	95.81
466.073	87.81
466.293	95.81
466.512	87.81
466.732	83.81
466.951	93.81
467.171	93.81
467.391	88.81
467.61	102.81
467.829	101.81
468.049	148.81
468.268	152.81
468.488	91.81
468.707	90.81
468.927	91.81
469.146	86.81
469.365	86.81
469.585	92.81
469.804	103.81
470.023	86.81
470.243	93.81
470.462	106.81
470.681	89.81
470.901	98.81
471.12	94.81
471.339	97.81
471.558	86.81
471.777	93.81
471.997	122.81
472.216	194.81
472.435	326.81
472.654	133.81
472.873	105.81
473.092	91.81
473.311	86.81
473.53	83.81
473.749	87.81
473.968	95.81
474.187	97.81
474.406	102.81
474.625	95.81
474.844	77.81
475.063	89.81
475.282	83.81
475.501	77.81
475.72	101.81
475.939	92.81
476.158	93.81
476.377	87.81
476.596	90.81
476.814	90.81
477.033	83.81
477.252	97.81
477.471	97.81
477.69	93.81
477.908	81.81
478.127	82.81
478.346	94.81
478.564	101.81
478.783	96.81
479.002	98.81
479.22	100.81
479.439	100.81
479.658	99.81
479.876	92.81
480.095	97.81
480.313	110.81
480.532	102.81
480.751	109.81
480.969	194.81
481.188	534.81
481.406	335.81
481.624	96.81
481.843	98.81
482.061	73.81
482.28	96.81
482.498	80.81
482.717	94.81
482.935	79.81
483.153	88.81
483.372	90.81
483.59	78.81
483.808	95.81
484.027	77.81
484.245	85.81
484.463	93.81
484.681	109.81
484.9	79.81
485.118	93.81
485.336	87.81
485.554	102.81
485.772	105.81
485.99	99.81
486.209	99.81
486.427	105.81
486.645	115.81
486.863	99.81
487.081	88.81
487.299	83.81
487.517	91.81
487.735	105.81
487.953	98.81
488.171	97.81
488.389	98.81
488.607	96.81
488.825	105.81
489.043	98.81
489.261	95.81
489.479	96.81
489.696	91.81
489.914	90.81
490.132	89.81
490.35	91.81
490.568	90.81
490.786	93.81
491.003	89.81
491.221	78.81
491.439	96.81
491.657	94.81
491.874	100.81
492.092	77.81
492.31	90.81
492.527	104.81
492.745	93.81
492.963	75.81
493.18	91.81
493.398	89.81
493.615	100.81
493.833	88.81
494.05	103.81
494.268	93.81
494.485	97.81
494.703	91.81
494.92	95.81
495.138	96.81
495.355	97.81
495.573	85.81
495.79	98.81
496.008	101.81
496.225	93.81
496.442	92.81
496.66	91.81
496.877	97.81
497.094	101.81
497.312	83.81
497.529	93.81
497.746	89.81
497.963	98.81
498.181	78.81
498.398	89.81
498.615	117.81
498.832	101.81
499.049	83.81
499.267	107.81
499.484	81.81
499.701	92.81
499.918	79.81
500.135	83.81
500.352	86.81
500.569	94.81
500.786	91.81
501.003	92.81
501.22	104.81
501.437	81.81
501.654	98.81
501.871	89.81
502.088	73.81
502.305	79.81
502.522	92.81
502.739	86.81
502.956	107.81
503.172	87.81
503.389	89.81
503.606	105.81
503.823	112.81
504.04	88.81
504.256	89.81
504.473	99.81
504.69	98.81
504.907	103.81
505.123	80.81
505.34	88.81
505.557	89.81
505.773	87.81
505.99	82.81
506.207	78.81
506.423	87.81
506.64	86.81
506.856	90.81
507.073	102.81
507.289	96.81
507.506	89.81
507.722	97.81
507.939	106.81
508.155	85.81
508.372	88.81
508.588	90.81
508.805	111.81
509.021	100.81
509.238	114.81
509.454	96.81
509.67	94.81
509.887	100.81
510.103	123.81
510.319	197.81
510.536	582.81
510.752	1831.81
510.968	547.81
511.184	154.81
511.401	105.81
511.617	88.81
511.833	88.81
512.049	84.81
512.265	82.81
512.481	101.81
512.698	111.81
512.914	92.81
513.13	90.81
513.346	99.81
513.562	91.81
513.778	96.81
513.994	95.81
514.21	97.81
514.426	113.81
514.642	120.81
514.858	115.81
515.074	143.81
515.29	338.81
515.506	1087.81
