Data from Circ_2010_H10_HRD10591_00020.txt Node
Date: Wed Jan 03 10:09:45 EST 2024
User: Yrep
Spectrometer: HR+D1059
Trigger mode: 1
Integration Time (sec): 1.000000E-1
Scans to average: 1
Electric dark correction enabled: true
Nonlinearity correction enabled: false
Boxcar width: 0
XAxis mode: Wavelengths
Number of Pixels in Spectrum: 2048
>>>>>Begin Spectral Data<<<<<
223.165	-18.75
223.4	-18.75
223.635	-18.75
223.869	-23.75
224.104	-18.75
224.338	-17.75
224.573	-21.75
224.808	-12.75
225.042	-9.75
225.277	-6.75
225.511	-10.75
225.746	-5.75
225.98	12.25
226.215	22.25
226.449	23.25
226.683	14.25
226.918	40.25
227.152	34.25
227.387	39.25
227.621	34.25
227.856	46.25
228.09	50.25
228.324	52.25
228.559	56.25
228.793	62.25
229.027	67.25
229.262	61.25
229.496	64.25
229.73	85.25
229.964	82.25
230.199	75.25
230.433	68.25
230.667	85.25
230.901	69.25
231.136	67.25
231.37	80.25
231.604	84.25
231.838	73.25
232.072	85.25
232.306	87.25
232.541	80.25
232.775	70.25
233.009	83.25
233.243	85.25
233.477	89.25
233.711	90.25
233.945	66.25
234.179	76.25
234.413	74.25
234.647	72.25
234.881	80.25
235.115	86.25
235.349	69.25
235.583	68.25
235.817	57.25
236.051	85.25
236.285	90.25
236.519	83.25
236.753	80.25
236.987	70.25
237.221	75.25
237.455	88.25
237.689	81.25
237.922	74.25
238.156	72.25
238.39	70.25
238.624	62.25
238.858	73.25
239.091	79.25
239.325	76.25
239.559	83.25
239.793	68.25
240.027	56.25
240.26	78.25
240.494	74.25
240.728	78.25
240.961	71.25
241.195	89.25
241.429	82.25
241.662	68.25
241.896	79.25
242.13	61.25
242.363	79.25
242.597	67.25
242.83	66.25
243.064	77.25
243.298	72.25
243.531	75.25
243.765	77.25
243.998	74.25
244.232	97.25
244.465	91.25
244.699	87.25
244.932	71.25
245.166	75.25
245.399	73.25
245.633	59.25
245.866	74.25
246.099	78.25
246.333	71.25
246.566	68.25
246.8	80.25
247.033	79.25
247.266	68.25
247.5	70.25
247.733	75.25
247.966	98.25
248.2	85.25
248.433	102.25
248.666	71.25
248.899	76.25
249.133	72.25
249.366	85.25
249.599	90.25
249.832	83.25
250.066	84.25
250.299	80.25
250.532	85.25
250.765	95.25
250.998	71.25
251.231	74.25
251.465	76.25
251.698	84.25
251.931	67.25
252.164	72.25
252.397	83.25
252.63	88.25
252.863	71.25
253.096	93.25
253.329	71.25
253.562	79.25
253.795	91.25
254.028	80.25
254.261	91.25
254.494	72.25
254.727	69.25
254.96	72.25
255.193	79.25
255.426	85.25
255.659	78.25
255.892	78.25
256.124	76.25
256.357	65.25
256.59	70.25
256.823	72.25
257.056	84.25
257.289	92.25
257.521	82.25
257.754	86.25
257.987	75.25
258.22	87.25
258.452	90.25
258.685	77.25
258.918	93.25
259.151	66.25
259.383	74.25
259.616	63.25
259.849	86.25
260.081	84.25
260.314	84.25
260.547	91.25
260.779	83.25
261.012	80.25
261.244	80.25
261.477	74.25
261.71	88.25
261.942	96.25
262.175	110.25
262.407	88.25
262.64	78.25
262.872	89.25
263.105	69.25
263.337	84.25
263.57	76.25
263.802	74.25
264.035	82.25
264.267	83.25
264.499	89.25
264.732	78.25
264.964	81.25
265.197	82.25
265.429	70.25
265.661	92.25
265.894	87.25
266.126	84.25
266.358	77.25
266.591	98.25
266.823	86.25
267.055	87.25
267.287	91.25
267.52	78.25
267.752	86.25
267.984	85.25
268.216	83.25
268.448	67.25
268.681	95.25
268.913	71.25
269.145	76.25
269.377	91.25
269.609	67.25
269.841	86.25
270.073	91.25
270.306	79.25
270.538	84.25
270.77	88.25
271.002	76.25
271.234	75.25
271.466	77.25
271.698	84.25
271.93	78.25
272.162	77.25
272.394	89.25
272.626	86.25
272.858	79.25
273.09	84.25
273.322	85.25
273.553	88.25
273.785	77.25
274.017	79.25
274.249	97.25
274.481	76.25
274.713	88.25
274.945	80.25
275.176	78.25
275.408	90.25
275.64	89.25
275.872	84.25
276.104	91.25
276.335	81.25
276.567	84.25
276.799	92.25
277.031	83.25
277.262	83.25
277.494	89.25
277.726	91.25
277.957	92.25
278.189	91.25
278.421	91.25
278.652	91.25
278.884	90.25
279.115	75.25
279.347	87.25
279.579	84.25
279.81	74.25
280.042	90.25
280.273	88.25
280.505	75.25
280.736	94.25
280.968	74.25
281.199	82.25
281.431	78.25
281.662	89.25
281.894	88.25
282.125	85.25
282.356	80.25
282.588	143.25
282.819	108.25
283.051	99.25
283.282	93.25
283.513	84.25
283.745	100.25
283.976	77.25
284.207	78.25
284.439	93.25
284.67	79.25
284.901	72.25
285.132	91.25
285.364	82.25
285.595	79.25
285.826	81.25
286.057	83.25
286.288	66.25
286.52	84.25
286.751	70.25
286.982	87.25
287.213	87.25
287.444	88.25
287.675	93.25
287.906	92.25
288.138	86.25
288.369	78.25
288.6	84.25
288.831	97.25
289.062	85.25
289.293	91.25
289.524	65.25
289.755	81.25
289.986	86.25
290.217	93.25
290.448	79.25
290.679	85.25
290.91	73.25
291.141	80.25
291.371	73.25
291.602	92.25
291.833	86.25
292.064	80.25
292.295	90.25
292.526	81.25
292.757	88.25
292.987	81.25
293.218	87.25
293.449	93.25
293.68	83.25
293.91	80.25
294.141	94.25
294.372	72.25
294.603	72.25
294.833	89.25
295.064	73.25
295.295	66.25
295.525	94.25
295.756	98.25
295.987	103.25
296.217	115.25
296.448	109.25
296.679	92.25
296.909	98.25
297.14	91.25
297.37	85.25
297.601	77.25
297.831	80.25
298.062	67.25
298.292	91.25
298.523	86.25
298.753	89.25
298.984	93.25
299.214	90.25
299.445	91.25
299.675	87.25
299.905	94.25
300.136	100.25
300.366	82.25
300.597	99.25
300.827	78.25
301.057	79.25
301.288	93.25
301.518	80.25
301.748	94.25
301.979	96.25
302.209	76.25
302.439	84.25
302.669	83.25
302.9	94.25
303.13	87.25
303.36	87.25
303.59	90.25
303.82	99.25
304.051	109.25
304.281	98.25
304.511	98.25
304.741	72.25
304.971	89.25
305.201	90.25
305.431	97.25
305.661	92.25
305.891	106.25
306.121	100.25
306.352	105.25
306.582	109.25
306.812	79.25
307.042	81.25
307.272	92.25
307.502	90.25
307.731	96.25
307.961	87.25
308.191	91.25
308.421	106.25
308.651	86.25
308.881	78.25
309.111	95.25
309.341	84.25
309.571	86.25
309.8	93.25
310.03	104.25
310.26	91.25
310.49	98.25
310.72	92.25
310.949	102.25
311.179	96.25
311.409	94.25
311.639	90.25
311.868	84.25
312.098	85.25
312.328	94.25
312.557	100.25
312.787	105.25
313.017	88.25
313.246	89.25
313.476	95.25
313.706	96.25
313.935	92.25
314.165	101.25
314.394	76.25
314.624	99.25
314.853	88.25
315.083	85.25
315.312	85.25
315.542	92.25
315.771	96.25
316.001	99.25
316.23	83.25
316.46	70.25
316.689	90.25
316.919	92.25
317.148	86.25
317.377	95.25
317.607	92.25
317.836	91.25
318.065	83.25
318.295	90.25
318.524	91.25
318.753	93.25
318.983	108.25
319.212	102.25
319.441	103.25
319.67	97.25
319.9	96.25
320.129	89.25
320.358	98.25
320.587	93.25
320.816	82.25
321.046	94.25
321.275	87.25
321.504	95.25
321.733	102.25
321.962	78.25
322.191	95.25
322.42	101.25
322.649	111.25
322.878	98.25
323.108	109.25
323.337	122.25
323.566	131.25
323.795	126.25
324.024	172.25
324.253	323.25
324.482	656.25
324.71	1309.25
324.939	1741.25
325.168	651.25
325.397	198.25
325.626	121.25
325.855	111.25
326.084	105.25
326.313	114.25
326.542	135.25
326.77	189.25
326.999	366.25
327.228	762.25
327.457	1350.25
327.686	1049.25
327.914	294.25
328.143	162.25
328.372	141.25
328.6	129.25
328.829	103.25
329.058	96.25
329.287	108.25
329.515	111.25
329.744	95.25
329.972	105.25
330.201	150.25
330.43	158.25
330.658	139.25
330.887	125.25
331.115	111.25
331.344	96.25
331.572	93.25
331.801	86.25
332.03	80.25
332.258	97.25
332.486	91.25
332.715	98.25
332.943	89.25
333.172	98.25
333.4	102.25
333.629	109.25
333.857	105.25
334.085	131.25
334.314	133.25
334.542	173.25
334.771	173.25
334.999	110.25
335.227	84.25
335.455	79.25
335.684	99.25
335.912	91.25
336.14	104.25
336.369	96.25
336.597	103.25
336.825	98.25
337.053	70.25
337.281	85.25
337.51	91.25
337.738	81.25
337.966	96.25
338.194	89.25
338.422	77.25
338.65	89.25
338.878	96.25
339.106	93.25
339.334	103.25
339.562	89.25
339.79	88.25
340.018	86.25
340.246	92.25
340.474	85.25
340.702	89.25
340.93	89.25
341.158	91.25
341.386	96.25
341.614	89.25
341.842	88.25
342.07	91.25
342.298	81.25
342.526	82.25
342.754	90.25
342.981	76.25
343.209	92.25
343.437	106.25
343.665	93.25
343.893	86.25
344.12	91.25
344.348	93.25
344.576	92.25
344.804	86.25
345.031	87.25
345.259	94.25
345.487	85.25
345.714	105.25
345.942	89.25
346.17	89.25
346.397	85.25
346.625	92.25
346.853	97.25
347.08	81.25
347.308	92.25
347.535	101.25
347.763	104.25
347.99	92.25
348.218	107.25
348.445	101.25
348.673	99.25
348.9	104.25
349.128	85.25
349.355	91.25
349.583	89.25
349.81	87.25
350.037	103.25
350.265	92.25
350.492	100.25
350.72	103.25
350.947	98.25
351.174	103.25
351.402	98.25
351.629	102.25
351.856	105.25
352.083	91.25
352.311	98.25
352.538	93.25
352.765	101.25
352.992	105.25
353.22	103.25
353.447	101.25
353.674	98.25
353.901	106.25
354.128	88.25
354.355	85.25
354.583	96.25
354.81	80.25
355.037	95.25
355.264	91.25
355.491	102.25
355.718	93.25
355.945	88.25
356.172	98.25
356.399	93.25
356.626	108.25
356.853	85.25
357.08	78.25
357.307	83.25
357.534	97.25
357.761	87.25
357.988	84.25
358.215	99.25
358.441	99.25
358.668	88.25
358.895	82.25
359.122	83.25
359.349	89.25
359.576	102.25
359.802	98.25
360.029	114.25
360.256	98.25
360.483	80.25
360.709	88.25
360.936	101.25
361.163	85.25
361.39	87.25
361.616	96.25
361.843	84.25
362.07	95.25
362.296	86.25
362.523	75.25
362.749	103.25
362.976	100.25
363.203	92.25
363.429	89.25
363.656	102.25
363.882	88.25
364.109	92.25
364.335	98.25
364.562	100.25
364.788	88.25
365.015	88.25
365.241	78.25
365.468	98.25
365.694	95.25
365.92	80.25
366.147	74.25
366.373	84.25
366.599	91.25
366.826	89.25
367.052	91.25
367.278	85.25
367.505	80.25
367.731	88.25
367.957	102.25
368.184	102.25
368.41	84.25
368.636	105.25
368.862	104.25
369.089	104.25
369.315	84.25
369.541	71.25
369.767	91.25
369.993	90.25
370.219	88.25
370.445	76.25
370.672	74.25
370.898	80.25
371.124	92.25
371.35	81.25
371.576	90.25
371.802	76.25
372.028	94.25
372.254	94.25
372.48	76.25
372.706	77.25
372.932	87.25
373.158	95.25
373.384	84.25
373.61	94.25
373.835	73.25
374.061	75.25
374.287	93.25
374.513	89.25
374.739	87.25
374.965	92.25
375.191	84.25
375.416	86.25
375.642	85.25
375.868	104.25
376.094	82.25
376.319	101.25
376.545	79.25
376.771	91.25
376.997	86.25
377.222	86.25
377.448	96.25
377.674	99.25
377.899	90.25
378.125	96.25
378.35	85.25
378.576	84.25
378.802	98.25
379.027	101.25
379.253	92.25
379.478	88.25
379.704	93.25
379.929	90.25
380.155	91.25
380.38	103.25
380.606	83.25
380.831	108.25
381.057	94.25
381.282	91.25
381.507	84.25
381.733	102.25
381.958	104.25
382.184	89.25
382.409	90.25
382.634	95.25
382.86	109.25
383.085	96.25
383.31	91.25
383.535	93.25
383.761	91.25
383.986	89.25
384.211	84.25
384.436	94.25
384.662	110.25
384.887	108.25
385.112	102.25
385.337	104.25
385.562	107.25
385.787	87.25
386.013	103.25
386.238	104.25
386.463	103.25
386.688	110.25
386.913	97.25
387.138	109.25
387.363	100.25
387.588	94.25
387.813	105.25
388.038	101.25
388.263	123.25
388.488	99.25
388.713	103.25
388.938	83.25
389.163	95.25
389.387	94.25
389.612	84.25
389.837	88.25
390.062	90.25
390.287	97.25
390.512	82.25
390.736	95.25
390.961	85.25
391.186	75.25
391.411	95.25
391.636	79.25
391.86	80.25
392.085	99.25
392.31	82.25
392.534	79.25
392.759	92.25
392.984	89.25
393.208	83.25
393.433	104.25
393.658	87.25
393.882	85.25
394.107	85.25
394.331	89.25
394.556	79.25
394.78	80.25
395.005	83.25
395.229	92.25
395.454	87.25
395.678	96.25
395.903	82.25
396.127	95.25
396.352	87.25
396.576	92.25
396.801	99.25
397.025	87.25
397.249	82.25
397.474	87.25
397.698	93.25
397.922	95.25
398.147	86.25
398.371	93.25
398.595	83.25
398.82	93.25
399.044	84.25
399.268	94.25
399.492	87.25
399.717	70.25
399.941	87.25
400.165	92.25
400.389	98.25
400.613	79.25
400.837	75.25
401.062	65.25
401.286	90.25
401.51	95.25
401.734	88.25
401.958	96.25
402.182	99.25
402.406	139.25
402.63	101.25
402.854	101.25
403.078	78.25
403.302	88.25
403.526	85.25
403.75	89.25
403.974	75.25
404.198	84.25
404.422	87.25
404.645	89.25
404.869	84.25
405.093	84.25
405.317	96.25
405.541	95.25
405.765	88.25
405.988	103.25
406.212	150.25
406.436	183.25
406.66	133.25
406.883	105.25
407.107	80.25
407.331	90.25
407.555	86.25
407.778	103.25
408.002	94.25
408.226	81.25
408.449	92.25
408.673	87.25
408.896	91.25
409.12	94.25
409.344	86.25
409.567	80.25
409.791	90.25
410.014	84.25
410.238	87.25
410.461	82.25
410.685	96.25
410.908	102.25
411.132	94.25
411.355	97.25
411.578	99.25
411.802	88.25
412.025	83.25
412.249	92.25
412.472	86.25
412.695	104.25
412.919	89.25
413.142	67.25
413.365	77.25
413.589	90.25
413.812	78.25
414.035	91.25
414.258	77.25
414.482	84.25
414.705	83.25
414.928	84.25
415.151	90.25
415.374	95.25
415.597	92.25
415.821	86.25
416.044	67.25
416.267	83.25
416.49	84.25
416.713	90.25
416.936	74.25
417.159	71.25
417.382	88.25
417.605	88.25
417.828	96.25
418.051	85.25
418.274	85.25
418.497	83.25
418.72	80.25
418.943	93.25
419.166	79.25
419.389	85.25
419.611	93.25
419.834	98.25
420.057	91.25
420.28	82.25
420.503	92.25
420.726	83.25
420.948	87.25
421.171	88.25
421.394	83.25
421.617	89.25
421.839	85.25
422.062	85.25
422.285	85.25
422.507	97.25
422.73	111.25
422.953	93.25
423.175	94.25
423.398	76.25
423.621	86.25
423.843	85.25
424.066	84.25
424.288	85.25
424.511	82.25
424.733	83.25
424.956	102.25
425.178	99.25
425.401	109.25
425.623	90.25
425.846	82.25
426.068	96.25
426.291	87.25
426.513	87.25
426.735	96.25
426.958	96.25
427.18	94.25
427.402	115.25
427.625	142.25
427.847	116.25
428.069	108.25
428.292	83.25
428.514	88.25
428.736	90.25
428.958	72.25
429.181	89.25
429.403	90.25
429.625	92.25
429.847	94.25
430.069	104.25
430.292	101.25
430.514	77.25
430.736	86.25
430.958	93.25
431.18	76.25
431.402	80.25
431.624	77.25
431.846	94.25
432.068	93.25
432.29	90.25
432.512	86.25
432.734	86.25
432.956	75.25
433.178	90.25
433.4	90.25
433.622	92.25
433.844	79.25
434.066	86.25
434.287	92.25
434.509	99.25
434.731	83.25
434.953	82.25
435.175	78.25
435.397	99.25
435.618	94.25
435.84	102.25
436.062	108.25
436.284	104.25
436.505	98.25
436.727	91.25
436.949	91.25
437.17	95.25
437.392	80.25
437.614	92.25
437.835	98.25
438.057	113.25
438.278	104.25
438.5	95.25
438.721	120.25
438.943	107.25
439.165	87.25
439.386	95.25
439.608	87.25
439.829	122.25
440.05	111.25
440.272	126.25
440.493	105.25
440.715	90.25
440.936	82.25
441.158	77.25
441.379	76.25
441.6	95.25
441.822	93.25
442.043	92.25
442.264	103.25
442.486	101.25
442.707	93.25
442.928	100.25
443.149	124.25
443.371	116.25
443.592	104.25
443.813	107.25
444.034	103.25
444.255	85.25
444.476	77.25
444.698	98.25
444.919	82.25
445.14	128.25
445.361	125.25
445.582	94.25
445.803	114.25
446.024	119.25
446.245	122.25
446.466	106.25
446.687	78.25
446.908	91.25
447.129	82.25
447.35	87.25
447.571	96.25
447.792	88.25
448.013	97.25
448.234	94.25
448.455	98.25
448.675	106.25
448.896	103.25
449.117	98.25
449.338	98.25
449.559	108.25
449.779	104.25
450	86.25
450.221	90.25
450.442	83.25
450.662	86.25
450.883	108.25
451.104	93.25
451.324	75.25
451.545	71.25
451.766	95.25
451.986	75.25
452.207	88.25
452.428	79.25
452.648	87.25
452.869	94.25
453.089	91.25
453.31	87.25
453.53	91.25
453.751	86.25
453.971	105.25
454.192	97.25
454.412	93.25
454.633	81.25
454.853	90.25
455.073	78.25
455.294	92.25
455.514	104.25
455.734	101.25
455.955	83.25
456.175	77.25
456.395	89.25
456.616	79.25
456.836	95.25
457.056	74.25
457.276	64.25
457.497	76.25
457.717	83.25
457.937	92.25
458.157	76.25
458.377	88.25
458.598	101.25
458.818	111.25
459.038	138.25
459.258	100.25
459.478	72.25
459.698	83.25
459.918	96.25
460.138	69.25
460.358	74.25
460.578	91.25
460.798	95.25
461.018	75.25
461.238	78.25
461.458	84.25
461.678	94.25
461.898	88.25
462.118	85.25
462.338	87.25
462.558	80.25
462.777	72.25
462.997	87.25
463.217	87.25
463.437	75.25
463.657	85.25
463.876	91.25
464.096	80.25
464.316	93.25
464.536	84.25
464.755	92.25
464.975	97.25
465.195	138.25
465.414	137.25
465.634	86.25
465.854	96.25
466.073	92.25
466.293	93.25
466.512	87.25
466.732	95.25
466.951	91.25
467.171	98.25
467.391	100.25
467.61	101.25
467.829	91.25
468.049	115.25
468.268	130.25
468.488	96.25
468.707	88.25
468.927	92.25
469.146	94.25
469.365	76.25
469.585	86.25
469.804	88.25
470.023	89.25
470.243	72.25
470.462	94.25
470.681	107.25
470.901	80.25
471.12	91.25
471.339	85.25
471.558	78.25
471.777	82.25
471.997	99.25
472.216	150.25
472.435	223.25
472.654	116.25
472.873	96.25
473.092	93.25
473.311	96.25
473.53	65.25
473.749	80.25
473.968	82.25
474.187	79.25
474.406	90.25
474.625	87.25
474.844	85.25
475.063	87.25
475.282	81.25
475.501	64.25
475.72	101.25
475.939	79.25
476.158	77.25
476.377	81.25
476.596	89.25
476.814	78.25
477.033	92.25
477.252	90.25
477.471	86.25
477.69	75.25
477.908	64.25
478.127	87.25
478.346	79.25
478.564	95.25
478.783	94.25
479.002	66.25
479.22	92.25
479.439	96.25
479.658	97.25
479.876	98.25
480.095	87.25
480.313	90.25
480.532	96.25
480.751	100.25
480.969	132.25
481.188	341.25
481.406	215.25
481.624	107.25
481.843	94.25
482.061	83.25
482.28	100.25
482.498	85.25
482.717	69.25
482.935	85.25
483.153	115.25
483.372	85.25
483.59	93.25
483.808	86.25
484.027	85.25
484.245	93.25
484.463	85.25
484.681	98.25
484.9	82.25
485.118	104.25
485.336	110.25
485.554	80.25
485.772	103.25
485.99	88.25
486.209	117.25
486.427	98.25
486.645	108.25
486.863	114.25
487.081	88.25
487.299	84.25
487.517	97.25
487.735	85.25
487.953	84.25
488.171	104.25
488.389	74.25
488.607	76.25
488.825	90.25
489.043	87.25
489.261	97.25
489.479	78.25
489.696	99.25
489.914	103.25
490.132	93.25
490.35	83.25
490.568	70.25
490.786	94.25
491.003	72.25
491.221	85.25
491.439	103.25
491.657	101.25
491.874	87.25
492.092	94.25
492.31	92.25
492.527	87.25
492.745	111.25
492.963	82.25
493.18	95.25
493.398	95.25
493.615	92.25
493.833	89.25
494.05	73.25
494.268	95.25
494.485	90.25
494.703	83.25
494.92	94.25
495.138	100.25
495.355	90.25
495.573	88.25
495.79	95.25
496.008	90.25
496.225	81.25
496.442	94.25
496.66	107.25
496.877	86.25
497.094	97.25
497.312	88.25
497.529	86.25
497.746	73.25
497.963	94.25
498.181	84.25
498.398	94.25
498.615	97.25
498.832	119.25
499.049	90.25
499.267	71.25
499.484	80.25
499.701	80.25
499.918	86.25
500.135	92.25
500.352	80.25
500.569	82.25
500.786	97.25
501.003	94.25
501.22	75.25
501.437	92.25
501.654	95.25
501.871	95.25
502.088	93.25
502.305	99.25
502.522	101.25
502.739	100.25
502.956	71.25
503.172	92.25
503.389	89.25
503.606	107.25
503.823	77.25
504.04	74.25
504.256	101.25
504.473	75.25
504.69	80.25
504.907	92.25
505.123	87.25
505.34	89.25
505.557	85.25
505.773	99.25
505.99	102.25
506.207	94.25
506.423	98.25
506.64	86.25
506.856	90.25
507.073	67.25
507.289	81.25
507.506	95.25
507.722	95.25
507.939	101.25
508.155	103.25
508.372	87.25
508.588	93.25
508.805	98.25
509.021	95.25
509.238	116.25
509.454	93.25
509.67	106.25
509.887	100.25
510.103	117.25
510.319	194.25
510.536	598.25
510.752	1837.25
510.968	548.25
511.184	137.25
511.401	98.25
511.617	117.25
511.833	104.25
512.049	107.25
512.265	80.25
512.481	77.25
512.698	92.25
512.914	94.25
513.13	90.25
513.346	86.25
513.562	87.25
513.778	102.25
513.994	100.25
514.21	93.25
514.426	120.25
514.642	127.25
514.858	102.25
515.074	143.25
515.29	359.25
515.506	1092.25
515.721	438.25
515.937	136.25
516.153	93.25
516.369	100.25
516.585	103.25
