Data from Circ_2010_H10_HRD10591_00016.txt Node
Date: Wed Jan 03 10:09:44 EST 2024
User: Yrep
Spectrometer: HR+D1059
Trigger mode: 1
Integration Time (sec): 1.000000E-1
Scans to average: 1
Electric dark correction enabled: true
Nonlinearity correction enabled: false
Boxcar width: 0
XAxis mode: Wavelengths
Number of Pixels in Spectrum: 2048
>>>>>Begin Spectral Data<<<<<
223.165	-17.06
223.4	-17.06
223.635	-17.06
223.869	-25.06
224.104	-33.06
224.338	-26.06
224.573	-19.06
224.808	-7.06
225.042	-13.06
225.277	-3.06
225.511	-1.06
225.746	4.94
225.98	21.94
226.215	19.94
226.449	13.94
226.683	31.94
226.918	28.94
227.152	22.94
227.387	40.94
227.621	40.94
227.856	35.94
228.09	53.94
228.324	42.94
228.559	64.94
228.793	58.94
229.027	77.94
229.262	64.94
229.496	50.94
229.73	94.94
229.964	86.94
230.199	72.94
230.433	64.94
230.667	81.94
230.901	70.94
231.136	88.94
231.37	86.94
231.604	85.94
231.838	81.94
232.072	86.94
232.306	71.94
232.541	86.94
232.775	89.94
233.009	89.94
233.243	89.94
233.477	85.94
233.711	86.94
233.945	74.94
234.179	85.94
234.413	80.94
234.647	75.94
234.881	74.94
235.115	88.94
235.349	83.94
235.583	74.94
235.817	75.94
236.051	80.94
236.285	90.94
236.519	69.94
236.753	88.94
236.987	76.94
237.221	80.94
237.455	88.94
237.689	80.94
237.922	86.94
238.156	74.94
238.39	77.94
238.624	75.94
238.858	77.94
239.091	90.94
239.325	91.94
239.559	76.94
239.793	78.94
240.027	79.94
240.26	84.94
240.494	92.94
240.728	74.94
240.961	77.94
241.195	80.94
241.429	80.94
241.662	81.94
241.896	80.94
242.13	80.94
242.363	81.94
242.597	86.94
242.83	74.94
243.064	66.94
243.298	77.94
243.531	64.94
243.765	81.94
243.998	91.94
244.232	85.94
244.465	80.94
244.699	64.94
244.932	85.94
245.166	88.94
245.399	70.94
245.633	82.94
245.866	85.94
246.099	70.94
246.333	75.94
246.566	79.94
246.8	76.94
247.033	64.94
247.266	85.94
247.5	76.94
247.733	75.94
247.966	85.94
248.2	90.94
248.433	89.94
248.666	88.94
248.899	66.94
249.133	95.94
249.366	99.94
249.599	92.94
249.832	93.94
250.066	73.94
250.299	73.94
250.532	68.94
250.765	76.94
250.998	70.94
251.231	89.94
251.465	87.94
251.698	82.94
251.931	84.94
252.164	84.94
252.397	85.94
252.63	73.94
252.863	73.94
253.096	73.94
253.329	89.94
253.562	76.94
253.795	85.94
254.028	75.94
254.261	68.94
254.494	79.94
254.727	84.94
254.96	91.94
255.193	86.94
255.426	93.94
255.659	69.94
255.892	96.94
256.124	71.94
256.357	109.94
256.59	83.94
256.823	81.94
257.056	81.94
257.289	93.94
257.521	86.94
257.754	78.94
257.987	79.94
258.22	88.94
258.452	96.94
258.685	79.94
258.918	91.94
259.151	66.94
259.383	76.94
259.616	83.94
259.849	85.94
260.081	97.94
260.314	76.94
260.547	88.94
260.779	74.94
261.012	80.94
261.244	92.94
261.477	97.94
261.71	98.94
261.942	118.94
262.175	107.94
262.407	93.94
262.64	86.94
262.872	81.94
263.105	86.94
263.337	86.94
263.57	96.94
263.802	80.94
264.035	98.94
264.267	79.94
264.499	83.94
264.732	99.94
264.964	91.94
265.197	82.94
265.429	84.94
265.661	86.94
265.894	102.94
266.126	84.94
266.358	84.94
266.591	70.94
266.823	94.94
267.055	95.94
267.287	96.94
267.52	79.94
267.752	74.94
267.984	79.94
268.216	93.94
268.448	86.94
268.681	85.94
268.913	86.94
269.145	104.94
269.377	68.94
269.609	87.94
269.841	90.94
270.073	82.94
270.306	78.94
270.538	87.94
270.77	83.94
271.002	79.94
271.234	88.94
271.466	100.94
271.698	90.94
271.93	89.94
272.162	97.94
272.394	79.94
272.626	69.94
272.858	85.94
273.09	92.94
273.322	94.94
273.553	87.94
273.785	88.94
274.017	98.94
274.249	92.94
274.481	85.94
274.713	89.94
274.945	87.94
275.176	103.94
275.408	85.94
275.64	88.94
275.872	88.94
276.104	101.94
276.335	89.94
276.567	94.94
276.799	99.94
277.031	97.94
277.262	89.94
277.494	92.94
277.726	84.94
277.957	78.94
278.189	81.94
278.421	89.94
278.652	86.94
278.884	87.94
279.115	89.94
279.347	80.94
279.579	93.94
279.81	90.94
280.042	93.94
280.273	84.94
280.505	99.94
280.736	74.94
280.968	100.94
281.199	90.94
281.431	80.94
281.662	95.94
281.894	77.94
282.125	103.94
282.356	125.94
282.588	134.94
282.819	100.94
283.051	79.94
283.282	85.94
283.513	93.94
283.745	88.94
283.976	91.94
284.207	93.94
284.439	98.94
284.67	91.94
284.901	96.94
285.132	77.94
285.364	87.94
285.595	96.94
285.826	94.94
286.057	87.94
286.288	83.94
286.52	71.94
286.751	85.94
286.982	82.94
287.213	93.94
287.444	100.94
287.675	89.94
287.906	95.94
288.138	89.94
288.369	79.94
288.6	82.94
288.831	85.94
289.062	108.94
289.293	92.94
289.524	82.94
289.755	95.94
289.986	91.94
290.217	82.94
290.448	81.94
290.679	82.94
290.91	87.94
291.141	96.94
291.371	82.94
291.602	81.94
291.833	77.94
292.064	96.94
292.295	65.94
292.526	93.94
292.757	84.94
292.987	91.94
293.218	89.94
293.449	94.94
293.68	93.94
293.91	88.94
294.141	96.94
294.372	86.94
294.603	77.94
294.833	97.94
295.064	87.94
295.295	89.94
295.525	88.94
295.756	98.94
295.987	111.94
296.217	143.94
296.448	118.94
296.679	83.94
296.909	91.94
297.14	80.94
297.37	93.94
297.601	94.94
297.831	89.94
298.062	103.94
298.292	77.94
298.523	83.94
298.753	87.94
298.984	88.94
299.214	81.94
299.445	95.94
299.675	89.94
299.905	86.94
300.136	80.94
300.366	82.94
300.597	77.94
300.827	91.94
301.057	101.94
301.288	104.94
301.518	111.94
301.748	101.94
301.979	97.94
302.209	92.94
302.439	82.94
302.669	81.94
302.9	93.94
303.13	87.94
303.36	100.94
303.59	99.94
303.82	89.94
304.051	97.94
304.281	98.94
304.511	84.94
304.741	96.94
304.971	109.94
305.201	92.94
305.431	94.94
305.661	101.94
305.891	102.94
306.121	105.94
306.352	95.94
306.582	97.94
306.812	97.94
307.042	82.94
307.272	95.94
307.502	100.94
307.731	108.94
307.961	108.94
308.191	81.94
308.421	78.94
308.651	76.94
308.881	96.94
309.111	85.94
309.341	94.94
309.571	102.94
309.8	92.94
310.03	96.94
310.26	91.94
310.49	92.94
310.72	105.94
310.949	108.94
311.179	85.94
311.409	86.94
311.639	92.94
311.868	75.94
312.098	90.94
312.328	82.94
312.557	93.94
312.787	95.94
313.017	94.94
313.246	97.94
313.476	93.94
313.706	95.94
313.935	91.94
314.165	92.94
314.394	98.94
314.624	85.94
314.853	95.94
315.083	95.94
315.312	89.94
315.542	98.94
315.771	106.94
316.001	95.94
316.23	71.94
316.46	76.94
316.689	89.94
316.919	95.94
317.148	83.94
317.377	102.94
317.607	101.94
317.836	79.94
318.065	82.94
318.295	90.94
318.524	83.94
318.753	94.94
318.983	102.94
319.212	82.94
319.441	106.94
319.67	107.94
319.9	87.94
320.129	109.94
320.358	97.94
320.587	94.94
320.816	93.94
321.046	100.94
321.275	99.94
321.504	97.94
321.733	101.94
321.962	98.94
322.191	87.94
322.42	103.94
322.649	101.94
322.878	106.94
323.108	110.94
323.337	121.94
323.566	123.94
323.795	150.94
324.024	188.94
324.253	365.94
324.482	784.94
324.71	1551.94
324.939	2035.94
325.168	790.94
325.397	235.94
325.626	152.94
325.855	136.94
326.084	112.94
326.313	139.94
326.542	153.94
326.77	236.94
326.999	438.94
327.228	899.94
327.457	1568.94
327.686	1270.94
327.914	335.94
328.143	192.94
328.372	177.94
328.6	133.94
328.829	122.94
329.058	125.94
329.287	121.94
329.515	110.94
329.744	110.94
329.972	126.94
330.201	160.94
330.43	194.94
330.658	156.94
330.887	130.94
331.115	137.94
331.344	97.94
331.572	91.94
331.801	110.94
332.03	103.94
332.258	98.94
332.486	94.94
332.715	90.94
332.943	92.94
333.172	92.94
333.4	112.94
333.629	103.94
333.857	107.94
334.085	128.94
334.314	157.94
334.542	219.94
334.771	201.94
334.999	128.94
335.227	100.94
335.455	88.94
335.684	97.94
335.912	97.94
336.14	87.94
336.369	111.94
336.597	110.94
336.825	105.94
337.053	99.94
337.281	101.94
337.51	94.94
337.738	105.94
337.966	86.94
338.194	102.94
338.422	95.94
338.65	98.94
338.878	94.94
339.106	86.94
339.334	96.94
339.562	97.94
339.79	99.94
340.018	101.94
340.246	100.94
340.474	101.94
340.702	85.94
340.93	92.94
341.158	82.94
341.386	95.94
341.614	94.94
341.842	81.94
342.07	84.94
342.298	101.94
342.526	85.94
342.754	89.94
342.981	84.94
343.209	95.94
343.437	98.94
343.665	93.94
343.893	101.94
344.12	91.94
344.348	94.94
344.576	94.94
344.804	91.94
345.031	86.94
345.259	99.94
345.487	100.94
345.714	103.94
345.942	96.94
346.17	99.94
346.397	87.94
346.625	97.94
346.853	100.94
347.08	96.94
347.308	95.94
347.535	90.94
347.763	104.94
347.99	90.94
348.218	107.94
348.445	89.94
348.673	89.94
348.9	112.94
349.128	100.94
349.355	86.94
349.583	90.94
349.81	90.94
350.037	114.94
350.265	103.94
350.492	95.94
350.72	105.94
350.947	99.94
351.174	99.94
351.402	97.94
351.629	87.94
351.856	99.94
352.083	94.94
352.311	101.94
352.538	104.94
352.765	103.94
352.992	106.94
353.22	95.94
353.447	107.94
353.674	106.94
353.901	91.94
354.128	84.94
354.355	98.94
354.583	103.94
354.81	96.94
355.037	113.94
355.264	100.94
355.491	94.94
355.718	87.94
355.945	100.94
356.172	96.94
356.399	105.94
356.626	101.94
356.853	84.94
357.08	89.94
357.307	93.94
357.534	94.94
357.761	91.94
357.988	93.94
358.215	89.94
358.441	84.94
358.668	107.94
358.895	110.94
359.122	92.94
359.349	91.94
359.576	107.94
359.802	87.94
360.029	113.94
360.256	115.94
360.483	103.94
360.709	99.94
360.936	93.94
361.163	90.94
361.39	94.94
361.616	92.94
361.843	97.94
362.07	102.94
362.296	110.94
362.523	89.94
362.749	78.94
362.976	87.94
363.203	96.94
363.429	89.94
363.656	97.94
363.882	95.94
364.109	82.94
364.335	104.94
364.562	94.94
364.788	100.94
365.015	89.94
365.241	96.94
365.468	111.94
365.694	96.94
365.92	105.94
366.147	97.94
366.373	94.94
366.599	91.94
366.826	89.94
367.052	83.94
367.278	81.94
367.505	104.94
367.731	94.94
367.957	90.94
368.184	86.94
368.41	97.94
368.636	110.94
368.862	112.94
369.089	109.94
369.315	99.94
369.541	102.94
369.767	103.94
369.993	104.94
370.219	100.94
370.445	89.94
370.672	81.94
370.898	95.94
371.124	87.94
371.35	86.94
371.576	107.94
371.802	88.94
372.028	82.94
372.254	77.94
372.48	78.94
372.706	84.94
372.932	103.94
373.158	85.94
373.384	88.94
373.61	84.94
373.835	85.94
374.061	81.94
374.287	97.94
374.513	101.94
374.739	100.94
374.965	89.94
375.191	100.94
375.416	85.94
375.642	94.94
375.868	91.94
376.094	102.94
376.319	85.94
376.545	99.94
376.771	88.94
376.997	83.94
377.222	105.94
377.448	99.94
377.674	90.94
377.899	92.94
378.125	89.94
378.35	91.94
378.576	100.94
378.802	96.94
379.027	90.94
379.253	92.94
379.478	89.94
379.704	95.94
379.929	100.94
380.155	98.94
380.38	90.94
380.606	74.94
380.831	104.94
381.057	101.94
381.282	86.94
381.507	103.94
381.733	104.94
381.958	96.94
382.184	110.94
382.409	93.94
382.634	102.94
382.86	112.94
383.085	105.94
383.31	97.94
383.535	105.94
383.761	98.94
383.986	104.94
384.211	99.94
384.436	111.94
384.662	97.94
384.887	110.94
385.112	107.94
385.337	104.94
385.562	118.94
385.787	112.94
386.013	109.94
386.238	108.94
386.463	98.94
386.688	101.94
386.913	111.94
387.138	118.94
387.363	88.94
387.588	96.94
387.813	94.94
388.038	114.94
388.263	99.94
388.488	112.94
388.713	98.94
388.938	93.94
389.163	101.94
389.387	95.94
389.612	88.94
389.837	95.94
390.062	95.94
390.287	99.94
390.512	95.94
390.736	103.94
390.961	94.94
391.186	100.94
391.411	89.94
391.636	103.94
391.86	81.94
392.085	87.94
392.31	91.94
392.534	85.94
392.759	96.94
392.984	83.94
393.208	87.94
393.433	117.94
393.658	99.94
393.882	96.94
394.107	88.94
394.331	87.94
394.556	81.94
394.78	84.94
395.005	94.94
395.229	97.94
395.454	81.94
395.678	102.94
395.903	92.94
396.127	99.94
396.352	76.94
396.576	85.94
396.801	93.94
397.025	94.94
397.249	97.94
397.474	92.94
397.698	97.94
397.922	88.94
398.147	76.94
398.371	82.94
398.595	92.94
398.82	100.94
399.044	87.94
399.268	88.94
399.492	97.94
399.717	83.94
399.941	92.94
400.165	92.94
400.389	93.94
400.613	94.94
400.837	91.94
401.062	89.94
401.286	94.94
401.51	93.94
401.734	93.94
401.958	93.94
402.182	127.94
402.406	135.94
402.63	108.94
402.854	92.94
403.078	81.94
403.302	94.94
403.526	96.94
403.75	84.94
403.974	90.94
404.198	77.94
404.422	86.94
404.645	86.94
404.869	96.94
405.093	95.94
405.317	113.94
405.541	111.94
405.765	101.94
405.988	110.94
406.212	177.94
406.436	177.94
406.66	136.94
406.883	109.94
407.107	100.94
407.331	91.94
407.555	101.94
407.778	105.94
408.002	96.94
408.226	87.94
408.449	107.94
408.673	82.94
408.896	96.94
409.12	93.94
409.344	99.94
409.567	80.94
409.791	85.94
410.014	93.94
410.238	90.94
410.461	105.94
410.685	95.94
410.908	84.94
411.132	104.94
411.355	91.94
411.578	91.94
411.802	91.94
412.025	94.94
412.249	92.94
412.472	97.94
412.695	105.94
412.919	88.94
413.142	88.94
413.365	102.94
413.589	89.94
413.812	87.94
414.035	84.94
414.258	99.94
414.482	85.94
414.705	94.94
414.928	97.94
415.151	90.94
415.374	101.94
415.597	81.94
415.821	96.94
416.044	82.94
416.267	81.94
416.49	92.94
416.713	95.94
416.936	91.94
417.159	81.94
417.382	94.94
417.605	85.94
417.828	75.94
418.051	113.94
418.274	98.94
418.497	86.94
418.72	87.94
418.943	84.94
419.166	74.94
419.389	86.94
419.611	86.94
419.834	96.94
420.057	90.94
420.28	94.94
420.503	87.94
420.726	103.94
420.948	87.94
421.171	86.94
421.394	112.94
421.617	86.94
421.839	83.94
422.062	92.94
422.285	97.94
422.507	104.94
422.73	118.94
422.953	101.94
423.175	87.94
423.398	95.94
423.621	95.94
423.843	80.94
424.066	87.94
424.288	99.94
424.511	89.94
424.733	86.94
424.956	105.94
425.178	104.94
425.401	101.94
425.623	104.94
425.846	83.94
426.068	87.94
426.291	86.94
426.513	99.94
426.735	87.94
426.958	97.94
427.18	114.94
427.402	132.94
427.625	173.94
427.847	146.94
428.069	137.94
428.292	92.94
428.514	91.94
428.736	76.94
428.958	89.94
429.181	95.94
429.403	101.94
429.625	93.94
429.847	96.94
430.069	92.94
430.292	87.94
430.514	94.94
430.736	96.94
430.958	88.94
431.18	95.94
431.402	94.94
431.624	81.94
431.846	83.94
432.068	85.94
432.29	102.94
432.512	90.94
432.734	92.94
432.956	76.94
433.178	97.94
433.4	108.94
433.622	94.94
433.844	99.94
434.066	95.94
434.287	73.94
434.509	96.94
434.731	91.94
434.953	102.94
435.175	77.94
435.397	81.94
435.618	85.94
435.84	98.94
436.062	120.94
436.284	97.94
436.505	97.94
436.727	100.94
436.949	89.94
437.17	92.94
437.392	97.94
437.614	98.94
437.835	109.94
438.057	101.94
438.278	109.94
438.5	104.94
438.721	120.94
438.943	104.94
439.165	95.94
439.386	88.94
439.608	98.94
439.829	110.94
440.05	120.94
440.272	130.94
440.493	94.94
440.715	88.94
440.936	84.94
441.158	87.94
441.379	87.94
441.6	100.94
441.822	92.94
442.043	100.94
442.264	111.94
442.486	97.94
442.707	86.94
442.928	100.94
443.149	138.94
443.371	128.94
443.592	100.94
443.813	99.94
444.034	106.94
444.255	99.94
444.476	82.94
444.698	86.94
444.919	94.94
445.14	138.94
445.361	126.94
445.582	114.94
445.803	136.94
446.024	133.94
446.245	111.94
446.466	109.94
446.687	92.94
446.908	102.94
447.129	98.94
447.35	87.94
447.571	96.94
447.792	100.94
448.013	97.94
448.234	101.94
448.455	92.94
448.675	105.94
448.896	104.94
449.117	106.94
449.338	93.94
449.559	127.94
449.779	132.94
450	86.94
450.221	86.94
450.442	100.94
450.662	98.94
450.883	104.94
451.104	100.94
451.324	96.94
451.545	86.94
451.766	91.94
451.986	72.94
452.207	86.94
452.428	92.94
452.648	92.94
452.869	117.94
453.089	110.94
453.31	112.94
453.53	90.94
453.751	94.94
453.971	112.94
454.192	99.94
454.412	83.94
454.633	90.94
454.853	92.94
455.073	76.94
455.294	92.94
455.514	98.94
455.734	101.94
455.955	83.94
456.175	84.94
456.395	74.94
456.616	75.94
456.836	88.94
457.056	100.94
457.276	78.94
457.497	82.94
457.717	74.94
457.937	79.94
458.157	80.94
458.377	96.94
458.598	94.94
458.818	138.94
459.038	141.94
459.258	121.94
459.478	100.94
459.698	90.94
459.918	88.94
460.138	92.94
460.358	96.94
460.578	82.94
460.798	76.94
461.018	89.94
461.238	83.94
461.458	71.94
461.678	78.94
461.898	76.94
462.118	89.94
462.338	89.94
462.558	83.94
462.777	79.94
462.997	91.94
463.217	75.94
463.437	82.94
463.657	93.94
463.876	73.94
464.096	81.94
464.316	88.94
464.536	98.94
464.755	95.94
464.975	101.94
465.195	156.94
465.414	154.94
465.634	95.94
465.854	76.94
466.073	88.94
466.293	89.94
466.512	103.94
466.732	83.94
466.951	81.94
467.171	86.94
467.391	94.94
467.61	111.94
467.829	97.94
468.049	111.94
468.268	143.94
468.488	93.94
468.707	90.94
468.927	91.94
469.146	90.94
469.365	91.94
469.585	87.94
469.804	107.94
470.023	102.94
470.243	79.94
470.462	90.94
470.681	101.94
470.901	87.94
471.12	81.94
471.339	85.94
471.558	81.94
471.777	90.94
471.997	100.94
472.216	158.94
472.435	249.94
472.654	124.94
472.873	95.94
473.092	92.94
473.311	86.94
473.53	76.94
473.749	80.94
473.968	91.94
474.187	108.94
474.406	97.94
474.625	98.94
474.844	91.94
475.063	100.94
475.282	91.94
475.501	91.94
475.72	87.94
475.939	78.94
476.158	74.94
476.377	74.94
476.596	77.94
476.814	97.94
477.033	101.94
477.252	92.94
477.471	89.94
477.69	93.94
477.908	84.94
478.127	80.94
478.346	90.94
478.564	100.94
478.783	91.94
479.002	87.94
479.22	81.94
479.439	102.94
479.658	86.94
479.876	97.94
480.095	89.94
480.313	92.94
480.532	92.94
480.751	100.94
480.969	149.94
481.188	398.94
481.406	262.94
481.624	119.94
481.843	92.94
482.061	92.94
482.28	90.94
482.498	101.94
482.717	83.94
482.935	70.94
483.153	95.94
483.372	91.94
483.59	86.94
483.808	94.94
484.027	76.94
484.245	86.94
484.463	97.94
484.681	87.94
484.9	92.94
485.118	89.94
485.336	89.94
485.554	106.94
485.772	85.94
485.99	113.94
486.209	107.94
486.427	96.94
486.645	125.94
486.863	132.94
487.081	111.94
487.299	92.94
487.517	93.94
487.735	87.94
487.953	90.94
488.171	103.94
488.389	95.94
488.607	108.94
488.825	93.94
489.043	96.94
489.261	89.94
489.479	93.94
489.696	109.94
489.914	90.94
490.132	93.94
490.35	84.94
490.568	90.94
490.786	86.94
491.003	87.94
491.221	87.94
491.439	102.94
491.657	77.94
491.874	96.94
492.092	92.94
492.31	105.94
492.527	78.94
492.745	89.94
492.963	76.94
493.18	84.94
493.398	84.94
493.615	109.94
493.833	106.94
494.05	90.94
494.268	78.94
494.485	93.94
494.703	75.94
494.92	96.94
495.138	85.94
495.355	89.94
495.573	99.94
495.79	93.94
496.008	97.94
496.225	88.94
496.442	90.94
496.66	90.94
496.877	87.94
497.094	91.94
497.312	98.94
497.529	85.94
497.746	91.94
497.963	95.94
498.181	94.94
498.398	79.94
498.615	103.94
498.832	108.94
499.049	101.94
499.267	80.94
499.484	78.94
499.701	92.94
499.918	84.94
500.135	90.94
500.352	93.94
500.569	88.94
500.786	90.94
501.003	83.94
501.22	102.94
501.437	83.94
501.654	85.94
501.871	111.94
502.088	103.94
502.305	88.94
502.522	100.94
502.739	84.94
502.956	91.94
503.172	91.94
503.389	98.94
503.606	98.94
503.823	110.94
504.04	90.94
504.256	87.94
504.473	91.94
504.69	85.94
504.907	99.94
505.123	87.94
505.34	96.94
505.557	90.94
505.773	93.94
505.99	84.94
506.207	91.94
506.423	87.94
506.64	80.94
506.856	104.94
507.073	100.94
507.289	88.94
507.506	96.94
507.722	103.94
507.939	126.94
508.155	85.94
508.372	76.94
508.588	85.94
508.805	92.94
509.021	96.94
509.238	114.94
509.454	94.94
509.67	88.94
509.887	109.94
510.103	116.94
510.319	172.94
510.536	646.94
510.752	2063.94
510.968	609.94
511.184	157.94
511.401	104.94
511.617	93.94
511.833	97.94
512.049	98.94
512.265	98.94
512.481	89.94
512.698	91.94
512.914	94.94
513.13	97.94
513.346	94.94
513.562	93.94
513.778	86.94
513.994	99.94
514.21	92.94
514.426	111.94
514.642	129.94
514.858	128.94
515.074	153.94
515.29	395.94
