Data from Circ_2010_H10_HRD10591_00067.txt Node
Date: Wed Jan 03 10:09:54 EST 2024
User: Yrep
Spectrometer: HR+D1059
Trigger mode: 1
Integration Time (sec): 1.000000E-1
Scans to average: 1
Electric dark correction enabled: true
Nonlinearity correction enabled: false
Boxcar width: 0
XAxis mode: Wavelengths
Number of Pixels in Spectrum: 2048
>>>>>Begin Spectral Data<<<<<
223.165	-20.44
223.4	-20.44
223.635	-20.44
223.869	-11.44
224.104	-10.44
224.338	-7.44
224.573	-27.44
224.808	-11.44
225.042	-4.44
225.277	-16.44
225.511	4.56
225.746	4.56
225.98	-5.44
226.215	16.56
226.449	14.56
226.683	25.56
226.918	28.56
227.152	20.56
227.387	27.56
227.621	29.56
227.856	52.56
228.09	47.56
228.324	45.56
228.559	52.56
228.793	63.56
229.027	63.56
229.262	55.56
229.496	71.56
229.73	71.56
229.964	88.56
230.199	71.56
230.433	66.56
230.667	70.56
230.901	86.56
231.136	83.56
231.37	85.56
231.604	80.56
231.838	63.56
232.072	84.56
232.306	77.56
232.541	78.56
232.775	76.56
233.009	74.56
233.243	77.56
233.477	80.56
233.711	78.56
233.945	74.56
234.179	85.56
234.413	78.56
234.647	75.56
234.881	82.56
235.115	74.56
235.349	76.56
235.583	58.56
235.817	89.56
236.051	63.56
236.285	88.56
236.519	72.56
236.753	80.56
236.987	86.56
237.221	93.56
237.455	75.56
237.689	66.56
237.922	78.56
238.156	72.56
238.39	70.56
238.624	79.56
238.858	74.56
239.091	71.56
239.325	87.56
239.559	87.56
239.793	75.56
240.027	77.56
240.26	72.56
240.494	77.56
240.728	66.56
240.961	74.56
241.195	78.56
241.429	71.56
241.662	69.56
241.896	75.56
242.13	78.56
242.363	73.56
242.597	72.56
242.83	75.56
243.064	88.56
243.298	78.56
243.531	72.56
243.765	66.56
243.998	77.56
244.232	82.56
244.465	87.56
244.699	81.56
244.932	64.56
245.166	72.56
245.399	75.56
245.633	85.56
245.866	69.56
246.099	57.56
246.333	67.56
246.566	85.56
246.8	79.56
247.033	73.56
247.266	75.56
247.5	78.56
247.733	83.56
247.966	80.56
248.2	71.56
248.433	86.56
248.666	75.56
248.899	79.56
249.133	93.56
249.366	88.56
249.599	79.56
249.832	78.56
250.066	78.56
250.299	88.56
250.532	83.56
250.765	76.56
250.998	62.56
251.231	87.56
251.465	74.56
251.698	72.56
251.931	79.56
252.164	80.56
252.397	69.56
252.63	77.56
252.863	79.56
253.096	85.56
253.329	79.56
253.562	79.56
253.795	86.56
254.028	74.56
254.261	80.56
254.494	74.56
254.727	70.56
254.96	93.56
255.193	79.56
255.426	88.56
255.659	83.56
255.892	82.56
256.124	76.56
256.357	80.56
256.59	84.56
256.823	71.56
257.056	88.56
257.289	80.56
257.521	70.56
257.754	76.56
257.987	91.56
258.22	87.56
258.452	85.56
258.685	77.56
258.918	79.56
259.151	73.56
259.383	80.56
259.616	71.56
259.849	74.56
260.081	86.56
260.314	84.56
260.547	80.56
260.779	92.56
261.012	69.56
261.244	77.56
261.477	89.56
261.71	88.56
261.942	109.56
262.175	112.56
262.407	91.56
262.64	89.56
262.872	95.56
263.105	70.56
263.337	86.56
263.57	86.56
263.802	93.56
264.035	88.56
264.267	92.56
264.499	79.56
264.732	79.56
264.964	93.56
265.197	87.56
265.429	78.56
265.661	74.56
265.894	90.56
266.126	83.56
266.358	77.56
266.591	73.56
266.823	68.56
267.055	87.56
267.287	82.56
267.52	86.56
267.752	75.56
267.984	80.56
268.216	77.56
268.448	94.56
268.681	87.56
268.913	70.56
269.145	79.56
269.377	85.56
269.609	79.56
269.841	80.56
270.073	80.56
270.306	78.56
270.538	70.56
270.77	87.56
271.002	88.56
271.234	82.56
271.466	89.56
271.698	96.56
271.93	78.56
272.162	82.56
272.394	76.56
272.626	82.56
272.858	80.56
273.09	90.56
273.322	80.56
273.553	93.56
273.785	87.56
274.017	80.56
274.249	79.56
274.481	95.56
274.713	82.56
274.945	91.56
275.176	78.56
275.408	73.56
275.64	83.56
275.872	75.56
276.104	79.56
276.335	83.56
276.567	106.56
276.799	101.56
277.031	102.56
277.262	91.56
277.494	99.56
277.726	82.56
277.957	70.56
278.189	77.56
278.421	89.56
278.652	71.56
278.884	84.56
279.115	78.56
279.347	95.56
279.579	80.56
279.81	92.56
280.042	91.56
280.273	93.56
280.505	94.56
280.736	95.56
280.968	67.56
281.199	77.56
281.431	89.56
281.662	93.56
281.894	91.56
282.125	96.56
282.356	114.56
282.588	123.56
282.819	114.56
283.051	82.56
283.282	79.56
283.513	87.56
283.745	83.56
283.976	80.56
284.207	78.56
284.439	91.56
284.67	91.56
284.901	92.56
285.132	79.56
285.364	84.56
285.595	91.56
285.826	78.56
286.057	82.56
286.288	82.56
286.52	77.56
286.751	80.56
286.982	83.56
287.213	84.56
287.444	90.56
287.675	83.56
287.906	85.56
288.138	79.56
288.369	89.56
288.6	94.56
288.831	90.56
289.062	77.56
289.293	92.56
289.524	78.56
289.755	92.56
289.986	78.56
290.217	85.56
290.448	85.56
290.679	92.56
290.91	85.56
291.141	80.56
291.371	78.56
291.602	90.56
291.833	71.56
292.064	84.56
292.295	81.56
292.526	95.56
292.757	97.56
292.987	92.56
293.218	90.56
293.449	90.56
293.68	89.56
293.91	85.56
294.141	89.56
294.372	93.56
294.603	91.56
294.833	79.56
295.064	94.56
295.295	79.56
295.525	90.56
295.756	109.56
295.987	99.56
296.217	126.56
296.448	111.56
296.679	80.56
296.909	101.56
297.14	86.56
297.37	88.56
297.601	82.56
297.831	86.56
298.062	92.56
298.292	85.56
298.523	80.56
298.753	73.56
298.984	101.56
299.214	76.56
299.445	74.56
299.675	74.56
299.905	99.56
300.136	98.56
300.366	90.56
300.597	87.56
300.827	85.56
301.057	89.56
301.288	92.56
301.518	70.56
301.748	74.56
301.979	101.56
302.209	84.56
302.439	90.56
302.669	90.56
302.9	103.56
303.13	87.56
303.36	96.56
303.59	88.56
303.82	111.56
304.051	104.56
304.281	86.56
304.511	91.56
304.741	96.56
304.971	94.56
305.201	83.56
305.431	101.56
305.661	97.56
305.891	82.56
306.121	103.56
306.352	92.56
306.582	108.56
306.812	79.56
307.042	88.56
307.272	84.56
307.502	100.56
307.731	103.56
307.961	85.56
308.191	83.56
308.421	90.56
308.651	86.56
308.881	95.56
309.111	99.56
309.341	86.56
309.571	99.56
309.8	98.56
310.03	86.56
310.26	92.56
310.49	73.56
310.72	93.56
310.949	95.56
311.179	106.56
311.409	100.56
311.639	82.56
311.868	82.56
312.098	91.56
312.328	95.56
312.557	96.56
312.787	100.56
313.017	95.56
313.246	93.56
313.476	66.56
313.706	90.56
313.935	83.56
314.165	87.56
314.394	108.56
314.624	83.56
314.853	95.56
315.083	95.56
315.312	105.56
315.542	88.56
315.771	77.56
316.001	93.56
316.23	100.56
316.46	85.56
316.689	86.56
316.919	77.56
317.148	91.56
317.377	86.56
317.607	92.56
317.836	99.56
318.065	90.56
318.295	90.56
318.524	87.56
318.753	91.56
318.983	98.56
319.212	105.56
319.441	105.56
319.67	90.56
319.9	90.56
320.129	103.56
320.358	90.56
320.587	96.56
320.816	94.56
321.046	86.56
321.275	95.56
321.504	88.56
321.733	82.56
321.962	108.56
322.191	103.56
322.42	103.56
322.649	100.56
322.878	106.56
323.108	109.56
323.337	115.56
323.566	111.56
323.795	136.56
324.024	199.56
324.253	329.56
324.482	679.56
324.71	1363.56
324.939	1722.56
325.168	636.56
325.397	210.56
325.626	132.56
325.855	129.56
326.084	109.56
326.313	117.56
326.542	137.56
326.77	205.56
326.999	386.56
327.228	748.56
327.457	1381.56
327.686	1084.56
327.914	316.56
328.143	194.56
328.372	196.56
328.6	128.56
328.829	107.56
329.058	114.56
329.287	126.56
329.515	92.56
329.744	111.56
329.972	142.56
330.201	194.56
330.43	264.56
330.658	162.56
330.887	146.56
331.115	120.56
331.344	102.56
331.572	104.56
331.801	95.56
332.03	97.56
332.258	102.56
332.486	96.56
332.715	91.56
332.943	87.56
333.172	103.56
333.4	97.56
333.629	93.56
333.857	120.56
334.085	148.56
334.314	217.56
334.542	293.56
334.771	295.56
334.999	118.56
335.227	111.56
335.455	77.56
335.684	100.56
335.912	88.56
336.14	90.56
336.369	88.56
336.597	85.56
336.825	88.56
337.053	95.56
337.281	84.56
337.51	76.56
337.738	83.56
337.966	108.56
338.194	95.56
338.422	86.56
338.65	89.56
338.878	90.56
339.106	101.56
339.334	76.56
339.562	96.56
339.79	88.56
340.018	87.56
340.246	96.56
340.474	80.56
340.702	89.56
340.93	81.56
341.158	91.56
341.386	92.56
341.614	93.56
341.842	100.56
342.07	93.56
342.298	96.56
342.526	95.56
342.754	91.56
342.981	82.56
343.209	100.56
343.437	80.56
343.665	94.56
343.893	91.56
344.12	94.56
344.348	93.56
344.576	78.56
344.804	94.56
345.031	93.56
345.259	83.56
345.487	86.56
345.714	94.56
345.942	90.56
346.17	97.56
346.397	87.56
346.625	93.56
346.853	85.56
347.08	82.56
347.308	82.56
347.535	94.56
347.763	95.56
347.99	99.56
348.218	90.56
348.445	94.56
348.673	87.56
348.9	97.56
349.128	82.56
349.355	106.56
349.583	97.56
349.81	96.56
350.037	74.56
350.265	79.56
350.492	93.56
350.72	98.56
350.947	91.56
351.174	109.56
351.402	103.56
351.629	96.56
351.856	114.56
352.083	109.56
352.311	106.56
352.538	95.56
352.765	96.56
352.992	111.56
353.22	116.56
353.447	97.56
353.674	90.56
353.901	98.56
354.128	96.56
354.355	97.56
354.583	90.56
354.81	89.56
355.037	93.56
355.264	92.56
355.491	90.56
355.718	104.56
355.945	88.56
356.172	99.56
356.399	97.56
356.626	100.56
356.853	101.56
357.08	78.56
357.307	75.56
357.534	91.56
357.761	101.56
357.988	90.56
358.215	87.56
358.441	88.56
358.668	88.56
358.895	88.56
359.122	87.56
359.349	90.56
359.576	90.56
359.802	96.56
360.029	104.56
360.256	100.56
360.483	94.56
360.709	77.56
360.936	87.56
361.163	92.56
361.39	83.56
361.616	97.56
361.843	102.56
362.07	90.56
362.296	94.56
362.523	99.56
362.749	99.56
362.976	89.56
363.203	88.56
363.429	72.56
363.656	94.56
363.882	81.56
364.109	96.56
364.335	94.56
364.562	91.56
364.788	91.56
365.015	84.56
365.241	84.56
365.468	95.56
365.694	109.56
365.92	85.56
366.147	97.56
366.373	78.56
366.599	95.56
366.826	87.56
367.052	87.56
367.278	93.56
367.505	80.56
367.731	92.56
367.957	90.56
368.184	91.56
368.41	93.56
368.636	100.56
368.862	97.56
369.089	92.56
369.315	77.56
369.541	99.56
369.767	77.56
369.993	96.56
370.219	93.56
370.445	99.56
370.672	79.56
370.898	85.56
371.124	84.56
371.35	99.56
371.576	79.56
371.802	77.56
372.028	91.56
372.254	95.56
372.48	86.56
372.706	86.56
372.932	86.56
373.158	85.56
373.384	97.56
373.61	90.56
373.835	101.56
374.061	98.56
374.287	83.56
374.513	88.56
374.739	83.56
374.965	87.56
375.191	79.56
375.416	93.56
375.642	84.56
375.868	79.56
376.094	100.56
376.319	90.56
376.545	83.56
376.771	85.56
376.997	74.56
377.222	82.56
377.448	83.56
377.674	81.56
377.899	108.56
378.125	82.56
378.35	82.56
378.576	98.56
378.802	92.56
379.027	85.56
379.253	94.56
379.478	80.56
379.704	87.56
379.929	87.56
380.155	91.56
380.38	92.56
380.606	87.56
380.831	79.56
381.057	93.56
381.282	82.56
381.507	87.56
381.733	95.56
381.958	96.56
382.184	81.56
382.409	99.56
382.634	99.56
382.86	103.56
383.085	114.56
383.31	98.56
383.535	95.56
383.761	92.56
383.986	88.56
384.211	100.56
384.436	92.56
384.662	106.56
384.887	96.56
385.112	97.56
385.337	102.56
385.562	87.56
385.787	92.56
386.013	98.56
386.238	109.56
386.463	99.56
386.688	114.56
386.913	97.56
387.138	82.56
387.363	95.56
387.588	94.56
387.813	100.56
388.038	104.56
388.263	114.56
388.488	85.56
388.713	101.56
388.938	96.56
389.163	102.56
389.387	110.56
389.612	86.56
389.837	76.56
390.062	98.56
390.287	103.56
390.512	86.56
390.736	83.56
390.961	92.56
391.186	84.56
391.411	90.56
391.636	88.56
391.86	84.56
392.085	93.56
392.31	82.56
392.534	87.56
392.759	93.56
392.984	84.56
393.208	101.56
393.433	90.56
393.658	89.56
393.882	83.56
394.107	88.56
394.331	81.56
394.556	86.56
394.78	104.56
395.005	94.56
395.229	79.56
395.454	78.56
395.678	78.56
395.903	93.56
396.127	81.56
396.352	81.56
396.576	88.56
396.801	80.56
397.025	96.56
397.249	84.56
397.474	87.56
397.698	84.56
397.922	87.56
398.147	66.56
398.371	83.56
398.595	79.56
398.82	82.56
399.044	89.56
399.268	83.56
399.492	85.56
399.717	91.56
399.941	90.56
400.165	91.56
400.389	90.56
400.613	85.56
400.837	77.56
401.062	96.56
401.286	102.56
401.51	82.56
401.734	101.56
401.958	90.56
402.182	107.56
402.406	140.56
402.63	100.56
402.854	87.56
403.078	87.56
403.302	88.56
403.526	87.56
403.75	78.56
403.974	107.56
404.198	91.56
404.422	86.56
404.645	84.56
404.869	88.56
405.093	94.56
405.317	109.56
405.541	97.56
405.765	88.56
405.988	111.56
406.212	145.56
406.436	179.56
406.66	132.56
406.883	86.56
407.107	87.56
407.331	92.56
407.555	100.56
407.778	90.56
408.002	82.56
408.226	70.56
408.449	90.56
408.673	82.56
408.896	86.56
409.12	83.56
409.344	83.56
409.567	95.56
409.791	94.56
410.014	90.56
410.238	90.56
410.461	96.56
410.685	91.56
410.908	87.56
411.132	93.56
411.355	98.56
411.578	90.56
411.802	86.56
412.025	90.56
412.249	87.56
412.472	101.56
412.695	89.56
412.919	81.56
413.142	73.56
413.365	79.56
413.589	85.56
413.812	88.56
414.035	100.56
414.258	90.56
414.482	99.56
414.705	80.56
414.928	101.56
415.151	94.56
415.374	92.56
415.597	86.56
415.821	89.56
416.044	94.56
416.267	74.56
416.49	96.56
416.713	86.56
416.936	91.56
417.159	90.56
417.382	71.56
417.605	85.56
417.828	71.56
418.051	87.56
418.274	86.56
418.497	85.56
418.72	67.56
418.943	94.56
419.166	85.56
419.389	98.56
419.611	96.56
419.834	92.56
420.057	96.56
420.28	87.56
420.503	86.56
420.726	89.56
420.948	74.56
421.171	100.56
421.394	80.56
421.617	89.56
421.839	79.56
422.062	89.56
422.285	86.56
422.507	97.56
422.73	88.56
422.953	94.56
423.175	100.56
423.398	75.56
423.621	87.56
423.843	87.56
424.066	87.56
424.288	89.56
424.511	80.56
424.733	82.56
424.956	92.56
425.178	99.56
425.401	106.56
425.623	94.56
425.846	95.56
426.068	94.56
426.291	92.56
426.513	99.56
426.735	95.56
426.958	100.56
427.18	104.56
427.402	109.56
427.625	150.56
427.847	128.56
428.069	126.56
428.292	97.56
428.514	90.56
428.736	86.56
428.958	87.56
429.181	79.56
429.403	78.56
429.625	79.56
429.847	93.56
430.069	96.56
430.292	88.56
430.514	98.56
430.736	75.56
430.958	93.56
431.18	77.56
431.402	84.56
431.624	90.56
431.846	91.56
432.068	84.56
432.29	71.56
432.512	90.56
432.734	90.56
432.956	88.56
433.178	94.56
433.4	96.56
433.622	91.56
433.844	92.56
434.066	88.56
434.287	103.56
434.509	99.56
434.731	91.56
434.953	70.56
435.175	80.56
435.397	96.56
435.618	93.56
435.84	92.56
436.062	101.56
436.284	91.56
436.505	98.56
436.727	87.56
436.949	87.56
437.17	90.56
437.392	84.56
437.614	85.56
437.835	98.56
438.057	94.56
438.278	101.56
438.5	96.56
438.721	106.56
438.943	102.56
439.165	86.56
439.386	83.56
439.608	85.56
439.829	78.56
440.05	114.56
440.272	126.56
440.493	101.56
440.715	75.56
440.936	100.56
441.158	77.56
441.379	80.56
441.6	96.56
441.822	77.56
442.043	74.56
442.264	95.56
442.486	94.56
442.707	92.56
442.928	97.56
443.149	117.56
443.371	122.56
443.592	115.56
443.813	101.56
444.034	96.56
444.255	87.56
444.476	80.56
444.698	88.56
444.919	94.56
445.14	134.56
445.361	120.56
445.582	105.56
445.803	128.56
446.024	124.56
446.245	120.56
446.466	117.56
446.687	89.56
446.908	92.56
447.129	87.56
447.35	78.56
447.571	84.56
447.792	76.56
448.013	92.56
448.234	102.56
448.455	111.56
448.675	97.56
448.896	96.56
449.117	85.56
449.338	91.56
449.559	121.56
449.779	122.56
450	97.56
450.221	91.56
450.442	87.56
450.662	100.56
450.883	105.56
451.104	104.56
451.324	83.56
451.545	89.56
451.766	71.56
451.986	87.56
452.207	74.56
452.428	92.56
452.648	102.56
452.869	109.56
453.089	104.56
453.31	117.56
453.53	87.56
453.751	87.56
453.971	87.56
454.192	86.56
454.412	95.56
454.633	88.56
454.853	79.56
455.073	85.56
455.294	100.56
455.514	91.56
455.734	85.56
455.955	92.56
456.175	90.56
456.395	83.56
456.616	75.56
456.836	81.56
457.056	92.56
457.276	84.56
457.497	79.56
457.717	86.56
457.937	96.56
458.157	91.56
458.377	93.56
458.598	104.56
458.818	125.56
459.038	148.56
459.258	118.56
459.478	93.56
459.698	104.56
459.918	91.56
460.138	90.56
460.358	87.56
460.578	92.56
460.798	68.56
461.018	90.56
461.238	79.56
461.458	76.56
461.678	87.56
461.898	79.56
462.118	102.56
462.338	84.56
462.558	85.56
462.777	78.56
462.997	87.56
463.217	70.56
463.437	97.56
463.657	92.56
463.876	90.56
464.096	84.56
464.316	90.56
464.536	96.56
464.755	101.56
464.975	110.56
465.195	127.56
465.414	138.56
465.634	102.56
465.854	86.56
466.073	76.56
466.293	87.56
466.512	85.56
466.732	80.56
466.951	91.56
467.171	77.56
467.391	98.56
467.61	102.56
467.829	110.56
468.049	142.56
468.268	152.56
468.488	100.56
468.707	83.56
468.927	89.56
469.146	94.56
469.365	90.56
469.585	99.56
469.804	100.56
470.023	88.56
470.243	87.56
470.462	99.56
470.681	98.56
470.901	95.56
471.12	88.56
471.339	89.56
471.558	91.56
471.777	88.56
471.997	124.56
472.216	217.56
472.435	410.56
472.654	151.56
472.873	83.56
473.092	79.56
473.311	92.56
473.53	80.56
473.749	81.56
473.968	88.56
474.187	100.56
474.406	99.56
474.625	87.56
474.844	91.56
475.063	87.56
475.282	78.56
475.501	77.56
475.72	74.56
475.939	76.56
476.158	81.56
476.377	82.56
476.596	99.56
476.814	87.56
477.033	89.56
477.252	99.56
477.471	94.56
477.69	84.56
477.908	87.56
478.127	90.56
478.346	91.56
478.564	91.56
478.783	91.56
479.002	91.56
479.22	85.56
479.439	81.56
479.658	74.56
479.876	91.56
480.095	80.56
480.313	88.56
480.532	89.56
480.751	126.56
480.969	238.56
481.188	646.56
481.406	411.56
481.624	122.56
481.843	94.56
482.061	74.56
482.28	93.56
482.498	89.56
482.717	86.56
482.935	90.56
483.153	96.56
483.372	83.56
483.59	88.56
483.808	89.56
484.027	92.56
484.245	84.56
484.463	99.56
484.681	90.56
484.9	89.56
485.118	98.56
485.336	90.56
485.554	103.56
485.772	104.56
485.99	103.56
486.209	93.56
486.427	88.56
486.645	114.56
486.863	98.56
487.081	83.56
487.299	97.56
487.517	95.56
487.735	101.56
487.953	101.56
488.171	95.56
488.389	99.56
488.607	103.56
488.825	88.56
489.043	68.56
489.261	97.56
489.479	88.56
489.696	100.56
489.914	95.56
490.132	81.56
490.35	86.56
490.568	87.56
490.786	93.56
491.003	75.56
491.221	92.56
491.439	83.56
491.657	105.56
491.874	90.56
492.092	90.56
492.31	88.56
492.527	76.56
492.745	87.56
492.963	81.56
493.18	93.56
493.398	88.56
493.615	99.56
493.833	90.56
494.05	84.56
494.268	79.56
494.485	101.56
494.703	86.56
494.92	89.56
495.138	89.56
495.355	74.56
495.573	92.56
495.79	84.56
496.008	95.56
496.225	86.56
496.442	93.56
496.66	103.56
496.877	93.56
497.094	92.56
497.312	104.56
497.529	91.56
497.746	79.56
497.963	87.56
498.181	95.56
498.398	83.56
498.615	104.56
498.832	85.56
499.049	85.56
499.267	71.56
499.484	79.56
499.701	99.56
499.918	97.56
500.135	96.56
500.352	100.56
500.569	88.56
500.786	76.56
501.003	100.56
501.22	108.56
501.437	96.56
501.654	101.56
501.871	110.56
502.088	91.56
502.305	71.56
502.522	88.56
502.739	95.56
502.956	99.56
503.172	100.56
503.389	89.56
503.606	102.56
503.823	90.56
504.04	72.56
504.256	74.56
504.473	96.56
504.69	93.56
504.907	76.56
505.123	75.56
505.34	89.56
505.557	98.56
505.773	100.56
505.99	85.56
506.207	91.56
506.423	91.56
506.64	98.56
506.856	84.56
507.073	84.56
507.289	88.56
507.506	88.56
507.722	87.56
507.939	94.56
508.155	91.56
508.372	89.56
508.588	91.56
508.805	82.56
509.021	93.56
509.238	93.56
509.454	87.56
509.67	91.56
509.887	103.56
510.103	107.56
510.319	182.56
510.536	619.56
510.752	1852.56
510.968	547.56
511.184	138.56
511.401	115.56
511.617	94.56
511.833	87.56
512.049	96.56
512.265	88.56
512.481	86.56
512.698	84.56
512.914	75.56
513.13	91.56
513.346	92.56
513.562	78.56
513.778	102.56
513.994	87.56
514.21	90.56
514.426	106.56
514.642	126.56
514.858	109.56
515.074	137.56
515.29	355.56
515.506	1099.56
515.721	447.56
515.937	143.56
516.153	100.56
516.369	92.56
516.585	90.56
