Data from Circ_2010_H10_HRD10591_00041.txt Node
Date: Wed Jan 03 10:09:49 EST 2024
User: Yrep
Spectrometer: HR+D1059
Trigger mode: 1
Integration Time (sec): 1.000000E-1
Scans to average: 1
Electric dark correction enabled: true
Nonlinearity correction enabled: false
Boxcar width: 0
XAxis mode: Wavelengths
Number of Pixels in Spectrum: 2048
>>>>>Begin Spectral Data<<<<<
223.165	-19.44
223.4	-19.44
223.635	-19.44
223.869	-20.44
224.104	-12.44
224.338	-10.44
224.573	-13.44
224.808	-8.44
225.042	9.56
225.277	-25.44
225.511	-5.44
225.746	20.56
225.98	13.56
226.215	6.56
226.449	5.56
226.683	14.56
226.918	25.56
227.152	19.56
227.387	45.56
227.621	48.56
227.856	63.56
228.09	46.56
228.324	57.56
228.559	56.56
228.793	58.56
229.027	60.56
229.262	62.56
229.496	85.56
229.73	64.56
229.964	76.56
230.199	80.56
230.433	90.56
230.667	88.56
230.901	85.56
231.136	75.56
231.37	72.56
231.604	58.56
231.838	80.56
232.072	86.56
232.306	75.56
232.541	90.56
232.775	85.56
233.009	79.56
233.243	76.56
233.477	73.56
233.711	72.56
233.945	65.56
234.179	59.56
234.413	81.56
234.647	77.56
234.881	83.56
235.115	76.56
235.349	83.56
235.583	74.56
235.817	88.56
236.051	72.56
236.285	86.56
236.519	81.56
236.753	75.56
236.987	85.56
237.221	90.56
237.455	77.56
237.689	88.56
237.922	78.56
238.156	71.56
238.39	57.56
238.624	71.56
238.858	67.56
239.091	76.56
239.325	80.56
239.559	84.56
239.793	81.56
240.027	71.56
240.26	81.56
240.494	76.56
240.728	75.56
240.961	73.56
241.195	94.56
241.429	76.56
241.662	61.56
241.896	64.56
242.13	75.56
242.363	77.56
242.597	73.56
242.83	85.56
243.064	69.56
243.298	82.56
243.531	75.56
243.765	84.56
243.998	66.56
244.232	82.56
244.465	89.56
244.699	93.56
244.932	81.56
245.166	80.56
245.399	66.56
245.633	96.56
245.866	82.56
246.099	74.56
246.333	88.56
246.566	82.56
246.8	78.56
247.033	78.56
247.266	79.56
247.5	75.56
247.733	74.56
247.966	81.56
248.2	78.56
248.433	78.56
248.666	81.56
248.899	80.56
249.133	77.56
249.366	107.56
249.599	83.56
249.832	83.56
250.066	96.56
250.299	88.56
250.532	91.56
250.765	91.56
250.998	81.56
251.231	80.56
251.465	94.56
251.698	88.56
251.931	76.56
252.164	85.56
252.397	85.56
252.63	75.56
252.863	78.56
253.096	83.56
253.329	78.56
253.562	87.56
253.795	80.56
254.028	83.56
254.261	86.56
254.494	98.56
254.727	77.56
254.96	77.56
255.193	81.56
255.426	80.56
255.659	71.56
255.892	77.56
256.124	86.56
256.357	81.56
256.59	81.56
256.823	80.56
257.056	73.56
257.289	85.56
257.521	90.56
257.754	89.56
257.987	84.56
258.22	83.56
258.452	66.56
258.685	80.56
258.918	82.56
259.151	80.56
259.383	79.56
259.616	85.56
259.849	69.56
260.081	70.56
260.314	82.56
260.547	81.56
260.779	95.56
261.012	86.56
261.244	94.56
261.477	93.56
261.71	86.56
261.942	91.56
262.175	119.56
262.407	92.56
262.64	88.56
262.872	93.56
263.105	79.56
263.337	82.56
263.57	94.56
263.802	83.56
264.035	89.56
264.267	82.56
264.499	88.56
264.732	85.56
264.964	79.56
265.197	85.56
265.429	99.56
265.661	90.56
265.894	75.56
266.126	91.56
266.358	87.56
266.591	72.56
266.823	88.56
267.055	82.56
267.287	83.56
267.52	87.56
267.752	96.56
267.984	87.56
268.216	83.56
268.448	93.56
268.681	90.56
268.913	89.56
269.145	86.56
269.377	96.56
269.609	73.56
269.841	89.56
270.073	81.56
270.306	85.56
270.538	81.56
270.77	89.56
271.002	91.56
271.234	74.56
271.466	91.56
271.698	96.56
271.93	70.56
272.162	89.56
272.394	80.56
272.626	95.56
272.858	90.56
273.09	88.56
273.322	80.56
273.553	78.56
273.785	82.56
274.017	86.56
274.249	92.56
274.481	99.56
274.713	86.56
274.945	79.56
275.176	87.56
275.408	69.56
275.64	80.56
275.872	80.56
276.104	76.56
276.335	95.56
276.567	93.56
276.799	100.56
277.031	106.56
277.262	90.56
277.494	97.56
277.726	86.56
277.957	87.56
278.189	90.56
278.421	85.56
278.652	92.56
278.884	94.56
279.115	89.56
279.347	85.56
279.579	78.56
279.81	90.56
280.042	91.56
280.273	99.56
280.505	89.56
280.736	89.56
280.968	97.56
281.199	87.56
281.431	79.56
281.662	88.56
281.894	93.56
282.125	94.56
282.356	126.56
282.588	126.56
282.819	107.56
283.051	90.56
283.282	103.56
283.513	99.56
283.745	77.56
283.976	88.56
284.207	98.56
284.439	97.56
284.67	85.56
284.901	78.56
285.132	80.56
285.364	83.56
285.595	86.56
285.826	86.56
286.057	79.56
286.288	96.56
286.52	86.56
286.751	87.56
286.982	86.56
287.213	89.56
287.444	89.56
287.675	92.56
287.906	90.56
288.138	102.56
288.369	92.56
288.6	96.56
288.831	87.56
289.062	87.56
289.293	79.56
289.524	82.56
289.755	87.56
289.986	82.56
290.217	81.56
290.448	91.56
290.679	86.56
290.91	83.56
291.141	82.56
291.371	91.56
291.602	93.56
291.833	84.56
292.064	96.56
292.295	83.56
292.526	72.56
292.757	95.56
292.987	87.56
293.218	86.56
293.449	85.56
293.68	100.56
293.91	94.56
294.141	97.56
294.372	81.56
294.603	94.56
294.833	95.56
295.064	92.56
295.295	83.56
295.525	101.56
295.756	97.56
295.987	105.56
296.217	130.56
296.448	113.56
296.679	80.56
296.909	75.56
297.14	74.56
297.37	69.56
297.601	80.56
297.831	87.56
298.062	90.56
298.292	86.56
298.523	82.56
298.753	84.56
298.984	97.56
299.214	94.56
299.445	86.56
299.675	94.56
299.905	85.56
300.136	80.56
300.366	92.56
300.597	102.56
300.827	93.56
301.057	104.56
301.288	87.56
301.518	87.56
301.748	78.56
301.979	105.56
302.209	103.56
302.439	91.56
302.669	97.56
302.9	98.56
303.13	91.56
303.36	83.56
303.59	110.56
303.82	111.56
304.051	91.56
304.281	83.56
304.511	85.56
304.741	79.56
304.971	97.56
305.201	86.56
305.431	86.56
305.661	83.56
305.891	106.56
306.121	85.56
306.352	105.56
306.582	95.56
306.812	77.56
307.042	82.56
307.272	76.56
307.502	89.56
307.731	96.56
307.961	88.56
308.191	88.56
308.421	88.56
308.651	94.56
308.881	73.56
309.111	93.56
309.341	89.56
309.571	103.56
309.8	96.56
310.03	101.56
310.26	94.56
310.49	92.56
310.72	90.56
310.949	111.56
311.179	85.56
311.409	84.56
311.639	95.56
311.868	83.56
312.098	86.56
312.328	92.56
312.557	108.56
312.787	93.56
313.017	98.56
313.246	98.56
313.476	79.56
313.706	93.56
313.935	119.56
314.165	94.56
314.394	101.56
314.624	101.56
314.853	91.56
315.083	79.56
315.312	98.56
315.542	86.56
315.771	85.56
316.001	93.56
316.23	103.56
316.46	89.56
316.689	81.56
316.919	83.56
317.148	88.56
317.377	102.56
317.607	96.56
317.836	81.56
318.065	87.56
318.295	89.56
318.524	88.56
318.753	92.56
318.983	94.56
319.212	92.56
319.441	99.56
319.67	95.56
319.9	107.56
320.129	84.56
320.358	93.56
320.587	96.56
320.816	110.56
321.046	102.56
321.275	93.56
321.504	90.56
321.733	97.56
321.962	107.56
322.191	96.56
322.42	89.56
322.649	99.56
322.878	110.56
323.108	108.56
323.337	120.56
323.566	109.56
323.795	149.56
324.024	205.56
324.253	332.56
324.482	692.56
324.71	1373.56
324.939	1812.56
325.168	699.56
325.397	216.56
325.626	153.56
325.855	135.56
326.084	129.56
326.313	129.56
326.542	135.56
326.77	219.56
326.999	410.56
327.228	786.56
327.457	1417.56
327.686	1094.56
327.914	322.56
328.143	202.56
328.372	168.56
328.6	137.56
328.829	117.56
329.058	125.56
329.287	127.56
329.515	111.56
329.744	109.56
329.972	142.56
330.201	196.56
330.43	201.56
330.658	156.56
330.887	135.56
331.115	110.56
331.344	114.56
331.572	103.56
331.801	99.56
332.03	108.56
332.258	110.56
332.486	87.56
332.715	95.56
332.943	90.56
333.172	98.56
333.4	91.56
333.629	108.56
333.857	127.56
334.085	118.56
334.314	167.56
334.542	255.56
334.771	241.56
334.999	103.56
335.227	113.56
335.455	107.56
335.684	93.56
335.912	101.56
336.14	94.56
336.369	99.56
336.597	103.56
336.825	101.56
337.053	83.56
337.281	80.56
337.51	86.56
337.738	93.56
337.966	93.56
338.194	107.56
338.422	79.56
338.65	85.56
338.878	93.56
339.106	91.56
339.334	77.56
339.562	86.56
339.79	83.56
340.018	90.56
340.246	95.56
340.474	90.56
340.702	94.56
340.93	91.56
341.158	99.56
341.386	93.56
341.614	94.56
341.842	108.56
342.07	96.56
342.298	89.56
342.526	104.56
342.754	94.56
342.981	88.56
343.209	82.56
343.437	96.56
343.665	104.56
343.893	91.56
344.12	87.56
344.348	91.56
344.576	91.56
344.804	96.56
345.031	96.56
345.259	103.56
345.487	97.56
345.714	107.56
345.942	88.56
346.17	101.56
346.397	90.56
346.625	86.56
346.853	87.56
347.08	101.56
347.308	85.56
347.535	90.56
347.763	99.56
347.99	102.56
348.218	107.56
348.445	114.56
348.673	94.56
348.9	80.56
349.128	99.56
349.355	95.56
349.583	92.56
349.81	94.56
350.037	105.56
350.265	105.56
350.492	109.56
350.72	89.56
350.947	89.56
351.174	104.56
351.402	105.56
351.629	99.56
351.856	96.56
352.083	105.56
352.311	87.56
352.538	104.56
352.765	108.56
352.992	97.56
353.22	101.56
353.447	102.56
353.674	95.56
353.901	90.56
354.128	94.56
354.355	90.56
354.583	96.56
354.81	89.56
355.037	87.56
355.264	100.56
355.491	81.56
355.718	95.56
355.945	104.56
356.172	94.56
356.399	89.56
356.626	93.56
356.853	92.56
357.08	65.56
357.307	86.56
357.534	102.56
357.761	97.56
357.988	104.56
358.215	88.56
358.441	89.56
358.668	83.56
358.895	87.56
359.122	92.56
359.349	84.56
359.576	96.56
359.802	96.56
360.029	103.56
360.256	95.56
360.483	100.56
360.709	94.56
360.936	96.56
361.163	90.56
361.39	98.56
361.616	95.56
361.843	95.56
362.07	98.56
362.296	93.56
362.523	111.56
362.749	93.56
362.976	91.56
363.203	99.56
363.429	97.56
363.656	94.56
363.882	93.56
364.109	83.56
364.335	82.56
364.562	87.56
364.788	96.56
365.015	98.56
365.241	97.56
365.468	115.56
365.694	93.56
365.92	86.56
366.147	94.56
366.373	87.56
366.599	86.56
366.826	89.56
367.052	84.56
367.278	97.56
367.505	97.56
367.731	98.56
367.957	91.56
368.184	83.56
368.41	107.56
368.636	124.56
368.862	117.56
369.089	111.56
369.315	97.56
369.541	85.56
369.767	94.56
369.993	86.56
370.219	101.56
370.445	89.56
370.672	93.56
370.898	102.56
371.124	82.56
371.35	77.56
371.576	73.56
371.802	79.56
372.028	90.56
372.254	89.56
372.48	78.56
372.706	82.56
372.932	77.56
373.158	86.56
373.384	88.56
373.61	81.56
373.835	93.56
374.061	89.56
374.287	82.56
374.513	101.56
374.739	82.56
374.965	96.56
375.191	94.56
375.416	78.56
375.642	83.56
375.868	65.56
376.094	88.56
376.319	82.56
376.545	93.56
376.771	84.56
376.997	91.56
377.222	98.56
377.448	94.56
377.674	82.56
377.899	94.56
378.125	91.56
378.35	82.56
378.576	94.56
378.802	91.56
379.027	86.56
379.253	92.56
379.478	87.56
379.704	89.56
379.929	93.56
380.155	91.56
380.38	94.56
380.606	70.56
380.831	87.56
381.057	102.56
381.282	105.56
381.507	103.56
381.733	88.56
381.958	91.56
382.184	107.56
382.409	111.56
382.634	106.56
382.86	115.56
383.085	89.56
383.31	96.56
383.535	107.56
383.761	98.56
383.986	95.56
384.211	102.56
384.436	100.56
384.662	85.56
384.887	104.56
385.112	102.56
385.337	102.56
385.562	91.56
385.787	108.56
386.013	104.56
386.238	110.56
386.463	93.56
386.688	107.56
386.913	105.56
387.138	110.56
387.363	103.56
387.588	97.56
387.813	102.56
388.038	99.56
388.263	107.56
388.488	103.56
388.713	98.56
388.938	87.56
389.163	85.56
389.387	94.56
389.612	86.56
389.837	96.56
390.062	84.56
390.287	102.56
390.512	82.56
390.736	80.56
390.961	86.56
391.186	102.56
391.411	89.56
391.636	87.56
391.86	95.56
392.085	94.56
392.31	87.56
392.534	92.56
392.759	93.56
392.984	94.56
393.208	101.56
393.433	94.56
393.658	88.56
393.882	85.56
394.107	92.56
394.331	93.56
394.556	91.56
394.78	91.56
395.005	81.56
395.229	103.56
395.454	87.56
395.678	85.56
395.903	80.56
396.127	88.56
396.352	84.56
396.576	95.56
396.801	93.56
397.025	81.56
397.249	86.56
397.474	95.56
397.698	86.56
397.922	73.56
398.147	89.56
398.371	74.56
398.595	84.56
398.82	83.56
399.044	101.56
399.268	75.56
399.492	76.56
399.717	79.56
399.941	94.56
400.165	77.56
400.389	109.56
400.613	80.56
400.837	89.56
401.062	91.56
401.286	91.56
401.51	90.56
401.734	92.56
401.958	107.56
402.182	128.56
402.406	147.56
402.63	101.56
402.854	100.56
403.078	87.56
403.302	92.56
403.526	77.56
403.75	93.56
403.974	91.56
404.198	89.56
404.422	81.56
404.645	76.56
404.869	91.56
405.093	99.56
405.317	102.56
405.541	91.56
405.765	96.56
405.988	111.56
406.212	161.56
406.436	195.56
406.66	141.56
406.883	100.56
407.107	87.56
407.331	85.56
407.555	96.56
407.778	105.56
408.002	96.56
408.226	80.56
408.449	94.56
408.673	91.56
408.896	85.56
409.12	94.56
409.344	98.56
409.567	78.56
409.791	98.56
410.014	104.56
410.238	94.56
410.461	79.56
410.685	94.56
410.908	82.56
411.132	99.56
411.355	96.56
411.578	85.56
411.802	101.56
412.025	89.56
412.249	95.56
412.472	88.56
412.695	94.56
412.919	106.56
413.142	92.56
413.365	95.56
413.589	85.56
413.812	88.56
414.035	88.56
414.258	83.56
414.482	93.56
414.705	79.56
414.928	100.56
415.151	92.56
415.374	86.56
415.597	89.56
415.821	79.56
416.044	96.56
416.267	89.56
416.49	92.56
416.713	91.56
416.936	92.56
417.159	83.56
417.382	89.56
417.605	83.56
417.828	79.56
418.051	85.56
418.274	95.56
418.497	79.56
418.72	85.56
418.943	97.56
419.166	104.56
419.389	86.56
419.611	105.56
419.834	101.56
420.057	101.56
420.28	75.56
420.503	81.56
420.726	96.56
420.948	93.56
421.171	99.56
421.394	87.56
421.617	99.56
421.839	86.56
422.062	78.56
422.285	91.56
422.507	93.56
422.73	99.56
422.953	95.56
423.175	70.56
423.398	92.56
423.621	82.56
423.843	78.56
424.066	77.56
424.288	94.56
424.511	83.56
424.733	96.56
424.956	101.56
425.178	92.56
425.401	88.56
425.623	95.56
425.846	83.56
426.068	77.56
426.291	75.56
426.513	97.56
426.735	98.56
426.958	100.56
427.18	106.56
427.402	117.56
427.625	142.56
427.847	137.56
428.069	115.56
428.292	91.56
428.514	94.56
428.736	84.56
428.958	85.56
429.181	89.56
429.403	90.56
429.625	93.56
429.847	91.56
430.069	91.56
430.292	86.56
430.514	88.56
430.736	97.56
430.958	88.56
431.18	89.56
431.402	86.56
431.624	97.56
431.846	84.56
432.068	89.56
432.29	94.56
432.512	91.56
432.734	86.56
432.956	93.56
433.178	100.56
433.4	85.56
433.622	101.56
433.844	86.56
434.066	90.56
434.287	92.56
434.509	87.56
434.731	80.56
434.953	97.56
435.175	92.56
435.397	94.56
435.618	80.56
435.84	84.56
436.062	97.56
436.284	105.56
436.505	95.56
436.727	103.56
436.949	80.56
437.17	95.56
437.392	78.56
437.614	90.56
437.835	104.56
438.057	110.56
438.278	123.56
438.5	102.56
438.721	107.56
438.943	98.56
439.165	89.56
439.386	91.56
439.608	97.56
439.829	99.56
440.05	123.56
440.272	127.56
440.493	103.56
440.715	93.56
440.936	89.56
441.158	90.56
441.379	82.56
441.6	82.56
441.822	101.56
442.043	106.56
442.264	97.56
442.486	105.56
442.707	87.56
442.928	95.56
443.149	113.56
443.371	122.56
443.592	100.56
443.813	87.56
444.034	78.56
444.255	90.56
444.476	88.56
444.698	102.56
444.919	96.56
445.14	101.56
445.361	106.56
445.582	96.56
445.803	128.56
446.024	128.56
446.245	126.56
446.466	103.56
446.687	80.56
446.908	87.56
447.129	89.56
447.35	94.56
447.571	91.56
447.792	101.56
448.013	94.56
448.234	115.56
448.455	95.56
448.675	107.56
448.896	105.56
449.117	101.56
449.338	109.56
449.559	95.56
449.779	126.56
450	89.56
450.221	105.56
450.442	90.56
450.662	86.56
450.883	107.56
451.104	99.56
451.324	93.56
451.545	91.56
451.766	96.56
451.986	82.56
452.207	90.56
452.428	86.56
452.648	108.56
452.869	93.56
453.089	106.56
453.31	117.56
453.53	78.56
453.751	87.56
453.971	106.56
454.192	96.56
454.412	95.56
454.633	91.56
454.853	82.56
455.073	82.56
455.294	87.56
455.514	82.56
455.734	75.56
455.955	95.56
456.175	82.56
456.395	75.56
456.616	89.56
456.836	102.56
457.056	88.56
457.276	86.56
457.497	67.56
457.717	93.56
457.937	83.56
458.157	95.56
458.377	88.56
458.598	104.56
458.818	138.56
459.038	134.56
459.258	98.56
459.478	93.56
459.698	99.56
459.918	94.56
460.138	68.56
460.358	88.56
460.578	84.56
460.798	90.56
461.018	93.56
461.238	73.56
461.458	98.56
461.678	91.56
461.898	80.56
462.118	85.56
462.338	85.56
462.558	80.56
462.777	83.56
462.997	85.56
463.217	81.56
463.437	93.56
463.657	89.56
463.876	87.56
464.096	92.56
464.316	82.56
464.536	101.56
464.755	86.56
464.975	92.56
465.195	151.56
465.414	135.56
465.634	85.56
465.854	83.56
466.073	86.56
466.293	90.56
466.512	82.56
466.732	89.56
466.951	97.56
467.171	85.56
467.391	98.56
467.61	104.56
467.829	106.56
468.049	122.56
468.268	151.56
468.488	102.56
468.707	89.56
468.927	90.56
469.146	101.56
469.365	88.56
469.585	87.56
469.804	91.56
470.023	94.56
470.243	92.56
470.462	106.56
470.681	102.56
470.901	86.56
471.12	84.56
471.339	101.56
471.558	95.56
471.777	97.56
471.997	107.56
472.216	202.56
472.435	319.56
472.654	135.56
472.873	82.56
473.092	88.56
473.311	86.56
473.53	74.56
473.749	100.56
473.968	95.56
474.187	100.56
474.406	95.56
474.625	74.56
474.844	90.56
475.063	83.56
475.282	88.56
475.501	87.56
475.72	87.56
475.939	89.56
476.158	83.56
476.377	90.56
476.596	95.56
476.814	95.56
477.033	85.56
477.252	82.56
477.471	90.56
477.69	87.56
477.908	95.56
478.127	96.56
478.346	105.56
478.564	94.56
478.783	81.56
479.002	87.56
479.22	100.56
479.439	98.56
479.658	95.56
479.876	93.56
480.095	98.56
480.313	102.56
480.532	108.56
480.751	115.56
480.969	191.56
481.188	535.56
481.406	323.56
481.624	108.56
481.843	99.56
482.061	97.56
482.28	93.56
482.498	94.56
482.717	97.56
482.935	93.56
483.153	80.56
483.372	88.56
483.59	93.56
483.808	87.56
484.027	90.56
484.245	90.56
484.463	101.56
484.681	92.56
484.9	97.56
485.118	95.56
485.336	109.56
485.554	99.56
485.772	103.56
485.99	107.56
486.209	107.56
486.427	96.56
486.645	101.56
486.863	117.56
487.081	90.56
487.299	93.56
487.517	106.56
487.735	96.56
487.953	83.56
488.171	88.56
488.389	107.56
488.607	97.56
488.825	102.56
489.043	85.56
489.261	92.56
489.479	99.56
489.696	94.56
489.914	95.56
490.132	98.56
490.35	99.56
490.568	91.56
490.786	98.56
491.003	76.56
491.221	94.56
491.439	104.56
491.657	84.56
491.874	106.56
492.092	86.56
492.31	88.56
492.527	95.56
492.745	99.56
492.963	98.56
493.18	74.56
493.398	88.56
493.615	94.56
493.833	81.56
494.05	99.56
494.268	97.56
494.485	92.56
494.703	81.56
494.92	91.56
495.138	82.56
495.355	99.56
495.573	103.56
495.79	90.56
496.008	79.56
496.225	89.56
496.442	100.56
496.66	102.56
496.877	105.56
497.094	89.56
497.312	92.56
497.529	83.56
497.746	98.56
497.963	85.56
498.181	82.56
498.398	103.56
498.615	112.56
498.832	102.56
499.049	93.56
499.267	94.56
499.484	75.56
499.701	90.56
499.918	89.56
500.135	90.56
500.352	87.56
500.569	89.56
500.786	104.56
501.003	108.56
501.22	91.56
501.437	99.56
501.654	90.56
501.871	107.56
502.088	90.56
502.305	100.56
502.522	94.56
502.739	102.56
502.956	91.56
503.172	95.56
503.389	96.56
503.606	93.56
503.823	99.56
504.04	90.56
504.256	91.56
504.473	94.56
504.69	109.56
504.907	96.56
505.123	95.56
505.34	90.56
505.557	106.56
505.773	88.56
505.99	89.56
506.207	94.56
506.423	81.56
506.64	95.56
506.856	95.56
507.073	79.56
507.289	87.56
507.506	101.56
507.722	102.56
507.939	118.56
508.155	87.56
508.372	87.56
508.588	90.56
508.805	105.56
509.021	102.56
509.238	110.56
509.454	96.56
509.67	97.56
509.887	109.56
510.103	144.56
510.319	189.56
510.536	631.56
510.752	1987.56
510.968	557.56
511.184	137.56
511.401	106.56
511.617	106.56
511.833	104.56
512.049	89.56
512.265	86.56
512.481	91.56
512.698	86.56
512.914	83.56
513.13	94.56
513.346	93.56
513.562	80.56
513.778	97.56
513.994	114.56
514.21	124.56
514.426	112.56
514.642	119.56
514.858	122.56
515.074	159.56
515.29	375.56
515.506	1250.56
515.721	471.56
