Data from Circ_2010_H10_HRD10591_00034.txt Node
Date: Wed Jan 03 10:09:48 EST 2024
User: Yrep
Spectrometer: HR+D1059
Trigger mode: 1
Integration Time (sec): 1.000000E-1
Scans to average: 1
Electric dark correction enabled: true
Nonlinearity correction enabled: false
Boxcar width: 0
XAxis mode: Wavelengths
Number of Pixels in Spectrum: 2048
>>>>>Begin Spectral Data<<<<<
223.165	-23.25
223.4	-23.25
223.635	-23.25
223.869	-17.25
224.104	-4.25
224.338	-21.25
224.573	-13.25
224.808	-2.25
225.042	-17.25
225.277	-9.25
225.511	-9.25
225.746	5.75
225.98	6.75
226.215	7.75
226.449	19.75
226.683	25.75
226.918	23.75
227.152	27.75
227.387	35.75
227.621	27.75
227.856	38.75
228.09	56.75
228.324	47.75
228.559	57.75
228.793	51.75
229.027	53.75
229.262	69.75
229.496	51.75
229.73	85.75
229.964	86.75
230.199	74.75
230.433	73.75
230.667	75.75
230.901	87.75
231.136	82.75
231.37	74.75
231.604	72.75
231.838	80.75
232.072	77.75
232.306	79.75
232.541	85.75
232.775	86.75
233.009	71.75
233.243	97.75
233.477	71.75
233.711	78.75
233.945	74.75
234.179	73.75
234.413	71.75
234.647	91.75
234.881	79.75
235.115	68.75
235.349	72.75
235.583	63.75
235.817	64.75
236.051	80.75
236.285	65.75
236.519	69.75
236.753	78.75
236.987	82.75
237.221	76.75
237.455	89.75
237.689	84.75
237.922	74.75
238.156	89.75
238.39	70.75
238.624	77.75
238.858	65.75
239.091	73.75
239.325	78.75
239.559	58.75
239.793	82.75
240.027	64.75
240.26	90.75
240.494	70.75
240.728	80.75
240.961	59.75
241.195	76.75
241.429	62.75
241.662	69.75
241.896	76.75
242.13	86.75
242.363	78.75
242.597	69.75
242.83	77.75
243.064	68.75
243.298	72.75
243.531	75.75
243.765	71.75
243.998	79.75
244.232	89.75
244.465	69.75
244.699	73.75
244.932	76.75
245.166	80.75
245.399	79.75
245.633	78.75
245.866	79.75
246.099	72.75
246.333	80.75
246.566	79.75
246.8	79.75
247.033	87.75
247.266	82.75
247.5	81.75
247.733	87.75
247.966	74.75
248.2	75.75
248.433	76.75
248.666	82.75
248.899	82.75
249.133	97.75
249.366	90.75
249.599	88.75
249.832	85.75
250.066	83.75
250.299	72.75
250.532	79.75
250.765	79.75
250.998	78.75
251.231	67.75
251.465	79.75
251.698	72.75
251.931	79.75
252.164	83.75
252.397	86.75
252.63	86.75
252.863	80.75
253.096	67.75
253.329	85.75
253.562	73.75
253.795	80.75
254.028	70.75
254.261	83.75
254.494	74.75
254.727	76.75
254.96	87.75
255.193	76.75
255.426	84.75
255.659	74.75
255.892	75.75
256.124	62.75
256.357	75.75
256.59	75.75
256.823	86.75
257.056	88.75
257.289	80.75
257.521	88.75
257.754	71.75
257.987	76.75
258.22	78.75
258.452	79.75
258.685	78.75
258.918	79.75
259.151	92.75
259.383	81.75
259.616	89.75
259.849	83.75
260.081	74.75
260.314	85.75
260.547	76.75
260.779	90.75
261.012	73.75
261.244	79.75
261.477	82.75
261.71	87.75
261.942	107.75
262.175	101.75
262.407	94.75
262.64	78.75
262.872	85.75
263.105	75.75
263.337	82.75
263.57	75.75
263.802	100.75
264.035	72.75
264.267	75.75
264.499	74.75
264.732	87.75
264.964	85.75
265.197	80.75
265.429	91.75
265.661	74.75
265.894	81.75
266.126	82.75
266.358	84.75
266.591	92.75
266.823	100.75
267.055	90.75
267.287	92.75
267.52	80.75
267.752	79.75
267.984	84.75
268.216	74.75
268.448	74.75
268.681	84.75
268.913	96.75
269.145	90.75
269.377	84.75
269.609	71.75
269.841	70.75
270.073	86.75
270.306	76.75
270.538	72.75
270.77	78.75
271.002	95.75
271.234	77.75
271.466	75.75
271.698	91.75
271.93	88.75
272.162	95.75
272.394	77.75
272.626	77.75
272.858	75.75
273.09	82.75
273.322	90.75
273.553	88.75
273.785	85.75
274.017	91.75
274.249	80.75
274.481	81.75
274.713	92.75
274.945	97.75
275.176	106.75
275.408	89.75
275.64	92.75
275.872	73.75
276.104	80.75
276.335	83.75
276.567	93.75
276.799	101.75
277.031	79.75
277.262	101.75
277.494	88.75
277.726	85.75
277.957	91.75
278.189	92.75
278.421	91.75
278.652	83.75
278.884	90.75
279.115	82.75
279.347	88.75
279.579	71.75
279.81	91.75
280.042	90.75
280.273	84.75
280.505	89.75
280.736	91.75
280.968	101.75
281.199	81.75
281.431	72.75
281.662	84.75
281.894	87.75
282.125	79.75
282.356	108.75
282.588	127.75
282.819	96.75
283.051	74.75
283.282	91.75
283.513	81.75
283.745	83.75
283.976	89.75
284.207	95.75
284.439	83.75
284.67	102.75
284.901	84.75
285.132	91.75
285.364	107.75
285.595	94.75
285.826	94.75
286.057	72.75
286.288	103.75
286.52	80.75
286.751	74.75
286.982	90.75
287.213	91.75
287.444	77.75
287.675	100.75
287.906	93.75
288.138	95.75
288.369	101.75
288.6	107.75
288.831	79.75
289.062	95.75
289.293	85.75
289.524	95.75
289.755	96.75
289.986	74.75
290.217	80.75
290.448	89.75
290.679	89.75
290.91	78.75
291.141	90.75
291.371	84.75
291.602	89.75
291.833	85.75
292.064	80.75
292.295	83.75
292.526	84.75
292.757	76.75
292.987	86.75
293.218	84.75
293.449	80.75
293.68	87.75
293.91	78.75
294.141	91.75
294.372	78.75
294.603	89.75
294.833	90.75
295.064	80.75
295.295	84.75
295.525	98.75
295.756	96.75
295.987	110.75
296.217	123.75
296.448	117.75
296.679	85.75
296.909	92.75
297.14	87.75
297.37	82.75
297.601	85.75
297.831	98.75
298.062	74.75
298.292	81.75
298.523	74.75
298.753	84.75
298.984	89.75
299.214	96.75
299.445	102.75
299.675	91.75
299.905	90.75
300.136	84.75
300.366	91.75
300.597	98.75
300.827	84.75
301.057	84.75
301.288	92.75
301.518	90.75
301.748	95.75
301.979	88.75
302.209	76.75
302.439	86.75
302.669	104.75
302.9	81.75
303.13	101.75
303.36	94.75
303.59	82.75
303.82	101.75
304.051	102.75
304.281	88.75
304.511	91.75
304.741	101.75
304.971	70.75
305.201	100.75
305.431	95.75
305.661	78.75
305.891	84.75
306.121	94.75
306.352	92.75
306.582	98.75
306.812	97.75
307.042	91.75
307.272	98.75
307.502	92.75
307.731	98.75
307.961	73.75
308.191	90.75
308.421	86.75
308.651	89.75
308.881	86.75
309.111	91.75
309.341	93.75
309.571	87.75
309.8	93.75
310.03	89.75
310.26	80.75
310.49	90.75
310.72	94.75
310.949	102.75
311.179	86.75
311.409	92.75
311.639	92.75
311.868	96.75
312.098	91.75
312.328	88.75
312.557	101.75
312.787	100.75
313.017	75.75
313.246	82.75
313.476	85.75
313.706	77.75
313.935	91.75
314.165	98.75
314.394	108.75
314.624	99.75
314.853	98.75
315.083	92.75
315.312	84.75
315.542	72.75
315.771	98.75
316.001	85.75
316.23	104.75
316.46	89.75
316.689	92.75
316.919	91.75
317.148	84.75
317.377	90.75
317.607	76.75
317.836	85.75
318.065	103.75
318.295	81.75
318.524	71.75
318.753	89.75
318.983	91.75
319.212	82.75
319.441	105.75
319.67	102.75
319.9	104.75
320.129	79.75
320.358	90.75
320.587	93.75
320.816	87.75
321.046	83.75
321.275	89.75
321.504	84.75
321.733	85.75
321.962	79.75
322.191	98.75
322.42	113.75
322.649	95.75
322.878	107.75
323.108	97.75
323.337	112.75
323.566	123.75
323.795	138.75
324.024	186.75
324.253	355.75
324.482	718.75
324.71	1367.75
324.939	1740.75
325.168	656.75
325.397	200.75
325.626	144.75
325.855	114.75
326.084	120.75
326.313	111.75
326.542	138.75
326.77	203.75
326.999	390.75
327.228	786.75
327.457	1374.75
327.686	1102.75
327.914	320.75
328.143	182.75
328.372	155.75
328.6	110.75
328.829	105.75
329.058	118.75
329.287	121.75
329.515	102.75
329.744	102.75
329.972	135.75
330.201	150.75
330.43	185.75
330.658	134.75
330.887	116.75
331.115	109.75
331.344	96.75
331.572	102.75
331.801	97.75
332.03	103.75
332.258	83.75
332.486	89.75
332.715	89.75
332.943	93.75
333.172	96.75
333.4	95.75
333.629	107.75
333.857	113.75
334.085	138.75
334.314	161.75
334.542	211.75
334.771	201.75
334.999	113.75
335.227	99.75
335.455	93.75
335.684	75.75
335.912	83.75
336.14	95.75
336.369	99.75
336.597	84.75
336.825	90.75
337.053	87.75
337.281	79.75
337.51	79.75
337.738	99.75
337.966	82.75
338.194	71.75
338.422	80.75
338.65	91.75
338.878	84.75
339.106	99.75
339.334	95.75
339.562	96.75
339.79	87.75
340.018	89.75
340.246	90.75
340.474	83.75
340.702	80.75
340.93	82.75
341.158	102.75
341.386	92.75
341.614	98.75
341.842	87.75
342.07	91.75
342.298	86.75
342.526	99.75
342.754	84.75
342.981	74.75
343.209	84.75
343.437	83.75
343.665	97.75
343.893	105.75
344.12	96.75
344.348	88.75
344.576	94.75
344.804	85.75
345.031	89.75
345.259	93.75
345.487	98.75
345.714	81.75
345.942	90.75
346.17	84.75
346.397	91.75
346.625	97.75
346.853	79.75
347.08	86.75
347.308	91.75
347.535	92.75
347.763	103.75
347.99	88.75
348.218	86.75
348.445	98.75
348.673	85.75
348.9	87.75
349.128	73.75
349.355	83.75
349.583	124.75
349.81	83.75
350.037	107.75
350.265	98.75
350.492	96.75
350.72	95.75
350.947	99.75
351.174	96.75
351.402	92.75
351.629	103.75
351.856	92.75
352.083	88.75
352.311	99.75
352.538	95.75
352.765	105.75
352.992	116.75
353.22	100.75
353.447	104.75
353.674	96.75
353.901	87.75
354.128	102.75
354.355	89.75
354.583	82.75
354.81	85.75
355.037	88.75
355.264	95.75
355.491	91.75
355.718	100.75
355.945	85.75
356.172	91.75
356.399	103.75
356.626	92.75
356.853	88.75
357.08	83.75
357.307	91.75
357.534	81.75
357.761	91.75
357.988	93.75
358.215	90.75
358.441	95.75
358.668	99.75
358.895	93.75
359.122	89.75
359.349	94.75
359.576	91.75
359.802	99.75
360.029	104.75
360.256	104.75
360.483	93.75
360.709	81.75
360.936	89.75
361.163	91.75
361.39	106.75
361.616	93.75
361.843	73.75
362.07	77.75
362.296	87.75
362.523	96.75
362.749	89.75
362.976	79.75
363.203	96.75
363.429	87.75
363.656	90.75
363.882	82.75
364.109	94.75
364.335	86.75
364.562	103.75
364.788	88.75
365.015	87.75
365.241	103.75
365.468	93.75
365.694	94.75
365.92	98.75
366.147	94.75
366.373	87.75
366.599	94.75
366.826	95.75
367.052	84.75
367.278	88.75
367.505	93.75
367.731	87.75
367.957	83.75
368.184	92.75
368.41	83.75
368.636	86.75
368.862	110.75
369.089	92.75
369.315	101.75
369.541	92.75
369.767	96.75
369.993	89.75
370.219	87.75
370.445	71.75
370.672	83.75
370.898	76.75
371.124	78.75
371.35	75.75
371.576	92.75
371.802	104.75
372.028	91.75
372.254	90.75
372.48	89.75
372.706	86.75
372.932	83.75
373.158	78.75
373.384	86.75
373.61	76.75
373.835	92.75
374.061	88.75
374.287	72.75
374.513	76.75
374.739	82.75
374.965	100.75
375.191	87.75
375.416	92.75
375.642	109.75
375.868	86.75
376.094	82.75
376.319	76.75
376.545	73.75
376.771	100.75
376.997	90.75
377.222	93.75
377.448	93.75
377.674	109.75
377.899	87.75
378.125	92.75
378.35	87.75
378.576	92.75
378.802	93.75
379.027	88.75
379.253	89.75
379.478	92.75
379.704	79.75
379.929	90.75
380.155	98.75
380.38	96.75
380.606	90.75
380.831	99.75
381.057	97.75
381.282	97.75
381.507	93.75
381.733	82.75
381.958	86.75
382.184	104.75
382.409	87.75
382.634	99.75
382.86	116.75
383.085	95.75
383.31	95.75
383.535	95.75
383.761	102.75
383.986	87.75
384.211	102.75
384.436	94.75
384.662	110.75
384.887	106.75
385.112	112.75
385.337	90.75
385.562	107.75
385.787	97.75
386.013	108.75
386.238	122.75
386.463	104.75
386.688	110.75
386.913	104.75
387.138	117.75
387.363	94.75
387.588	97.75
387.813	103.75
388.038	107.75
388.263	103.75
388.488	122.75
388.713	78.75
388.938	91.75
389.163	86.75
389.387	88.75
389.612	93.75
389.837	101.75
390.062	92.75
390.287	82.75
390.512	93.75
390.736	74.75
390.961	76.75
391.186	91.75
391.411	80.75
391.636	71.75
391.86	80.75
392.085	77.75
392.31	64.75
392.534	89.75
392.759	98.75
392.984	90.75
393.208	83.75
393.433	94.75
393.658	86.75
393.882	79.75
394.107	79.75
394.331	77.75
394.556	78.75
394.78	85.75
395.005	84.75
395.229	95.75
395.454	87.75
395.678	100.75
395.903	80.75
396.127	70.75
396.352	73.75
396.576	91.75
396.801	80.75
397.025	104.75
397.249	85.75
397.474	77.75
397.698	92.75
397.922	73.75
398.147	76.75
398.371	83.75
398.595	93.75
398.82	76.75
399.044	74.75
399.268	83.75
399.492	100.75
399.717	88.75
399.941	87.75
400.165	83.75
400.389	78.75
400.613	82.75
400.837	99.75
401.062	87.75
401.286	88.75
401.51	80.75
401.734	72.75
401.958	98.75
402.182	131.75
402.406	150.75
402.63	96.75
402.854	95.75
403.078	88.75
403.302	72.75
403.526	87.75
403.75	86.75
403.974	78.75
404.198	90.75
404.422	87.75
404.645	87.75
404.869	90.75
405.093	104.75
405.317	97.75
405.541	104.75
405.765	91.75
405.988	106.75
406.212	136.75
406.436	184.75
406.66	130.75
406.883	90.75
407.107	87.75
407.331	106.75
407.555	98.75
407.778	99.75
408.002	89.75
408.226	75.75
408.449	80.75
408.673	86.75
408.896	86.75
409.12	79.75
409.344	77.75
409.567	63.75
409.791	98.75
410.014	100.75
410.238	92.75
410.461	91.75
410.685	96.75
410.908	89.75
411.132	113.75
411.355	97.75
411.578	95.75
411.802	92.75
412.025	93.75
412.249	95.75
412.472	101.75
412.695	92.75
412.919	89.75
413.142	72.75
413.365	76.75
413.589	88.75
413.812	101.75
414.035	79.75
414.258	88.75
414.482	87.75
414.705	82.75
414.928	82.75
415.151	93.75
415.374	79.75
415.597	91.75
415.821	96.75
416.044	88.75
416.267	91.75
416.49	90.75
416.713	92.75
416.936	75.75
417.159	76.75
417.382	86.75
417.605	100.75
417.828	101.75
418.051	82.75
418.274	88.75
418.497	88.75
418.72	79.75
418.943	92.75
419.166	75.75
419.389	85.75
419.611	87.75
419.834	88.75
420.057	80.75
420.28	88.75
420.503	75.75
420.726	89.75
420.948	96.75
421.171	74.75
421.394	94.75
421.617	96.75
421.839	92.75
422.062	91.75
422.285	88.75
422.507	100.75
422.73	105.75
422.953	81.75
423.175	88.75
423.398	86.75
423.621	80.75
423.843	94.75
424.066	81.75
424.288	80.75
424.511	93.75
424.733	84.75
424.956	101.75
425.178	92.75
425.401	92.75
425.623	102.75
425.846	89.75
426.068	93.75
426.291	92.75
426.513	77.75
426.735	92.75
426.958	94.75
427.18	94.75
427.402	124.75
427.625	150.75
427.847	138.75
428.069	107.75
428.292	91.75
428.514	85.75
428.736	81.75
428.958	88.75
429.181	88.75
429.403	83.75
429.625	97.75
429.847	81.75
430.069	94.75
430.292	94.75
430.514	74.75
430.736	81.75
430.958	87.75
431.18	95.75
431.402	99.75
431.624	99.75
431.846	82.75
432.068	84.75
432.29	87.75
432.512	91.75
432.734	83.75
432.956	85.75
433.178	88.75
433.4	94.75
433.622	92.75
433.844	94.75
434.066	77.75
434.287	84.75
434.509	93.75
434.731	84.75
434.953	90.75
435.175	82.75
435.397	75.75
435.618	95.75
435.84	87.75
436.062	110.75
436.284	103.75
436.505	90.75
436.727	93.75
436.949	95.75
437.17	82.75
437.392	92.75
437.614	89.75
437.835	85.75
438.057	109.75
438.278	97.75
438.5	115.75
438.721	107.75
438.943	86.75
439.165	89.75
439.386	87.75
439.608	75.75
439.829	106.75
440.05	115.75
440.272	116.75
440.493	90.75
440.715	80.75
440.936	98.75
441.158	83.75
441.379	68.75
441.6	91.75
441.822	95.75
442.043	93.75
442.264	99.75
442.486	91.75
442.707	92.75
442.928	99.75
443.149	111.75
443.371	116.75
443.592	112.75
443.813	102.75
444.034	101.75
444.255	86.75
444.476	79.75
444.698	74.75
444.919	84.75
445.14	141.75
445.361	108.75
445.582	118.75
445.803	116.75
446.024	132.75
446.245	107.75
446.466	101.75
446.687	74.75
446.908	85.75
447.129	87.75
447.35	80.75
447.571	74.75
447.792	101.75
448.013	95.75
448.234	87.75
448.455	105.75
448.675	105.75
448.896	105.75
449.117	105.75
449.338	88.75
449.559	133.75
449.779	130.75
450	90.75
450.221	77.75
450.442	84.75
450.662	93.75
450.883	94.75
451.104	105.75
451.324	79.75
451.545	80.75
451.766	80.75
451.986	84.75
452.207	86.75
452.428	92.75
452.648	84.75
452.869	95.75
453.089	117.75
453.31	93.75
453.53	89.75
453.751	84.75
453.971	93.75
454.192	89.75
454.412	103.75
454.633	80.75
454.853	75.75
455.073	78.75
455.294	76.75
455.514	80.75
455.734	94.75
455.955	89.75
456.175	91.75
456.395	87.75
456.616	85.75
456.836	88.75
457.056	84.75
457.276	80.75
457.497	93.75
457.717	81.75
457.937	85.75
458.157	90.75
458.377	95.75
458.598	98.75
458.818	130.75
459.038	138.75
459.258	109.75
459.478	91.75
459.698	90.75
459.918	87.75
460.138	79.75
460.358	79.75
460.578	78.75
460.798	93.75
461.018	80.75
461.238	73.75
461.458	77.75
461.678	89.75
461.898	83.75
462.118	85.75
462.338	78.75
462.558	82.75
462.777	83.75
462.997	77.75
463.217	75.75
463.437	83.75
463.657	84.75
463.876	76.75
464.096	89.75
464.316	91.75
464.536	80.75
464.755	105.75
464.975	111.75
465.195	140.75
465.414	144.75
465.634	84.75
465.854	79.75
466.073	88.75
466.293	77.75
466.512	71.75
466.732	81.75
466.951	99.75
467.171	94.75
467.391	82.75
467.61	86.75
467.829	114.75
468.049	120.75
468.268	153.75
468.488	93.75
468.707	84.75
468.927	80.75
469.146	75.75
469.365	73.75
469.585	80.75
469.804	83.75
470.023	95.75
470.243	97.75
470.462	101.75
470.681	98.75
470.901	75.75
471.12	88.75
471.339	88.75
471.558	87.75
471.777	86.75
471.997	105.75
472.216	159.75
472.435	278.75
472.654	106.75
472.873	92.75
473.092	104.75
473.311	91.75
473.53	78.75
473.749	89.75
473.968	94.75
474.187	107.75
474.406	88.75
474.625	95.75
474.844	65.75
475.063	83.75
475.282	83.75
475.501	78.75
475.72	89.75
475.939	77.75
476.158	83.75
476.377	99.75
476.596	79.75
476.814	90.75
477.033	76.75
477.252	84.75
477.471	79.75
477.69	81.75
477.908	97.75
478.127	100.75
478.346	101.75
478.564	99.75
478.783	89.75
479.002	105.75
479.22	96.75
479.439	84.75
479.658	86.75
479.876	89.75
480.095	90.75
480.313	91.75
480.532	100.75
480.751	99.75
480.969	175.75
481.188	431.75
481.406	277.75
481.624	119.75
481.843	84.75
482.061	86.75
482.28	80.75
482.498	79.75
482.717	95.75
482.935	90.75
483.153	88.75
483.372	75.75
483.59	82.75
483.808	75.75
484.027	85.75
484.245	88.75
484.463	93.75
484.681	96.75
484.9	117.75
485.118	79.75
485.336	86.75
485.554	86.75
485.772	105.75
485.99	105.75
486.209	92.75
486.427	93.75
486.645	89.75
486.863	92.75
487.081	104.75
487.299	100.75
487.517	86.75
487.735	97.75
487.953	103.75
488.171	99.75
488.389	96.75
488.607	79.75
488.825	95.75
489.043	93.75
489.261	87.75
489.479	77.75
489.696	84.75
489.914	89.75
490.132	82.75
490.35	87.75
490.568	94.75
490.786	74.75
491.003	69.75
491.221	85.75
491.439	93.75
491.657	88.75
491.874	96.75
492.092	85.75
492.31	96.75
492.527	85.75
492.745	77.75
492.963	78.75
493.18	76.75
493.398	91.75
493.615	89.75
493.833	83.75
494.05	78.75
494.268	87.75
494.485	93.75
494.703	72.75
494.92	82.75
495.138	90.75
495.355	70.75
495.573	90.75
495.79	96.75
496.008	81.75
496.225	81.75
496.442	79.75
496.66	103.75
496.877	82.75
497.094	82.75
497.312	80.75
497.529	90.75
497.746	74.75
497.963	91.75
498.181	79.75
498.398	95.75
498.615	98.75
498.832	116.75
499.049	96.75
499.267	98.75
499.484	86.75
499.701	83.75
499.918	89.75
500.135	91.75
500.352	89.75
500.569	84.75
500.786	88.75
501.003	83.75
501.22	86.75
501.437	94.75
501.654	92.75
501.871	105.75
502.088	72.75
502.305	86.75
502.522	89.75
502.739	85.75
502.956	86.75
503.172	78.75
503.389	88.75
503.606	96.75
503.823	96.75
504.04	77.75
504.256	88.75
504.473	85.75
504.69	72.75
504.907	91.75
505.123	82.75
505.34	82.75
505.557	82.75
505.773	87.75
505.99	80.75
506.207	91.75
506.423	77.75
506.64	96.75
506.856	85.75
507.073	86.75
507.289	87.75
507.506	90.75
507.722	102.75
507.939	100.75
508.155	96.75
508.372	77.75
508.588	91.75
508.805	85.75
509.021	86.75
509.238	98.75
509.454	78.75
509.67	98.75
509.887	104.75
510.103	104.75
510.319	173.75
510.536	598.75
510.752	1837.75
510.968	553.75
511.184	148.75
511.401	96.75
511.617	90.75
511.833	85.75
512.049	103.75
512.265	111.75
512.481	93.75
512.698	90.75
512.914	78.75
513.13	76.75
513.346	88.75
513.562	86.75
513.778	91.75
513.994	99.75
514.21	90.75
514.426	108.75
514.642	122.75
514.858	102.75
515.074	124.75
515.29	359.75
515.506	1150.75
515.721	454.75
515.937	135.75
516.153	112.75
516.369	101.75
516.585	78.75
516.801	90.75
