Data from Circ_2010_H10_HRD10591_00059.txt Node
Date: Wed Jan 03 10:09:53 EST 2024
User: Yrep
Spectrometer: HR+D1059
Trigger mode: 1
Integration Time (sec): 1.000000E-1
Scans to average: 1
Electric dark correction enabled: true
Nonlinearity correction enabled: false
Boxcar width: 0
XAxis mode: Wavelengths
Number of Pixels in Spectrum: 2048
>>>>>Begin Spectral Data<<<<<
223.165	-19.12
223.4	-19.12
223.635	-19.12
223.869	-17.12
224.104	-14.12
224.338	-13.12
224.573	-19.12
224.808	-9.12
225.042	-4.12
225.277	-15.12
225.511	-4.12
225.746	4.88
225.98	4.88
226.215	7.88
226.449	38.88
226.683	25.88
226.918	5.88
227.152	26.88
227.387	40.88
227.621	43.88
227.856	33.88
228.09	37.88
228.324	46.88
228.559	47.88
228.793	71.88
229.027	63.88
229.262	67.88
229.496	78.88
229.73	69.88
229.964	72.88
230.199	78.88
230.433	76.88
230.667	74.88
230.901	82.88
231.136	87.88
231.37	77.88
231.604	85.88
231.838	101.88
232.072	64.88
232.306	77.88
232.541	83.88
232.775	86.88
233.009	85.88
233.243	88.88
233.477	75.88
233.711	73.88
233.945	75.88
234.179	76.88
234.413	82.88
234.647	74.88
234.881	80.88
235.115	81.88
235.349	70.88
235.583	78.88
235.817	80.88
236.051	80.88
236.285	80.88
236.519	76.88
236.753	76.88
236.987	68.88
237.221	72.88
237.455	75.88
237.689	70.88
237.922	72.88
238.156	74.88
238.39	75.88
238.624	68.88
238.858	83.88
239.091	76.88
239.325	71.88
239.559	78.88
239.793	81.88
240.027	74.88
240.26	82.88
240.494	79.88
240.728	70.88
240.961	96.88
241.195	71.88
241.429	78.88
241.662	73.88
241.896	72.88
242.13	78.88
242.363	68.88
242.597	82.88
242.83	78.88
243.064	69.88
243.298	63.88
243.531	85.88
243.765	75.88
243.998	64.88
244.232	74.88
244.465	71.88
244.699	84.88
244.932	68.88
245.166	67.88
245.399	72.88
245.633	72.88
245.866	86.88
246.099	89.88
246.333	73.88
246.566	68.88
246.8	81.88
247.033	64.88
247.266	70.88
247.5	74.88
247.733	69.88
247.966	79.88
248.2	76.88
248.433	58.88
248.666	70.88
248.899	75.88
249.133	84.88
249.366	91.88
249.599	95.88
249.832	71.88
250.066	87.88
250.299	70.88
250.532	89.88
250.765	76.88
250.998	90.88
251.231	70.88
251.465	72.88
251.698	77.88
251.931	86.88
252.164	90.88
252.397	76.88
252.63	70.88
252.863	75.88
253.096	66.88
253.329	60.88
253.562	80.88
253.795	77.88
254.028	77.88
254.261	81.88
254.494	92.88
254.727	95.88
254.96	67.88
255.193	89.88
255.426	75.88
255.659	83.88
255.892	75.88
256.124	72.88
256.357	84.88
256.59	81.88
256.823	82.88
257.056	60.88
257.289	81.88
257.521	70.88
257.754	82.88
257.987	80.88
258.22	91.88
258.452	70.88
258.685	78.88
258.918	76.88
259.151	86.88
259.383	70.88
259.616	77.88
259.849	78.88
260.081	88.88
260.314	78.88
260.547	84.88
260.779	86.88
261.012	89.88
261.244	72.88
261.477	82.88
261.71	107.88
261.942	107.88
262.175	103.88
262.407	87.88
262.64	74.88
262.872	77.88
263.105	78.88
263.337	65.88
263.57	93.88
263.802	85.88
264.035	90.88
264.267	78.88
264.499	78.88
264.732	78.88
264.964	84.88
265.197	72.88
265.429	79.88
265.661	86.88
265.894	88.88
266.126	73.88
266.358	79.88
266.591	73.88
266.823	97.88
267.055	72.88
267.287	89.88
267.52	82.88
267.752	90.88
267.984	86.88
268.216	85.88
268.448	85.88
268.681	86.88
268.913	80.88
269.145	80.88
269.377	78.88
269.609	92.88
269.841	93.88
270.073	79.88
270.306	90.88
270.538	85.88
270.77	81.88
271.002	88.88
271.234	83.88
271.466	59.88
271.698	83.88
271.93	71.88
272.162	91.88
272.394	96.88
272.626	80.88
272.858	84.88
273.09	75.88
273.322	90.88
273.553	85.88
273.785	83.88
274.017	83.88
274.249	86.88
274.481	89.88
274.713	87.88
274.945	82.88
275.176	78.88
275.408	88.88
275.64	82.88
275.872	84.88
276.104	94.88
276.335	92.88
276.567	91.88
276.799	101.88
277.031	77.88
277.262	94.88
277.494	89.88
277.726	85.88
277.957	83.88
278.189	79.88
278.421	77.88
278.652	83.88
278.884	83.88
279.115	84.88
279.347	80.88
279.579	77.88
279.81	73.88
280.042	79.88
280.273	88.88
280.505	93.88
280.736	77.88
280.968	82.88
281.199	75.88
281.431	88.88
281.662	75.88
281.894	84.88
282.125	84.88
282.356	116.88
282.588	118.88
282.819	95.88
283.051	85.88
283.282	94.88
283.513	84.88
283.745	84.88
283.976	99.88
284.207	80.88
284.439	82.88
284.67	92.88
284.901	89.88
285.132	80.88
285.364	86.88
285.595	95.88
285.826	90.88
286.057	95.88
286.288	84.88
286.52	83.88
286.751	81.88
286.982	89.88
287.213	84.88
287.444	88.88
287.675	76.88
287.906	79.88
288.138	89.88
288.369	89.88
288.6	86.88
288.831	74.88
289.062	92.88
289.293	76.88
289.524	80.88
289.755	88.88
289.986	86.88
290.217	92.88
290.448	82.88
290.679	76.88
290.91	72.88
291.141	73.88
291.371	86.88
291.602	78.88
291.833	97.88
292.064	91.88
292.295	89.88
292.526	83.88
292.757	82.88
292.987	84.88
293.218	81.88
293.449	98.88
293.68	102.88
293.91	86.88
294.141	88.88
294.372	82.88
294.603	87.88
294.833	94.88
295.064	91.88
295.295	81.88
295.525	86.88
295.756	101.88
295.987	104.88
296.217	121.88
296.448	121.88
296.679	80.88
296.909	75.88
297.14	85.88
297.37	80.88
297.601	82.88
297.831	84.88
298.062	92.88
298.292	93.88
298.523	80.88
298.753	94.88
298.984	89.88
299.214	79.88
299.445	78.88
299.675	90.88
299.905	87.88
300.136	74.88
300.366	101.88
300.597	72.88
300.827	75.88
301.057	89.88
301.288	77.88
301.518	87.88
301.748	89.88
301.979	98.88
302.209	93.88
302.439	86.88
302.669	87.88
302.9	88.88
303.13	84.88
303.36	88.88
303.59	105.88
303.82	95.88
304.051	83.88
304.281	95.88
304.511	93.88
304.741	80.88
304.971	80.88
305.201	92.88
305.431	89.88
305.661	89.88
305.891	88.88
306.121	89.88
306.352	91.88
306.582	97.88
306.812	75.88
307.042	93.88
307.272	101.88
307.502	100.88
307.731	106.88
307.961	103.88
308.191	88.88
308.421	94.88
308.651	75.88
308.881	89.88
309.111	75.88
309.341	95.88
309.571	94.88
309.8	102.88
310.03	96.88
310.26	95.88
310.49	92.88
310.72	96.88
310.949	95.88
311.179	88.88
311.409	89.88
311.639	81.88
311.868	80.88
312.098	77.88
312.328	78.88
312.557	85.88
312.787	98.88
313.017	96.88
313.246	95.88
313.476	89.88
313.706	98.88
313.935	93.88
314.165	86.88
314.394	93.88
314.624	85.88
314.853	99.88
315.083	88.88
315.312	85.88
315.542	104.88
315.771	81.88
316.001	93.88
316.23	102.88
316.46	95.88
316.689	85.88
316.919	88.88
317.148	78.88
317.377	87.88
317.607	91.88
317.836	94.88
318.065	78.88
318.295	80.88
318.524	86.88
318.753	95.88
318.983	87.88
319.212	91.88
319.441	82.88
319.67	107.88
319.9	91.88
320.129	102.88
320.358	88.88
320.587	102.88
320.816	102.88
321.046	85.88
321.275	93.88
321.504	85.88
321.733	94.88
321.962	84.88
322.191	98.88
322.42	104.88
322.649	97.88
322.878	102.88
323.108	116.88
323.337	106.88
323.566	126.88
323.795	138.88
324.024	172.88
324.253	317.88
324.482	629.88
324.71	1233.88
324.939	1614.88
325.168	634.88
325.397	194.88
325.626	126.88
325.855	129.88
326.084	103.88
326.313	124.88
326.542	122.88
326.77	182.88
326.999	354.88
327.228	697.88
327.457	1297.88
327.686	1022.88
327.914	301.88
328.143	194.88
328.372	169.88
328.6	124.88
328.829	109.88
329.058	125.88
329.287	112.88
329.515	103.88
329.744	99.88
329.972	130.88
330.201	186.88
330.43	214.88
330.658	158.88
330.887	123.88
331.115	118.88
331.344	95.88
331.572	100.88
331.801	109.88
332.03	102.88
332.258	80.88
332.486	92.88
332.715	98.88
332.943	81.88
333.172	85.88
333.4	93.88
333.629	114.88
333.857	121.88
334.085	142.88
334.314	180.88
334.542	277.88
334.771	269.88
334.999	139.88
335.227	111.88
335.455	104.88
335.684	93.88
335.912	99.88
336.14	95.88
336.369	87.88
336.597	84.88
336.825	93.88
337.053	86.88
337.281	92.88
337.51	89.88
337.738	89.88
337.966	86.88
338.194	93.88
338.422	82.88
338.65	98.88
338.878	100.88
339.106	90.88
339.334	84.88
339.562	86.88
339.79	97.88
340.018	97.88
340.246	84.88
340.474	84.88
340.702	97.88
340.93	79.88
341.158	100.88
341.386	98.88
341.614	95.88
341.842	80.88
342.07	95.88
342.298	98.88
342.526	95.88
342.754	77.88
342.981	90.88
343.209	84.88
343.437	91.88
343.665	84.88
343.893	94.88
344.12	80.88
344.348	97.88
344.576	101.88
344.804	80.88
345.031	83.88
345.259	94.88
345.487	92.88
345.714	87.88
345.942	82.88
346.17	88.88
346.397	89.88
346.625	82.88
346.853	92.88
347.08	85.88
347.308	92.88
347.535	96.88
347.763	85.88
347.99	72.88
348.218	99.88
348.445	98.88
348.673	100.88
348.9	109.88
349.128	86.88
349.355	90.88
349.583	86.88
349.81	94.88
350.037	87.88
350.265	87.88
350.492	71.88
350.72	91.88
350.947	89.88
351.174	86.88
351.402	92.88
351.629	104.88
351.856	88.88
352.083	112.88
352.311	103.88
352.538	92.88
352.765	100.88
352.992	114.88
353.22	100.88
353.447	99.88
353.674	90.88
353.901	90.88
354.128	93.88
354.355	103.88
354.583	88.88
354.81	97.88
355.037	90.88
355.264	90.88
355.491	103.88
355.718	87.88
355.945	76.88
356.172	91.88
356.399	79.88
356.626	92.88
356.853	83.88
357.08	87.88
357.307	86.88
357.534	81.88
357.761	101.88
357.988	83.88
358.215	98.88
358.441	96.88
358.668	91.88
358.895	80.88
359.122	84.88
359.349	91.88
359.576	83.88
359.802	96.88
360.029	106.88
360.256	105.88
360.483	91.88
360.709	88.88
360.936	95.88
361.163	93.88
361.39	107.88
361.616	100.88
361.843	85.88
362.07	95.88
362.296	85.88
362.523	84.88
362.749	93.88
362.976	74.88
363.203	87.88
363.429	76.88
363.656	82.88
363.882	84.88
364.109	79.88
364.335	96.88
364.562	71.88
364.788	85.88
365.015	90.88
365.241	98.88
365.468	99.88
365.694	93.88
365.92	85.88
366.147	82.88
366.373	85.88
366.599	79.88
366.826	88.88
367.052	85.88
367.278	95.88
367.505	79.88
367.731	95.88
367.957	85.88
368.184	81.88
368.41	101.88
368.636	95.88
368.862	102.88
369.089	100.88
369.315	87.88
369.541	81.88
369.767	80.88
369.993	101.88
370.219	87.88
370.445	76.88
370.672	89.88
370.898	91.88
371.124	87.88
371.35	71.88
371.576	90.88
371.802	99.88
372.028	89.88
372.254	79.88
372.48	87.88
372.706	77.88
372.932	78.88
373.158	90.88
373.384	85.88
373.61	90.88
373.835	86.88
374.061	95.88
374.287	95.88
374.513	89.88
374.739	100.88
374.965	94.88
375.191	99.88
375.416	79.88
375.642	84.88
375.868	91.88
376.094	94.88
376.319	87.88
376.545	84.88
376.771	95.88
376.997	83.88
377.222	88.88
377.448	87.88
377.674	79.88
377.899	103.88
378.125	87.88
378.35	96.88
378.576	88.88
378.802	95.88
379.027	91.88
379.253	78.88
379.478	92.88
379.704	102.88
379.929	86.88
380.155	78.88
380.38	90.88
380.606	88.88
380.831	84.88
381.057	90.88
381.282	99.88
381.507	82.88
381.733	82.88
381.958	101.88
382.184	94.88
382.409	83.88
382.634	94.88
382.86	102.88
383.085	94.88
383.31	84.88
383.535	88.88
383.761	84.88
383.986	90.88
384.211	109.88
384.436	89.88
384.662	91.88
384.887	84.88
385.112	104.88
385.337	82.88
385.562	96.88
385.787	108.88
386.013	109.88
386.238	108.88
386.463	101.88
386.688	95.88
386.913	114.88
387.138	86.88
387.363	101.88
387.588	93.88
387.813	106.88
388.038	106.88
388.263	99.88
388.488	108.88
388.713	91.88
388.938	86.88
389.163	98.88
389.387	84.88
389.612	88.88
389.837	95.88
390.062	93.88
390.287	82.88
390.512	92.88
390.736	82.88
390.961	74.88
391.186	91.88
391.411	98.88
391.636	96.88
391.86	84.88
392.085	79.88
392.31	83.88
392.534	82.88
392.759	88.88
392.984	105.88
393.208	97.88
393.433	109.88
393.658	99.88
393.882	85.88
394.107	85.88
394.331	90.88
394.556	91.88
394.78	84.88
395.005	87.88
395.229	72.88
395.454	97.88
395.678	90.88
395.903	88.88
396.127	86.88
396.352	82.88
396.576	90.88
396.801	103.88
397.025	80.88
397.249	87.88
397.474	91.88
397.698	69.88
397.922	89.88
398.147	79.88
398.371	93.88
398.595	76.88
398.82	84.88
399.044	85.88
399.268	84.88
399.492	82.88
399.717	93.88
399.941	95.88
400.165	93.88
400.389	83.88
400.613	91.88
400.837	99.88
401.062	85.88
401.286	101.88
401.51	101.88
401.734	84.88
401.958	91.88
402.182	119.88
402.406	148.88
402.63	102.88
402.854	85.88
403.078	86.88
403.302	70.88
403.526	91.88
403.75	94.88
403.974	95.88
404.198	87.88
404.422	82.88
404.645	76.88
404.869	96.88
405.093	86.88
405.317	89.88
405.541	100.88
405.765	106.88
405.988	109.88
406.212	138.88
406.436	178.88
406.66	111.88
406.883	93.88
407.107	94.88
407.331	89.88
407.555	98.88
407.778	85.88
408.002	78.88
408.226	89.88
408.449	79.88
408.673	87.88
408.896	71.88
409.12	82.88
409.344	95.88
409.567	78.88
409.791	82.88
410.014	94.88
410.238	88.88
410.461	108.88
410.685	97.88
410.908	104.88
411.132	116.88
411.355	88.88
411.578	90.88
411.802	88.88
412.025	86.88
412.249	97.88
412.472	87.88
412.695	84.88
412.919	99.88
413.142	91.88
413.365	99.88
413.589	86.88
413.812	86.88
414.035	86.88
414.258	96.88
414.482	96.88
414.705	91.88
414.928	86.88
415.151	106.88
415.374	81.88
415.597	89.88
415.821	95.88
416.044	79.88
416.267	79.88
416.49	105.88
416.713	92.88
416.936	73.88
417.159	83.88
417.382	87.88
417.605	90.88
417.828	90.88
418.051	72.88
418.274	96.88
418.497	71.88
418.72	101.88
418.943	87.88
419.166	90.88
419.389	76.88
419.611	94.88
419.834	86.88
420.057	81.88
420.28	81.88
420.503	72.88
420.726	78.88
420.948	75.88
421.171	100.88
421.394	94.88
421.617	93.88
421.839	90.88
422.062	79.88
422.285	92.88
422.507	97.88
422.73	98.88
422.953	95.88
423.175	89.88
423.398	91.88
423.621	78.88
423.843	78.88
424.066	73.88
424.288	89.88
424.511	88.88
424.733	78.88
424.956	103.88
425.178	93.88
425.401	102.88
425.623	105.88
425.846	80.88
426.068	77.88
426.291	80.88
426.513	87.88
426.735	91.88
426.958	85.88
427.18	102.88
427.402	118.88
427.625	138.88
427.847	112.88
428.069	108.88
428.292	94.88
428.514	84.88
428.736	83.88
428.958	86.88
429.181	82.88
429.403	78.88
429.625	80.88
429.847	88.88
430.069	103.88
430.292	96.88
430.514	98.88
430.736	88.88
430.958	89.88
431.18	78.88
431.402	86.88
431.624	70.88
431.846	92.88
432.068	92.88
432.29	92.88
432.512	83.88
432.734	87.88
432.956	78.88
433.178	79.88
433.4	105.88
433.622	96.88
433.844	86.88
434.066	78.88
434.287	83.88
434.509	99.88
434.731	91.88
434.953	103.88
435.175	90.88
435.397	86.88
435.618	80.88
435.84	98.88
436.062	114.88
436.284	94.88
436.505	101.88
436.727	90.88
436.949	83.88
437.17	80.88
437.392	94.88
437.614	96.88
437.835	106.88
438.057	110.88
438.278	103.88
438.5	100.88
438.721	114.88
438.943	96.88
439.165	80.88
439.386	85.88
439.608	78.88
439.829	98.88
440.05	115.88
440.272	124.88
440.493	109.88
440.715	84.88
440.936	75.88
441.158	92.88
441.379	87.88
441.6	94.88
441.822	94.88
442.043	83.88
442.264	85.88
442.486	102.88
442.707	87.88
442.928	81.88
443.149	112.88
443.371	121.88
443.592	93.88
443.813	84.88
444.034	107.88
444.255	88.88
444.476	94.88
444.698	74.88
444.919	80.88
445.14	122.88
445.361	108.88
445.582	107.88
445.803	119.88
446.024	109.88
446.245	120.88
446.466	93.88
446.687	77.88
446.908	88.88
447.129	78.88
447.35	96.88
447.571	92.88
447.792	99.88
448.013	94.88
448.234	93.88
448.455	89.88
448.675	103.88
448.896	104.88
449.117	94.88
449.338	88.88
449.559	119.88
449.779	112.88
450	99.88
450.221	90.88
450.442	82.88
450.662	90.88
450.883	94.88
451.104	104.88
451.324	92.88
451.545	83.88
451.766	74.88
451.986	80.88
452.207	82.88
452.428	77.88
452.648	88.88
452.869	98.88
453.089	107.88
453.31	99.88
453.53	101.88
453.751	90.88
453.971	100.88
454.192	108.88
454.412	88.88
454.633	87.88
454.853	75.88
455.073	80.88
455.294	87.88
455.514	104.88
455.734	86.88
455.955	87.88
456.175	97.88
456.395	82.88
456.616	74.88
456.836	80.88
457.056	77.88
457.276	93.88
457.497	96.88
457.717	77.88
457.937	90.88
458.157	80.88
458.377	89.88
458.598	92.88
458.818	124.88
459.038	137.88
459.258	102.88
459.478	93.88
459.698	79.88
459.918	81.88
460.138	97.88
460.358	84.88
460.578	98.88
460.798	87.88
461.018	86.88
461.238	78.88
461.458	78.88
461.678	87.88
461.898	84.88
462.118	104.88
462.338	92.88
462.558	90.88
462.777	78.88
462.997	88.88
463.217	86.88
463.437	83.88
463.657	84.88
463.876	74.88
464.096	95.88
464.316	92.88
464.536	80.88
464.755	95.88
464.975	98.88
465.195	132.88
465.414	120.88
465.634	81.88
465.854	83.88
466.073	83.88
466.293	98.88
466.512	73.88
466.732	91.88
466.951	90.88
467.171	88.88
467.391	92.88
467.61	95.88
467.829	96.88
468.049	136.88
468.268	161.88
468.488	101.88
468.707	94.88
468.927	88.88
469.146	83.88
469.365	93.88
469.585	88.88
469.804	85.88
470.023	102.88
470.243	88.88
470.462	87.88
470.681	100.88
470.901	93.88
471.12	68.88
471.339	94.88
471.558	100.88
471.777	92.88
471.997	119.88
472.216	207.88
472.435	352.88
472.654	152.88
472.873	99.88
473.092	81.88
473.311	79.88
473.53	89.88
473.749	77.88
473.968	86.88
474.187	110.88
474.406	95.88
474.625	99.88
474.844	101.88
475.063	74.88
475.282	80.88
475.501	82.88
475.72	96.88
475.939	92.88
476.158	73.88
476.377	74.88
476.596	68.88
476.814	96.88
477.033	82.88
477.252	88.88
477.471	83.88
477.69	96.88
477.908	79.88
478.127	82.88
478.346	88.88
478.564	86.88
478.783	101.88
479.002	83.88
479.22	93.88
479.439	91.88
479.658	87.88
479.876	101.88
480.095	99.88
480.313	106.88
480.532	87.88
480.751	104.88
480.969	217.88
481.188	583.88
481.406	387.88
481.624	129.88
481.843	90.88
482.061	90.88
482.28	88.88
482.498	84.88
482.717	90.88
482.935	75.88
483.153	82.88
483.372	91.88
483.59	86.88
483.808	86.88
484.027	96.88
484.245	84.88
484.463	81.88
484.681	78.88
484.9	80.88
485.118	90.88
485.336	90.88
485.554	115.88
485.772	95.88
485.99	103.88
486.209	101.88
486.427	97.88
486.645	102.88
486.863	105.88
487.081	102.88
487.299	81.88
487.517	92.88
487.735	87.88
487.953	106.88
488.171	100.88
488.389	100.88
488.607	108.88
488.825	96.88
489.043	89.88
489.261	76.88
489.479	95.88
489.696	92.88
489.914	73.88
490.132	73.88
490.35	79.88
490.568	98.88
490.786	79.88
491.003	96.88
491.221	92.88
491.439	92.88
491.657	87.88
491.874	79.88
492.092	83.88
492.31	93.88
492.527	82.88
492.745	85.88
492.963	90.88
493.18	116.88
493.398	95.88
493.615	109.88
493.833	92.88
494.05	92.88
494.268	90.88
494.485	89.88
494.703	86.88
494.92	91.88
495.138	93.88
495.355	96.88
495.573	96.88
495.79	84.88
496.008	92.88
496.225	94.88
496.442	84.88
496.66	95.88
496.877	87.88
497.094	99.88
497.312	77.88
497.529	84.88
497.746	87.88
497.963	85.88
498.181	87.88
498.398	96.88
498.615	107.88
498.832	99.88
499.049	92.88
499.267	95.88
499.484	83.88
499.701	90.88
499.918	86.88
500.135	86.88
500.352	91.88
500.569	67.88
500.786	94.88
501.003	79.88
501.22	84.88
501.437	73.88
501.654	95.88
501.871	78.88
502.088	95.88
502.305	90.88
502.522	85.88
502.739	82.88
502.956	102.88
503.172	69.88
503.389	75.88
503.606	102.88
503.823	79.88
504.04	95.88
504.256	95.88
504.473	85.88
504.69	84.88
504.907	102.88
505.123	85.88
505.34	87.88
505.557	81.88
505.773	95.88
505.99	87.88
506.207	87.88
506.423	69.88
506.64	92.88
506.856	88.88
507.073	93.88
507.289	88.88
507.506	100.88
507.722	85.88
507.939	114.88
508.155	103.88
508.372	86.88
508.588	80.88
508.805	86.88
509.021	93.88
509.238	85.88
509.454	92.88
509.67	94.88
509.887	84.88
510.103	110.88
510.319	179.88
510.536	552.88
510.752	1709.88
510.968	512.88
511.184	130.88
511.401	105.88
511.617	90.88
511.833	83.88
512.049	85.88
512.265	86.88
512.481	99.88
512.698	89.88
512.914	101.88
513.13	82.88
513.346	86.88
513.562	104.88
513.778	108.88
513.994	99.88
514.21	99.88
514.426	109.88
514.642	115.88
514.858	109.88
515.074	143.88
515.29	325.88
515.506	1018.88
515.721	421.88
515.937	124.88
516.153	104.88
516.369	87.88
516.585	93.88
516.801	92.88
