Data from Circ_2010_H10_HRD10591_00066.txt Node
Date: Wed Jan 03 10:09:54 EST 2024
User: Yrep
Spectrometer: HR+D1059
Trigger mode: 1
Integration Time (sec): 1.000000E-1
Scans to average: 1
Electric dark correction enabled: true
Nonlinearity correction enabled: false
Boxcar width: 0
XAxis mode: Wavelengths
Number of Pixels in Spectrum: 2048
>>>>>Begin Spectral Data<<<<<
223.165	-8.31
223.4	-8.31
223.635	-8.31
223.869	-23.31
224.104	-20.31
224.338	-13.31
224.573	-15.31
224.808	-39.31
225.042	-9.31
225.277	8.69
225.511	-5.31
225.746	8.69
225.98	14.69
226.215	19.69
226.449	20.69
226.683	19.69
226.918	15.69
227.152	26.69
227.387	31.69
227.621	29.69
227.856	34.69
228.09	44.69
228.324	39.69
228.559	38.69
228.793	55.69
229.027	60.69
229.262	71.69
229.496	67.69
229.73	78.69
229.964	75.69
230.199	72.69
230.433	67.69
230.667	74.69
230.901	87.69
231.136	53.69
231.37	92.69
231.604	83.69
231.838	78.69
232.072	75.69
232.306	73.69
232.541	74.69
232.775	77.69
233.009	79.69
233.243	83.69
233.477	74.69
233.711	86.69
233.945	81.69
234.179	80.69
234.413	89.69
234.647	79.69
234.881	59.69
235.115	70.69
235.349	59.69
235.583	82.69
235.817	81.69
236.051	70.69
236.285	58.69
236.519	66.69
236.753	67.69
236.987	87.69
237.221	80.69
237.455	74.69
237.689	79.69
237.922	72.69
238.156	95.69
238.39	59.69
238.624	70.69
238.858	81.69
239.091	75.69
239.325	65.69
239.559	59.69
239.793	86.69
240.027	67.69
240.26	77.69
240.494	79.69
240.728	67.69
240.961	66.69
241.195	58.69
241.429	69.69
241.662	68.69
241.896	80.69
242.13	82.69
242.363	81.69
242.597	69.69
242.83	85.69
243.064	67.69
243.298	69.69
243.531	66.69
243.765	67.69
243.998	79.69
244.232	84.69
244.465	75.69
244.699	74.69
244.932	76.69
245.166	68.69
245.399	51.69
245.633	63.69
245.866	73.69
246.099	62.69
246.333	73.69
246.566	81.69
246.8	75.69
247.033	71.69
247.266	80.69
247.5	70.69
247.733	59.69
247.966	74.69
248.2	76.69
248.433	81.69
248.666	74.69
248.899	76.69
249.133	81.69
249.366	97.69
249.599	99.69
249.832	72.69
250.066	73.69
250.299	67.69
250.532	70.69
250.765	75.69
250.998	78.69
251.231	90.69
251.465	61.69
251.698	68.69
251.931	79.69
252.164	71.69
252.397	82.69
252.63	83.69
252.863	66.69
253.096	68.69
253.329	68.69
253.562	72.69
253.795	67.69
254.028	75.69
254.261	74.69
254.494	70.69
254.727	72.69
254.96	84.69
255.193	64.69
255.426	65.69
255.659	67.69
255.892	77.69
256.124	79.69
256.357	65.69
256.59	75.69
256.823	88.69
257.056	81.69
257.289	80.69
257.521	75.69
257.754	82.69
257.987	64.69
258.22	72.69
258.452	67.69
258.685	75.69
258.918	65.69
259.151	83.69
259.383	86.69
259.616	72.69
259.849	87.69
260.081	80.69
260.314	78.69
260.547	72.69
260.779	72.69
261.012	72.69
261.244	82.69
261.477	85.69
261.71	86.69
261.942	107.69
262.175	106.69
262.407	82.69
262.64	75.69
262.872	76.69
263.105	67.69
263.337	87.69
263.57	66.69
263.802	77.69
264.035	90.69
264.267	88.69
264.499	84.69
264.732	86.69
264.964	65.69
265.197	75.69
265.429	72.69
265.661	78.69
265.894	72.69
266.126	71.69
266.358	75.69
266.591	67.69
266.823	75.69
267.055	78.69
267.287	75.69
267.52	84.69
267.752	78.69
267.984	67.69
268.216	84.69
268.448	75.69
268.681	70.69
268.913	69.69
269.145	67.69
269.377	64.69
269.609	71.69
269.841	81.69
270.073	79.69
270.306	89.69
270.538	74.69
270.77	79.69
271.002	80.69
271.234	81.69
271.466	74.69
271.698	74.69
271.93	82.69
272.162	79.69
272.394	81.69
272.626	86.69
272.858	69.69
273.09	78.69
273.322	86.69
273.553	79.69
273.785	78.69
274.017	88.69
274.249	86.69
274.481	64.69
274.713	78.69
274.945	71.69
275.176	80.69
275.408	77.69
275.64	86.69
275.872	96.69
276.104	82.69
276.335	76.69
276.567	86.69
276.799	108.69
277.031	94.69
277.262	108.69
277.494	90.69
277.726	59.69
277.957	75.69
278.189	67.69
278.421	72.69
278.652	73.69
278.884	74.69
279.115	79.69
279.347	82.69
279.579	62.69
279.81	92.69
280.042	95.69
280.273	114.69
280.505	97.69
280.736	78.69
280.968	93.69
281.199	95.69
281.431	90.69
281.662	76.69
281.894	86.69
282.125	81.69
282.356	105.69
282.588	115.69
282.819	91.69
283.051	80.69
283.282	87.69
283.513	87.69
283.745	89.69
283.976	84.69
284.207	82.69
284.439	84.69
284.67	82.69
284.901	57.69
285.132	71.69
285.364	69.69
285.595	87.69
285.826	84.69
286.057	81.69
286.288	75.69
286.52	82.69
286.751	78.69
286.982	80.69
287.213	68.69
287.444	90.69
287.675	98.69
287.906	84.69
288.138	82.69
288.369	89.69
288.6	89.69
288.831	80.69
289.062	84.69
289.293	75.69
289.524	71.69
289.755	86.69
289.986	94.69
290.217	82.69
290.448	85.69
290.679	74.69
290.91	86.69
291.141	85.69
291.371	79.69
291.602	79.69
291.833	91.69
292.064	80.69
292.295	79.69
292.526	84.69
292.757	82.69
292.987	86.69
293.218	88.69
293.449	81.69
293.68	92.69
293.91	81.69
294.141	84.69
294.372	83.69
294.603	75.69
294.833	79.69
295.064	73.69
295.295	78.69
295.525	76.69
295.756	89.69
295.987	96.69
296.217	111.69
296.448	97.69
296.679	79.69
296.909	90.69
297.14	83.69
297.37	90.69
297.601	80.69
297.831	63.69
298.062	74.69
298.292	75.69
298.523	71.69
298.753	87.69
298.984	64.69
299.214	80.69
299.445	99.69
299.675	96.69
299.905	91.69
300.136	78.69
300.366	59.69
300.597	88.69
300.827	83.69
301.057	90.69
301.288	95.69
301.518	74.69
301.748	78.69
301.979	85.69
302.209	78.69
302.439	89.69
302.669	95.69
302.9	86.69
303.13	85.69
303.36	104.69
303.59	89.69
303.82	90.69
304.051	88.69
304.281	98.69
304.511	76.69
304.741	80.69
304.971	88.69
305.201	85.69
305.431	77.69
305.661	73.69
305.891	72.69
306.121	89.69
306.352	90.69
306.582	87.69
306.812	77.69
307.042	85.69
307.272	92.69
307.502	96.69
307.731	88.69
307.961	98.69
308.191	98.69
308.421	90.69
308.651	83.69
308.881	76.69
309.111	86.69
309.341	92.69
309.571	95.69
309.8	83.69
310.03	94.69
310.26	83.69
310.49	83.69
310.72	82.69
310.949	95.69
311.179	99.69
311.409	86.69
311.639	94.69
311.868	86.69
312.098	96.69
312.328	85.69
312.557	102.69
312.787	99.69
313.017	100.69
313.246	87.69
313.476	81.69
313.706	82.69
313.935	90.69
314.165	98.69
314.394	98.69
314.624	86.69
314.853	76.69
315.083	72.69
315.312	95.69
315.542	86.69
315.771	101.69
316.001	81.69
316.23	86.69
316.46	84.69
316.689	96.69
316.919	74.69
317.148	94.69
317.377	85.69
317.607	87.69
317.836	93.69
318.065	86.69
318.295	72.69
318.524	90.69
318.753	81.69
318.983	92.69
319.212	89.69
319.441	94.69
319.67	88.69
319.9	86.69
320.129	100.69
320.358	93.69
320.587	90.69
320.816	88.69
321.046	94.69
321.275	91.69
321.504	97.69
321.733	91.69
321.962	74.69
322.191	89.69
322.42	105.69
322.649	94.69
322.878	107.69
323.108	101.69
323.337	117.69
323.566	126.69
323.795	143.69
324.024	201.69
324.253	347.69
324.482	711.69
324.71	1548.69
324.939	1978.69
325.168	729.69
325.397	203.69
325.626	131.69
325.855	122.69
326.084	111.69
326.313	122.69
326.542	142.69
326.77	214.69
326.999	423.69
327.228	881.69
327.457	1545.69
327.686	1247.69
327.914	364.69
328.143	234.69
328.372	224.69
328.6	148.69
328.829	104.69
329.058	114.69
329.287	112.69
329.515	106.69
329.744	124.69
329.972	167.69
330.201	254.69
330.43	347.69
330.658	190.69
330.887	136.69
331.115	119.69
331.344	85.69
331.572	96.69
331.801	88.69
332.03	101.69
332.258	88.69
332.486	86.69
332.715	88.69
332.943	83.69
333.172	96.69
333.4	102.69
333.629	104.69
333.857	118.69
334.085	162.69
334.314	276.69
334.542	439.69
334.771	428.69
334.999	155.69
335.227	125.69
335.455	98.69
335.684	97.69
335.912	79.69
336.14	99.69
336.369	88.69
336.597	98.69
336.825	83.69
337.053	91.69
337.281	90.69
337.51	72.69
337.738	103.69
337.966	82.69
338.194	83.69
338.422	75.69
338.65	92.69
338.878	92.69
339.106	90.69
339.334	107.69
339.562	85.69
339.79	89.69
340.018	84.69
340.246	91.69
340.474	98.69
340.702	100.69
340.93	95.69
341.158	84.69
341.386	92.69
341.614	94.69
341.842	88.69
342.07	82.69
342.298	85.69
342.526	88.69
342.754	79.69
342.981	89.69
343.209	67.69
343.437	97.69
343.665	83.69
343.893	91.69
344.12	86.69
344.348	90.69
344.576	87.69
344.804	71.69
345.031	89.69
345.259	97.69
345.487	85.69
345.714	88.69
345.942	92.69
346.17	80.69
346.397	82.69
346.625	90.69
346.853	99.69
347.08	92.69
347.308	98.69
347.535	104.69
347.763	89.69
347.99	76.69
348.218	98.69
348.445	95.69
348.673	89.69
348.9	84.69
349.128	103.69
349.355	81.69
349.583	90.69
349.81	86.69
350.037	86.69
350.265	85.69
350.492	73.69
350.72	87.69
350.947	100.69
351.174	80.69
351.402	97.69
351.629	101.69
351.856	84.69
352.083	102.69
352.311	98.69
352.538	104.69
352.765	122.69
352.992	112.69
353.22	95.69
353.447	99.69
353.674	72.69
353.901	84.69
354.128	97.69
354.355	84.69
354.583	89.69
354.81	103.69
355.037	88.69
355.264	88.69
355.491	84.69
355.718	88.69
355.945	80.69
356.172	90.69
356.399	103.69
356.626	89.69
356.853	95.69
357.08	95.69
357.307	87.69
357.534	89.69
357.761	92.69
357.988	97.69
358.215	100.69
358.441	94.69
358.668	82.69
358.895	100.69
359.122	82.69
359.349	65.69
359.576	88.69
359.802	89.69
360.029	98.69
360.256	97.69
360.483	87.69
360.709	86.69
360.936	78.69
361.163	84.69
361.39	80.69
361.616	84.69
361.843	92.69
362.07	76.69
362.296	87.69
362.523	89.69
362.749	78.69
362.976	93.69
363.203	90.69
363.429	89.69
363.656	81.69
363.882	80.69
364.109	96.69
364.335	86.69
364.562	75.69
364.788	84.69
365.015	99.69
365.241	91.69
365.468	96.69
365.694	98.69
365.92	90.69
366.147	84.69
366.373	68.69
366.599	70.69
366.826	83.69
367.052	83.69
367.278	93.69
367.505	84.69
367.731	88.69
367.957	73.69
368.184	83.69
368.41	102.69
368.636	89.69
368.862	110.69
369.089	109.69
369.315	92.69
369.541	93.69
369.767	78.69
369.993	105.69
370.219	103.69
370.445	79.69
370.672	78.69
370.898	78.69
371.124	85.69
371.35	74.69
371.576	76.69
371.802	89.69
372.028	89.69
372.254	85.69
372.48	75.69
372.706	95.69
372.932	85.69
373.158	65.69
373.384	77.69
373.61	86.69
373.835	91.69
374.061	84.69
374.287	74.69
374.513	81.69
374.739	83.69
374.965	79.69
375.191	83.69
375.416	82.69
375.642	79.69
375.868	86.69
376.094	80.69
376.319	83.69
376.545	83.69
376.771	88.69
376.997	89.69
377.222	97.69
377.448	76.69
377.674	79.69
377.899	81.69
378.125	87.69
378.35	83.69
378.576	88.69
378.802	87.69
379.027	90.69
379.253	86.69
379.478	81.69
379.704	96.69
379.929	101.69
380.155	83.69
380.38	88.69
380.606	97.69
380.831	95.69
381.057	107.69
381.282	87.69
381.507	84.69
381.733	103.69
381.958	96.69
382.184	98.69
382.409	111.69
382.634	90.69
382.86	89.69
383.085	82.69
383.31	83.69
383.535	92.69
383.761	87.69
383.986	82.69
384.211	81.69
384.436	90.69
384.662	97.69
384.887	102.69
385.112	90.69
385.337	85.69
385.562	89.69
385.787	92.69
386.013	105.69
386.238	113.69
386.463	105.69
386.688	110.69
386.913	98.69
387.138	76.69
387.363	100.69
387.588	91.69
387.813	95.69
388.038	104.69
388.263	99.69
388.488	102.69
388.713	94.69
388.938	88.69
389.163	91.69
389.387	92.69
389.612	86.69
389.837	82.69
390.062	96.69
390.287	98.69
390.512	83.69
390.736	78.69
390.961	84.69
391.186	85.69
391.411	84.69
391.636	98.69
391.86	80.69
392.085	86.69
392.31	72.69
392.534	80.69
392.759	76.69
392.984	73.69
393.208	85.69
393.433	86.69
393.658	90.69
393.882	75.69
394.107	69.69
394.331	82.69
394.556	92.69
394.78	82.69
395.005	84.69
395.229	69.69
395.454	84.69
395.678	88.69
395.903	91.69
396.127	71.69
396.352	86.69
396.576	94.69
396.801	91.69
397.025	82.69
397.249	80.69
397.474	85.69
397.698	84.69
397.922	86.69
398.147	71.69
398.371	76.69
398.595	83.69
398.82	77.69
399.044	67.69
399.268	72.69
399.492	89.69
399.717	86.69
399.941	92.69
400.165	89.69
400.389	86.69
400.613	80.69
400.837	79.69
401.062	77.69
401.286	87.69
401.51	82.69
401.734	77.69
401.958	91.69
402.182	109.69
402.406	128.69
402.63	107.69
402.854	89.69
403.078	82.69
403.302	75.69
403.526	87.69
403.75	71.69
403.974	72.69
404.198	84.69
404.422	72.69
404.645	80.69
404.869	81.69
405.093	97.69
405.317	114.69
405.541	109.69
405.765	94.69
405.988	94.69
406.212	159.69
406.436	200.69
406.66	135.69
406.883	88.69
407.107	92.69
407.331	99.69
407.555	102.69
407.778	82.69
408.002	73.69
408.226	86.69
408.449	86.69
408.673	93.69
408.896	114.69
409.12	86.69
409.344	98.69
409.567	97.69
409.791	79.69
410.014	86.69
410.238	74.69
410.461	81.69
410.685	80.69
410.908	88.69
411.132	100.69
411.355	96.69
411.578	92.69
411.802	88.69
412.025	82.69
412.249	101.69
412.472	89.69
412.695	113.69
412.919	94.69
413.142	91.69
413.365	69.69
413.589	100.69
413.812	94.69
414.035	82.69
414.258	79.69
414.482	94.69
414.705	87.69
414.928	84.69
415.151	73.69
415.374	80.69
415.597	76.69
415.821	90.69
416.044	89.69
416.267	93.69
416.49	78.69
416.713	87.69
416.936	90.69
417.159	82.69
417.382	84.69
417.605	82.69
417.828	88.69
418.051	89.69
418.274	85.69
418.497	86.69
418.72	90.69
418.943	84.69
419.166	87.69
419.389	84.69
419.611	74.69
419.834	88.69
420.057	87.69
420.28	94.69
420.503	82.69
420.726	83.69
420.948	91.69
421.171	92.69
421.394	89.69
421.617	81.69
421.839	86.69
422.062	91.69
422.285	71.69
422.507	105.69
422.73	101.69
422.953	88.69
423.175	80.69
423.398	69.69
423.621	86.69
423.843	86.69
424.066	73.69
424.288	75.69
424.511	79.69
424.733	74.69
424.956	110.69
425.178	74.69
425.401	106.69
425.623	99.69
425.846	102.69
426.068	78.69
426.291	79.69
426.513	97.69
426.735	87.69
426.958	93.69
427.18	86.69
427.402	122.69
427.625	156.69
427.847	144.69
428.069	145.69
428.292	95.69
428.514	88.69
428.736	84.69
428.958	78.69
429.181	84.69
429.403	79.69
429.625	80.69
429.847	80.69
430.069	98.69
430.292	102.69
430.514	88.69
430.736	82.69
430.958	84.69
431.18	77.69
431.402	71.69
431.624	88.69
431.846	79.69
432.068	85.69
432.29	86.69
432.512	75.69
432.734	83.69
432.956	93.69
433.178	86.69
433.4	79.69
433.622	94.69
433.844	76.69
434.066	89.69
434.287	98.69
434.509	80.69
434.731	86.69
434.953	83.69
435.175	75.69
435.397	81.69
435.618	84.69
435.84	93.69
436.062	124.69
436.284	118.69
436.505	98.69
436.727	101.69
436.949	79.69
437.17	86.69
437.392	82.69
437.614	93.69
437.835	105.69
438.057	103.69
438.278	101.69
438.5	102.69
438.721	108.69
438.943	95.69
439.165	79.69
439.386	75.69
439.608	92.69
439.829	102.69
440.05	123.69
440.272	130.69
440.493	99.69
440.715	71.69
440.936	65.69
441.158	82.69
441.379	65.69
441.6	74.69
441.822	73.69
442.043	88.69
442.264	91.69
442.486	97.69
442.707	63.69
442.928	83.69
443.149	117.69
443.371	121.69
443.592	100.69
443.813	103.69
444.034	95.69
444.255	88.69
444.476	81.69
444.698	77.69
444.919	92.69
445.14	140.69
445.361	131.69
445.582	110.69
445.803	108.69
446.024	129.69
446.245	130.69
446.466	107.69
446.687	102.69
446.908	85.69
447.129	82.69
447.35	76.69
447.571	72.69
447.792	84.69
448.013	93.69
448.234	102.69
448.455	107.69
448.675	99.69
448.896	109.69
449.117	108.69
449.338	101.69
449.559	122.69
449.779	130.69
450	96.69
450.221	83.69
450.442	86.69
450.662	81.69
450.883	80.69
451.104	104.69
451.324	92.69
451.545	79.69
451.766	82.69
451.986	78.69
452.207	74.69
452.428	83.69
452.648	90.69
452.869	103.69
453.089	96.69
453.31	101.69
453.53	82.69
453.751	78.69
453.971	101.69
454.192	99.69
454.412	75.69
454.633	87.69
454.853	85.69
455.073	83.69
455.294	97.69
455.514	97.69
455.734	72.69
455.955	91.69
456.175	67.69
456.395	79.69
456.616	79.69
456.836	86.69
457.056	79.69
457.276	83.69
457.497	76.69
457.717	88.69
457.937	89.69
458.157	88.69
458.377	81.69
458.598	99.69
458.818	126.69
459.038	129.69
459.258	103.69
459.478	85.69
459.698	86.69
459.918	91.69
460.138	86.69
460.358	85.69
460.578	86.69
460.798	82.69
461.018	76.69
461.238	87.69
461.458	65.69
461.678	85.69
461.898	83.69
462.118	78.69
462.338	71.69
462.558	95.69
462.777	76.69
462.997	91.69
463.217	70.69
463.437	91.69
463.657	81.69
463.876	85.69
464.096	87.69
464.316	70.69
464.536	79.69
464.755	73.69
464.975	94.69
465.195	137.69
465.414	133.69
465.634	70.69
465.854	88.69
466.073	82.69
466.293	69.69
466.512	79.69
466.732	75.69
466.951	79.69
467.171	80.69
467.391	92.69
467.61	96.69
467.829	101.69
468.049	202.69
468.268	231.69
468.488	106.69
468.707	90.69
468.927	84.69
469.146	69.69
469.365	81.69
469.585	74.69
469.804	97.69
470.023	89.69
470.243	94.69
470.462	95.69
470.681	100.69
470.901	81.69
471.12	90.69
471.339	89.69
471.558	87.69
471.777	84.69
471.997	104.69
472.216	287.69
472.435	565.69
472.654	190.69
472.873	91.69
473.092	72.69
473.311	96.69
473.53	92.69
473.749	82.69
473.968	88.69
474.187	102.69
474.406	92.69
474.625	82.69
474.844	80.69
475.063	73.69
475.282	88.69
475.501	76.69
475.72	84.69
475.939	91.69
476.158	85.69
476.377	76.69
476.596	72.69
476.814	85.69
477.033	98.69
477.252	84.69
477.471	90.69
477.69	91.69
477.908	92.69
478.127	89.69
478.346	82.69
478.564	74.69
478.783	86.69
479.002	93.69
479.22	96.69
479.439	93.69
479.658	93.69
479.876	86.69
480.095	88.69
480.313	87.69
480.532	112.69
480.751	113.69
480.969	274.69
481.188	916.69
481.406	610.69
481.624	148.69
481.843	82.69
482.061	89.69
482.28	82.69
482.498	78.69
482.717	97.69
482.935	72.69
483.153	81.69
483.372	82.69
483.59	83.69
483.808	67.69
484.027	88.69
484.245	76.69
484.463	83.69
484.681	91.69
484.9	75.69
485.118	87.69
485.336	73.69
485.554	93.69
485.772	81.69
485.99	86.69
486.209	94.69
486.427	84.69
486.645	90.69
486.863	101.69
487.081	77.69
487.299	86.69
487.517	84.69
487.735	86.69
487.953	79.69
488.171	89.69
488.389	84.69
488.607	89.69
488.825	78.69
489.043	91.69
489.261	87.69
489.479	84.69
489.696	78.69
489.914	88.69
490.132	75.69
490.35	61.69
490.568	71.69
490.786	88.69
491.003	87.69
491.221	89.69
491.439	80.69
491.657	91.69
491.874	90.69
492.092	78.69
492.31	84.69
492.527	80.69
492.745	82.69
492.963	85.69
493.18	75.69
493.398	70.69
493.615	79.69
493.833	82.69
494.05	69.69
494.268	85.69
494.485	73.69
494.703	77.69
494.92	94.69
495.138	70.69
495.355	94.69
495.573	83.69
495.79	79.69
496.008	107.69
496.225	87.69
496.442	94.69
496.66	94.69
496.877	91.69
497.094	84.69
497.312	78.69
497.529	86.69
497.746	83.69
497.963	84.69
498.181	78.69
498.398	100.69
498.615	104.69
498.832	90.69
499.049	87.69
499.267	88.69
499.484	82.69
499.701	70.69
499.918	72.69
500.135	86.69
500.352	83.69
500.569	94.69
500.786	80.69
501.003	85.69
501.22	96.69
501.437	86.69
501.654	75.69
501.871	96.69
502.088	86.69
502.305	87.69
502.522	85.69
502.739	76.69
502.956	91.69
503.172	90.69
503.389	83.69
503.606	82.69
503.823	95.69
504.04	86.69
504.256	82.69
504.473	83.69
504.69	56.69
504.907	75.69
505.123	86.69
505.34	89.69
505.557	90.69
505.773	88.69
505.99	84.69
506.207	82.69
506.423	83.69
506.64	86.69
506.856	71.69
507.073	72.69
507.289	79.69
507.506	89.69
507.722	99.69
507.939	113.69
508.155	81.69
508.372	76.69
508.588	76.69
508.805	73.69
509.021	90.69
509.238	75.69
509.454	95.69
509.67	101.69
509.887	90.69
510.103	127.69
510.319	163.69
510.536	540.69
510.752	1726.69
510.968	518.69
511.184	118.69
511.401	97.69
511.617	95.69
511.833	89.69
512.049	84.69
512.265	82.69
512.481	90.69
512.698	100.69
512.914	68.69
513.13	98.69
513.346	90.69
513.562	98.69
513.778	84.69
513.994	92.69
514.21	89.69
514.426	104.69
514.642	124.69
514.858	128.69
515.074	159.69
515.29	332.69
515.506	1138.69
515.721	442.69
515.937	134.69
516.153	85.69
516.369	95.69
516.585	98.69
516.801	98.69
517.016	97.69
517.232	100.69
517.448	82.69
