Data from Circ_2010_H10_HRD10591_00033.txt Node
Date: Wed Jan 03 10:09:47 EST 2024
User: Yrep
Spectrometer: HR+D1059
Trigger mode: 1
Integration Time (sec): 1.000000E-1
Scans to average: 1
Electric dark correction enabled: true
Nonlinearity correction enabled: false
Boxcar width: 0
XAxis mode: Wavelengths
Number of Pixels in Spectrum: 2048
>>>>>Begin Spectral Data<<<<<
223.165	-6.94
223.4	-6.94
223.635	-6.94
223.869	-21.94
224.104	-16.94
224.338	-12.94
224.573	-16.94
224.808	-21.94
225.042	-16.94
225.277	0.06
225.511	0.06
225.746	1.06
225.98	6.06
226.215	12.06
226.449	7.06
226.683	35.06
226.918	16.06
227.152	37.06
227.387	30.06
227.621	41.06
227.856	41.06
228.09	40.06
228.324	53.06
228.559	61.06
228.793	57.06
229.027	75.06
229.262	70.06
229.496	62.06
229.73	75.06
229.964	79.06
230.199	76.06
230.433	75.06
230.667	101.06
230.901	101.06
231.136	85.06
231.37	87.06
231.604	70.06
231.838	83.06
232.072	75.06
232.306	73.06
232.541	84.06
232.775	93.06
233.009	92.06
233.243	87.06
233.477	81.06
233.711	81.06
233.945	80.06
234.179	90.06
234.413	78.06
234.647	94.06
234.881	89.06
235.115	85.06
235.349	81.06
235.583	72.06
235.817	78.06
236.051	73.06
236.285	78.06
236.519	85.06
236.753	75.06
236.987	88.06
237.221	93.06
237.455	76.06
237.689	73.06
237.922	71.06
238.156	86.06
238.39	80.06
238.624	89.06
238.858	72.06
239.091	82.06
239.325	77.06
239.559	80.06
239.793	70.06
240.027	76.06
240.26	81.06
240.494	81.06
240.728	78.06
240.961	73.06
241.195	80.06
241.429	93.06
241.662	84.06
241.896	72.06
242.13	69.06
242.363	78.06
242.597	71.06
242.83	77.06
243.064	75.06
243.298	72.06
243.531	73.06
243.765	88.06
243.998	76.06
244.232	82.06
244.465	80.06
244.699	82.06
244.932	78.06
245.166	91.06
245.399	84.06
245.633	83.06
245.866	74.06
246.099	80.06
246.333	70.06
246.566	76.06
246.8	77.06
247.033	72.06
247.266	83.06
247.5	86.06
247.733	80.06
247.966	82.06
248.2	80.06
248.433	80.06
248.666	73.06
248.899	69.06
249.133	69.06
249.366	107.06
249.599	99.06
249.832	76.06
250.066	84.06
250.299	85.06
250.532	89.06
250.765	74.06
250.998	85.06
251.231	73.06
251.465	89.06
251.698	75.06
251.931	88.06
252.164	62.06
252.397	86.06
252.63	83.06
252.863	74.06
253.096	91.06
253.329	76.06
253.562	79.06
253.795	70.06
254.028	71.06
254.261	80.06
254.494	78.06
254.727	78.06
254.96	84.06
255.193	84.06
255.426	79.06
255.659	81.06
255.892	68.06
256.124	86.06
256.357	79.06
256.59	82.06
256.823	80.06
257.056	78.06
257.289	81.06
257.521	82.06
257.754	80.06
257.987	88.06
258.22	84.06
258.452	87.06
258.685	95.06
258.918	68.06
259.151	64.06
259.383	75.06
259.616	80.06
259.849	83.06
260.081	75.06
260.314	85.06
260.547	78.06
260.779	86.06
261.012	80.06
261.244	81.06
261.477	85.06
261.71	81.06
261.942	90.06
262.175	109.06
262.407	86.06
262.64	73.06
262.872	91.06
263.105	87.06
263.337	82.06
263.57	70.06
263.802	82.06
264.035	89.06
264.267	69.06
264.499	81.06
264.732	74.06
264.964	86.06
265.197	86.06
265.429	90.06
265.661	84.06
265.894	89.06
266.126	87.06
266.358	85.06
266.591	91.06
266.823	72.06
267.055	86.06
267.287	92.06
267.52	89.06
267.752	95.06
267.984	81.06
268.216	77.06
268.448	90.06
268.681	88.06
268.913	82.06
269.145	80.06
269.377	88.06
269.609	83.06
269.841	88.06
270.073	86.06
270.306	77.06
270.538	70.06
270.77	67.06
271.002	96.06
271.234	95.06
271.466	81.06
271.698	92.06
271.93	77.06
272.162	71.06
272.394	86.06
272.626	85.06
272.858	94.06
273.09	86.06
273.322	78.06
273.553	83.06
273.785	95.06
274.017	83.06
274.249	73.06
274.481	92.06
274.713	82.06
274.945	85.06
275.176	96.06
275.408	88.06
275.64	86.06
275.872	91.06
276.104	98.06
276.335	97.06
276.567	103.06
276.799	106.06
277.031	104.06
277.262	99.06
277.494	81.06
277.726	84.06
277.957	88.06
278.189	74.06
278.421	92.06
278.652	96.06
278.884	80.06
279.115	81.06
279.347	80.06
279.579	100.06
279.81	102.06
280.042	96.06
280.273	93.06
280.505	92.06
280.736	87.06
280.968	86.06
281.199	92.06
281.431	86.06
281.662	76.06
281.894	86.06
282.125	80.06
282.356	108.06
282.588	121.06
282.819	101.06
283.051	90.06
283.282	83.06
283.513	88.06
283.745	91.06
283.976	87.06
284.207	103.06
284.439	94.06
284.67	82.06
284.901	104.06
285.132	79.06
285.364	75.06
285.595	84.06
285.826	90.06
286.057	92.06
286.288	88.06
286.52	91.06
286.751	83.06
286.982	72.06
287.213	84.06
287.444	85.06
287.675	88.06
287.906	92.06
288.138	88.06
288.369	75.06
288.6	90.06
288.831	94.06
289.062	104.06
289.293	78.06
289.524	88.06
289.755	81.06
289.986	88.06
290.217	94.06
290.448	88.06
290.679	73.06
290.91	92.06
291.141	87.06
291.371	89.06
291.602	95.06
291.833	84.06
292.064	84.06
292.295	82.06
292.526	89.06
292.757	85.06
292.987	84.06
293.218	96.06
293.449	81.06
293.68	74.06
293.91	76.06
294.141	89.06
294.372	79.06
294.603	80.06
294.833	96.06
295.064	95.06
295.295	83.06
295.525	86.06
295.756	105.06
295.987	96.06
296.217	133.06
296.448	118.06
296.679	99.06
296.909	84.06
297.14	95.06
297.37	80.06
297.601	100.06
297.831	87.06
298.062	94.06
298.292	103.06
298.523	87.06
298.753	102.06
298.984	90.06
299.214	89.06
299.445	88.06
299.675	82.06
299.905	90.06
300.136	91.06
300.366	89.06
300.597	92.06
300.827	83.06
301.057	100.06
301.288	120.06
301.518	86.06
301.748	86.06
301.979	98.06
302.209	106.06
302.439	94.06
302.669	85.06
302.9	93.06
303.13	93.06
303.36	90.06
303.59	84.06
303.82	102.06
304.051	96.06
304.281	91.06
304.511	90.06
304.741	95.06
304.971	86.06
305.201	90.06
305.431	86.06
305.661	101.06
305.891	76.06
306.121	92.06
306.352	94.06
306.582	102.06
306.812	95.06
307.042	97.06
307.272	88.06
307.502	81.06
307.731	99.06
307.961	87.06
308.191	86.06
308.421	94.06
308.651	85.06
308.881	85.06
309.111	99.06
309.341	91.06
309.571	92.06
309.8	93.06
310.03	97.06
310.26	93.06
310.49	89.06
310.72	91.06
310.949	98.06
311.179	113.06
311.409	88.06
311.639	94.06
311.868	99.06
312.098	97.06
312.328	105.06
312.557	95.06
312.787	93.06
313.017	107.06
313.246	86.06
313.476	93.06
313.706	84.06
313.935	97.06
314.165	95.06
314.394	89.06
314.624	94.06
314.853	99.06
315.083	101.06
315.312	90.06
315.542	88.06
315.771	95.06
316.001	86.06
316.23	73.06
316.46	90.06
316.689	92.06
316.919	102.06
317.148	82.06
317.377	88.06
317.607	104.06
317.836	82.06
318.065	100.06
318.295	94.06
318.524	85.06
318.753	86.06
318.983	101.06
319.212	111.06
319.441	108.06
319.67	104.06
319.9	85.06
320.129	85.06
320.358	71.06
320.587	92.06
320.816	105.06
321.046	96.06
321.275	94.06
321.504	79.06
321.733	82.06
321.962	81.06
322.191	100.06
322.42	93.06
322.649	105.06
322.878	102.06
323.108	102.06
323.337	119.06
323.566	118.06
323.795	144.06
324.024	190.06
324.253	308.06
324.482	618.06
324.71	1262.06
324.939	1584.06
325.168	621.06
325.397	209.06
325.626	129.06
325.855	113.06
326.084	113.06
326.313	110.06
326.542	140.06
326.77	200.06
326.999	374.06
327.228	681.06
327.457	1245.06
327.686	1013.06
327.914	305.06
328.143	177.06
328.372	162.06
328.6	124.06
328.829	109.06
329.058	122.06
329.287	119.06
329.515	94.06
329.744	101.06
329.972	135.06
330.201	161.06
330.43	183.06
330.658	157.06
330.887	140.06
331.115	109.06
331.344	94.06
331.572	88.06
331.801	113.06
332.03	105.06
332.258	91.06
332.486	94.06
332.715	93.06
332.943	94.06
333.172	101.06
333.4	95.06
333.629	107.06
333.857	123.06
334.085	117.06
334.314	152.06
334.542	197.06
334.771	188.06
334.999	114.06
335.227	94.06
335.455	91.06
335.684	100.06
335.912	108.06
336.14	94.06
336.369	106.06
336.597	100.06
336.825	88.06
337.053	81.06
337.281	88.06
337.51	96.06
337.738	90.06
337.966	95.06
338.194	90.06
338.422	91.06
338.65	99.06
338.878	84.06
339.106	93.06
339.334	99.06
339.562	89.06
339.79	91.06
340.018	96.06
340.246	108.06
340.474	90.06
340.702	87.06
340.93	92.06
341.158	85.06
341.386	101.06
341.614	90.06
341.842	86.06
342.07	95.06
342.298	100.06
342.526	75.06
342.754	85.06
342.981	97.06
343.209	88.06
343.437	110.06
343.665	93.06
343.893	87.06
344.12	90.06
344.348	94.06
344.576	95.06
344.804	98.06
345.031	100.06
345.259	91.06
345.487	90.06
345.714	102.06
345.942	91.06
346.17	101.06
346.397	90.06
346.625	89.06
346.853	92.06
347.08	85.06
347.308	91.06
347.535	87.06
347.763	100.06
347.99	106.06
348.218	86.06
348.445	113.06
348.673	89.06
348.9	89.06
349.128	94.06
349.355	94.06
349.583	94.06
349.81	98.06
350.037	92.06
350.265	101.06
350.492	92.06
350.72	100.06
350.947	92.06
351.174	89.06
351.402	103.06
351.629	101.06
351.856	106.06
352.083	116.06
352.311	100.06
352.538	98.06
352.765	120.06
352.992	113.06
353.22	103.06
353.447	106.06
353.674	102.06
353.901	106.06
354.128	97.06
354.355	94.06
354.583	112.06
354.81	92.06
355.037	86.06
355.264	84.06
355.491	79.06
355.718	106.06
355.945	103.06
356.172	91.06
356.399	91.06
356.626	95.06
356.853	71.06
357.08	89.06
357.307	90.06
357.534	82.06
357.761	106.06
357.988	82.06
358.215	91.06
358.441	93.06
358.668	94.06
358.895	81.06
359.122	89.06
359.349	87.06
359.576	97.06
359.802	93.06
360.029	110.06
360.256	121.06
360.483	107.06
360.709	81.06
360.936	90.06
361.163	77.06
361.39	78.06
361.616	85.06
361.843	82.06
362.07	87.06
362.296	82.06
362.523	90.06
362.749	88.06
362.976	97.06
363.203	81.06
363.429	88.06
363.656	106.06
363.882	98.06
364.109	87.06
364.335	95.06
364.562	92.06
364.788	89.06
365.015	91.06
365.241	88.06
365.468	105.06
365.694	112.06
365.92	94.06
366.147	90.06
366.373	90.06
366.599	80.06
366.826	87.06
367.052	88.06
367.278	80.06
367.505	93.06
367.731	96.06
367.957	93.06
368.184	90.06
368.41	87.06
368.636	103.06
368.862	107.06
369.089	92.06
369.315	93.06
369.541	96.06
369.767	104.06
369.993	88.06
370.219	91.06
370.445	77.06
370.672	77.06
370.898	91.06
371.124	91.06
371.35	98.06
371.576	97.06
371.802	85.06
372.028	89.06
372.254	80.06
372.48	95.06
372.706	99.06
372.932	83.06
373.158	85.06
373.384	78.06
373.61	95.06
373.835	86.06
374.061	82.06
374.287	97.06
374.513	84.06
374.739	80.06
374.965	92.06
375.191	94.06
375.416	99.06
375.642	78.06
375.868	83.06
376.094	84.06
376.319	100.06
376.545	87.06
376.771	87.06
376.997	83.06
377.222	98.06
377.448	90.06
377.674	103.06
377.899	106.06
378.125	89.06
378.35	101.06
378.576	89.06
378.802	96.06
379.027	101.06
379.253	87.06
379.478	94.06
379.704	96.06
379.929	90.06
380.155	97.06
380.38	93.06
380.606	100.06
380.831	108.06
381.057	98.06
381.282	98.06
381.507	99.06
381.733	89.06
381.958	88.06
382.184	94.06
382.409	100.06
382.634	121.06
382.86	91.06
383.085	98.06
383.31	94.06
383.535	105.06
383.761	104.06
383.986	88.06
384.211	89.06
384.436	84.06
384.662	101.06
384.887	104.06
385.112	96.06
385.337	114.06
385.562	103.06
385.787	116.06
386.013	120.06
386.238	108.06
386.463	105.06
386.688	115.06
386.913	99.06
387.138	94.06
387.363	106.06
387.588	107.06
387.813	85.06
388.038	119.06
388.263	111.06
388.488	104.06
388.713	100.06
388.938	98.06
389.163	102.06
389.387	94.06
389.612	76.06
389.837	89.06
390.062	95.06
390.287	95.06
390.512	85.06
390.736	103.06
390.961	90.06
391.186	87.06
391.411	86.06
391.636	88.06
391.86	79.06
392.085	97.06
392.31	87.06
392.534	92.06
392.759	74.06
392.984	96.06
393.208	86.06
393.433	107.06
393.658	103.06
393.882	97.06
394.107	86.06
394.331	68.06
394.556	95.06
394.78	84.06
395.005	72.06
395.229	86.06
395.454	78.06
395.678	76.06
395.903	83.06
396.127	85.06
396.352	89.06
396.576	94.06
396.801	88.06
397.025	101.06
397.249	92.06
397.474	79.06
397.698	91.06
397.922	80.06
398.147	92.06
398.371	94.06
398.595	84.06
398.82	89.06
399.044	92.06
399.268	89.06
399.492	80.06
399.717	74.06
399.941	81.06
400.165	85.06
400.389	92.06
400.613	90.06
400.837	103.06
401.062	72.06
401.286	82.06
401.51	87.06
401.734	81.06
401.958	99.06
402.182	101.06
402.406	152.06
402.63	104.06
402.854	89.06
403.078	90.06
403.302	94.06
403.526	73.06
403.75	89.06
403.974	86.06
404.198	98.06
404.422	92.06
404.645	81.06
404.869	92.06
405.093	100.06
405.317	94.06
405.541	96.06
405.765	97.06
405.988	113.06
406.212	149.06
406.436	189.06
406.66	142.06
406.883	92.06
407.107	93.06
407.331	92.06
407.555	93.06
407.778	81.06
408.002	96.06
408.226	86.06
408.449	86.06
408.673	96.06
408.896	107.06
409.12	90.06
409.344	84.06
409.567	97.06
409.791	117.06
410.014	102.06
410.238	94.06
410.461	95.06
410.685	92.06
410.908	85.06
411.132	105.06
411.355	99.06
411.578	88.06
411.802	88.06
412.025	88.06
412.249	100.06
412.472	84.06
412.695	95.06
412.919	94.06
413.142	79.06
413.365	94.06
413.589	99.06
413.812	96.06
414.035	100.06
414.258	97.06
414.482	92.06
414.705	90.06
414.928	90.06
415.151	94.06
415.374	86.06
415.597	76.06
415.821	82.06
416.044	91.06
416.267	109.06
416.49	92.06
416.713	85.06
416.936	96.06
417.159	90.06
417.382	81.06
417.605	96.06
417.828	87.06
418.051	108.06
418.274	103.06
418.497	79.06
418.72	88.06
418.943	85.06
419.166	76.06
419.389	83.06
419.611	82.06
419.834	86.06
420.057	86.06
420.28	91.06
420.503	88.06
420.726	99.06
420.948	82.06
421.171	99.06
421.394	91.06
421.617	89.06
421.839	91.06
422.062	97.06
422.285	86.06
422.507	121.06
422.73	83.06
422.953	98.06
423.175	94.06
423.398	86.06
423.621	102.06
423.843	85.06
424.066	96.06
424.288	91.06
424.511	84.06
424.733	100.06
424.956	97.06
425.178	84.06
425.401	108.06
425.623	96.06
425.846	85.06
426.068	85.06
426.291	86.06
426.513	77.06
426.735	85.06
426.958	89.06
427.18	100.06
427.402	123.06
427.625	148.06
427.847	120.06
428.069	110.06
428.292	90.06
428.514	82.06
428.736	89.06
428.958	90.06
429.181	77.06
429.403	101.06
429.625	80.06
429.847	84.06
430.069	97.06
430.292	84.06
430.514	100.06
430.736	86.06
430.958	76.06
431.18	84.06
431.402	72.06
431.624	82.06
431.846	93.06
432.068	86.06
432.29	71.06
432.512	102.06
432.734	74.06
432.956	84.06
433.178	101.06
433.4	102.06
433.622	85.06
433.844	88.06
434.066	89.06
434.287	79.06
434.509	86.06
434.731	92.06
434.953	72.06
435.175	89.06
435.397	89.06
435.618	81.06
435.84	85.06
436.062	110.06
436.284	100.06
436.505	93.06
436.727	78.06
436.949	103.06
437.17	98.06
437.392	92.06
437.614	94.06
437.835	97.06
438.057	97.06
438.278	98.06
438.5	91.06
438.721	106.06
438.943	97.06
439.165	89.06
439.386	87.06
439.608	86.06
439.829	92.06
440.05	99.06
440.272	121.06
440.493	93.06
440.715	91.06
440.936	94.06
441.158	87.06
441.379	97.06
441.6	93.06
441.822	86.06
442.043	91.06
442.264	102.06
442.486	83.06
442.707	96.06
442.928	104.06
443.149	109.06
443.371	115.06
443.592	84.06
443.813	88.06
444.034	99.06
444.255	93.06
444.476	80.06
444.698	80.06
444.919	78.06
445.14	136.06
445.361	123.06
445.582	109.06
445.803	132.06
446.024	123.06
446.245	112.06
446.466	107.06
446.687	90.06
446.908	106.06
447.129	89.06
447.35	76.06
447.571	87.06
447.792	81.06
448.013	96.06
448.234	110.06
448.455	95.06
448.675	108.06
448.896	109.06
449.117	85.06
449.338	80.06
449.559	111.06
449.779	115.06
450	83.06
450.221	96.06
450.442	87.06
450.662	87.06
450.883	85.06
451.104	101.06
451.324	68.06
451.545	80.06
451.766	80.06
451.986	96.06
452.207	89.06
452.428	90.06
452.648	89.06
452.869	105.06
453.089	104.06
453.31	112.06
453.53	89.06
453.751	92.06
453.971	102.06
454.192	86.06
454.412	82.06
454.633	82.06
454.853	93.06
455.073	87.06
455.294	92.06
455.514	105.06
455.734	102.06
455.955	87.06
456.175	87.06
456.395	81.06
456.616	86.06
456.836	66.06
457.056	89.06
457.276	101.06
457.497	88.06
457.717	104.06
457.937	88.06
458.157	80.06
458.377	80.06
458.598	109.06
458.818	103.06
459.038	130.06
459.258	90.06
459.478	75.06
459.698	76.06
459.918	99.06
460.138	85.06
460.358	92.06
460.578	77.06
460.798	90.06
461.018	93.06
461.238	94.06
461.458	90.06
461.678	93.06
461.898	73.06
462.118	84.06
462.338	92.06
462.558	90.06
462.777	80.06
462.997	86.06
463.217	82.06
463.437	88.06
463.657	75.06
463.876	79.06
464.096	78.06
464.316	89.06
464.536	93.06
464.755	80.06
464.975	104.06
465.195	138.06
465.414	134.06
465.634	75.06
465.854	86.06
466.073	83.06
466.293	80.06
466.512	91.06
466.732	70.06
466.951	101.06
467.171	88.06
467.391	85.06
467.61	94.06
467.829	107.06
468.049	130.06
468.268	136.06
468.488	93.06
468.707	86.06
468.927	83.06
469.146	89.06
469.365	90.06
469.585	93.06
469.804	80.06
470.023	88.06
470.243	82.06
470.462	80.06
470.681	97.06
470.901	93.06
471.12	73.06
471.339	88.06
471.558	86.06
471.777	89.06
471.997	104.06
472.216	168.06
472.435	252.06
472.654	118.06
472.873	85.06
473.092	85.06
473.311	88.06
473.53	83.06
473.749	82.06
473.968	93.06
474.187	101.06
474.406	76.06
474.625	88.06
474.844	86.06
475.063	94.06
475.282	89.06
475.501	93.06
475.72	94.06
475.939	82.06
476.158	85.06
476.377	80.06
476.596	74.06
476.814	102.06
477.033	96.06
477.252	91.06
477.471	81.06
477.69	92.06
477.908	87.06
478.127	77.06
478.346	82.06
478.564	103.06
478.783	99.06
479.002	96.06
479.22	87.06
479.439	96.06
479.658	74.06
479.876	96.06
480.095	93.06
480.313	97.06
480.532	102.06
480.751	100.06
480.969	182.06
481.188	401.06
481.406	288.06
481.624	111.06
481.843	92.06
482.061	92.06
482.28	94.06
482.498	96.06
482.717	89.06
482.935	89.06
483.153	88.06
483.372	88.06
483.59	89.06
483.808	85.06
484.027	83.06
484.245	89.06
484.463	92.06
484.681	109.06
484.9	96.06
485.118	97.06
485.336	101.06
485.554	103.06
485.772	90.06
485.99	101.06
486.209	110.06
486.427	89.06
486.645	106.06
486.863	107.06
487.081	104.06
487.299	100.06
487.517	82.06
487.735	92.06
487.953	93.06
488.171	82.06
488.389	103.06
488.607	96.06
488.825	77.06
489.043	76.06
489.261	97.06
489.479	88.06
489.696	84.06
489.914	82.06
490.132	92.06
490.35	74.06
490.568	83.06
490.786	100.06
491.003	85.06
491.221	88.06
491.439	94.06
491.657	98.06
491.874	94.06
492.092	105.06
492.31	92.06
492.527	89.06
492.745	96.06
492.963	94.06
493.18	90.06
493.398	95.06
493.615	101.06
493.833	82.06
494.05	98.06
494.268	81.06
494.485	99.06
494.703	94.06
494.92	88.06
495.138	86.06
495.355	91.06
495.573	102.06
495.79	77.06
496.008	87.06
496.225	94.06
496.442	82.06
496.66	102.06
496.877	90.06
497.094	76.06
497.312	88.06
497.529	90.06
497.746	74.06
497.963	86.06
498.181	82.06
498.398	88.06
498.615	107.06
498.832	88.06
499.049	109.06
499.267	95.06
499.484	87.06
499.701	98.06
499.918	95.06
500.135	85.06
500.352	87.06
500.569	88.06
500.786	87.06
501.003	91.06
501.22	80.06
501.437	90.06
501.654	95.06
501.871	90.06
502.088	88.06
502.305	88.06
502.522	94.06
502.739	75.06
502.956	84.06
503.172	78.06
503.389	99.06
503.606	87.06
503.823	86.06
504.04	91.06
504.256	82.06
504.473	96.06
504.69	88.06
504.907	95.06
505.123	104.06
505.34	93.06
505.557	92.06
505.773	92.06
505.99	95.06
506.207	104.06
506.423	90.06
506.64	78.06
506.856	100.06
507.073	84.06
507.289	79.06
507.506	92.06
507.722	89.06
507.939	100.06
508.155	104.06
508.372	91.06
508.588	99.06
508.805	97.06
509.021	101.06
509.238	92.06
509.454	88.06
509.67	77.06
509.887	110.06
510.103	128.06
510.319	173.06
510.536	548.06
510.752	1745.06
510.968	522.06
511.184	152.06
511.401	109.06
511.617	97.06
511.833	83.06
512.049	92.06
512.265	91.06
512.481	84.06
512.698	94.06
512.914	87.06
513.13	87.06
513.346	78.06
513.562	89.06
513.778	104.06
513.994	99.06
514.21	105.06
514.426	110.06
514.642	128.06
514.858	109.06
515.074	128.06
515.29	343.06
515.506	1028.06
515.721	416.06
515.937	140.06
516.153	100.06
