Data from Circ_2010_H10_HRD10591_00064.txt Node
Date: Wed Jan 03 10:09:54 EST 2024
User: Yrep
Spectrometer: HR+D1059
Trigger mode: 1
Integration Time (sec): 1.000000E-1
Scans to average: 1
Electric dark correction enabled: true
Nonlinearity correction enabled: false
Boxcar width: 0
XAxis mode: Wavelengths
Number of Pixels in Spectrum: 2048
>>>>>Begin Spectral Data<<<<<
223.165	-9.38
223.4	-9.38
223.635	-9.38
223.869	-14.38
224.104	-13.38
224.338	-9.38
224.573	-22.38
224.808	-8.38
225.042	-10.38
225.277	-1.38
225.511	-4.38
225.746	-0.38
225.98	-1.38
226.215	1.62
226.449	19.62
226.683	17.62
226.918	22.62
227.152	33.62
227.387	23.62
227.621	38.62
227.856	54.62
228.09	31.62
228.324	35.62
228.559	53.62
228.793	64.62
229.027	48.62
229.262	57.62
229.496	60.62
229.73	78.62
229.964	70.62
230.199	73.62
230.433	72.62
230.667	58.62
230.901	78.62
231.136	63.62
231.37	77.62
231.604	75.62
231.838	66.62
232.072	73.62
232.306	61.62
232.541	69.62
232.775	71.62
233.009	74.62
233.243	69.62
233.477	92.62
233.711	81.62
233.945	80.62
234.179	76.62
234.413	58.62
234.647	76.62
234.881	88.62
235.115	73.62
235.349	66.62
235.583	85.62
235.817	74.62
236.051	71.62
236.285	84.62
236.519	74.62
236.753	66.62
236.987	63.62
237.221	79.62
237.455	83.62
237.689	67.62
237.922	73.62
238.156	63.62
238.39	63.62
238.624	71.62
238.858	50.62
239.091	71.62
239.325	73.62
239.559	87.62
239.793	76.62
240.027	85.62
240.26	69.62
240.494	81.62
240.728	72.62
240.961	78.62
241.195	72.62
241.429	69.62
241.662	71.62
241.896	78.62
242.13	61.62
242.363	72.62
242.597	76.62
242.83	86.62
243.064	75.62
243.298	72.62
243.531	75.62
243.765	67.62
243.998	78.62
244.232	83.62
244.465	58.62
244.699	70.62
244.932	83.62
245.166	74.62
245.399	83.62
245.633	84.62
245.866	81.62
246.099	77.62
246.333	68.62
246.566	71.62
246.8	61.62
247.033	76.62
247.266	66.62
247.5	84.62
247.733	91.62
247.966	71.62
248.2	75.62
248.433	80.62
248.666	70.62
248.899	70.62
249.133	66.62
249.366	91.62
249.599	93.62
249.832	70.62
250.066	96.62
250.299	77.62
250.532	80.62
250.765	60.62
250.998	72.62
251.231	79.62
251.465	70.62
251.698	89.62
251.931	79.62
252.164	60.62
252.397	89.62
252.63	78.62
252.863	97.62
253.096	85.62
253.329	80.62
253.562	72.62
253.795	71.62
254.028	90.62
254.261	79.62
254.494	84.62
254.727	86.62
254.96	66.62
255.193	68.62
255.426	79.62
255.659	81.62
255.892	83.62
256.124	82.62
256.357	77.62
256.59	78.62
256.823	70.62
257.056	82.62
257.289	67.62
257.521	75.62
257.754	80.62
257.987	67.62
258.22	93.62
258.452	76.62
258.685	73.62
258.918	72.62
259.151	72.62
259.383	88.62
259.616	86.62
259.849	82.62
260.081	84.62
260.314	76.62
260.547	65.62
260.779	73.62
261.012	65.62
261.244	75.62
261.477	80.62
261.71	76.62
261.942	90.62
262.175	105.62
262.407	87.62
262.64	82.62
262.872	72.62
263.105	81.62
263.337	95.62
263.57	80.62
263.802	80.62
264.035	68.62
264.267	69.62
264.499	70.62
264.732	96.62
264.964	95.62
265.197	72.62
265.429	87.62
265.661	74.62
265.894	77.62
266.126	71.62
266.358	74.62
266.591	80.62
266.823	83.62
267.055	90.62
267.287	82.62
267.52	67.62
267.752	77.62
267.984	82.62
268.216	74.62
268.448	81.62
268.681	83.62
268.913	81.62
269.145	77.62
269.377	75.62
269.609	74.62
269.841	92.62
270.073	74.62
270.306	64.62
270.538	68.62
270.77	88.62
271.002	80.62
271.234	68.62
271.466	73.62
271.698	84.62
271.93	84.62
272.162	57.62
272.394	67.62
272.626	82.62
272.858	72.62
273.09	77.62
273.322	88.62
273.553	74.62
273.785	89.62
274.017	78.62
274.249	88.62
274.481	96.62
274.713	83.62
274.945	82.62
275.176	77.62
275.408	76.62
275.64	86.62
275.872	76.62
276.104	81.62
276.335	82.62
276.567	77.62
276.799	111.62
277.031	103.62
277.262	96.62
277.494	89.62
277.726	95.62
277.957	81.62
278.189	72.62
278.421	83.62
278.652	66.62
278.884	76.62
279.115	72.62
279.347	75.62
279.579	90.62
279.81	88.62
280.042	90.62
280.273	105.62
280.505	88.62
280.736	99.62
280.968	79.62
281.199	87.62
281.431	83.62
281.662	71.62
281.894	87.62
282.125	92.62
282.356	105.62
282.588	118.62
282.819	81.62
283.051	79.62
283.282	85.62
283.513	85.62
283.745	75.62
283.976	90.62
284.207	81.62
284.439	73.62
284.67	80.62
284.901	90.62
285.132	98.62
285.364	81.62
285.595	78.62
285.826	81.62
286.057	82.62
286.288	79.62
286.52	84.62
286.751	71.62
286.982	69.62
287.213	77.62
287.444	87.62
287.675	101.62
287.906	83.62
288.138	81.62
288.369	76.62
288.6	79.62
288.831	79.62
289.062	89.62
289.293	74.62
289.524	82.62
289.755	84.62
289.986	88.62
290.217	83.62
290.448	77.62
290.679	85.62
290.91	73.62
291.141	76.62
291.371	68.62
291.602	76.62
291.833	84.62
292.064	86.62
292.295	79.62
292.526	79.62
292.757	68.62
292.987	70.62
293.218	71.62
293.449	93.62
293.68	91.62
293.91	88.62
294.141	79.62
294.372	81.62
294.603	88.62
294.833	81.62
295.064	85.62
295.295	79.62
295.525	83.62
295.756	91.62
295.987	96.62
296.217	115.62
296.448	100.62
296.679	85.62
296.909	97.62
297.14	92.62
297.37	88.62
297.601	93.62
297.831	83.62
298.062	78.62
298.292	89.62
298.523	85.62
298.753	76.62
298.984	81.62
299.214	95.62
299.445	90.62
299.675	90.62
299.905	96.62
300.136	90.62
300.366	68.62
300.597	81.62
300.827	91.62
301.057	93.62
301.288	97.62
301.518	69.62
301.748	82.62
301.979	85.62
302.209	97.62
302.439	83.62
302.669	88.62
302.9	84.62
303.13	72.62
303.36	92.62
303.59	95.62
303.82	111.62
304.051	87.62
304.281	80.62
304.511	81.62
304.741	107.62
304.971	76.62
305.201	81.62
305.431	87.62
305.661	63.62
305.891	88.62
306.121	87.62
306.352	97.62
306.582	80.62
306.812	79.62
307.042	84.62
307.272	86.62
307.502	84.62
307.731	92.62
307.961	86.62
308.191	106.62
308.421	90.62
308.651	82.62
308.881	84.62
309.111	88.62
309.341	88.62
309.571	94.62
309.8	92.62
310.03	84.62
310.26	77.62
310.49	89.62
310.72	94.62
310.949	101.62
311.179	89.62
311.409	95.62
311.639	90.62
311.868	98.62
312.098	96.62
312.328	102.62
312.557	99.62
312.787	105.62
313.017	90.62
313.246	94.62
313.476	81.62
313.706	96.62
313.935	79.62
314.165	90.62
314.394	100.62
314.624	89.62
314.853	89.62
315.083	106.62
315.312	99.62
315.542	76.62
315.771	81.62
316.001	80.62
316.23	91.62
316.46	70.62
316.689	77.62
316.919	86.62
317.148	79.62
317.377	89.62
317.607	94.62
317.836	92.62
318.065	93.62
318.295	84.62
318.524	73.62
318.753	70.62
318.983	78.62
319.212	81.62
319.441	100.62
319.67	101.62
319.9	102.62
320.129	86.62
320.358	79.62
320.587	82.62
320.816	82.62
321.046	87.62
321.275	75.62
321.504	92.62
321.733	88.62
321.962	82.62
322.191	89.62
322.42	100.62
322.649	99.62
322.878	100.62
323.108	100.62
323.337	102.62
323.566	117.62
323.795	123.62
324.024	157.62
324.253	302.62
324.482	635.62
324.71	1283.62
324.939	1681.62
325.168	622.62
325.397	185.62
325.626	118.62
325.855	111.62
326.084	104.62
326.313	113.62
326.542	133.62
326.77	203.62
326.999	394.62
327.228	725.62
327.457	1327.62
327.686	1036.62
327.914	311.62
328.143	179.62
328.372	169.62
328.6	111.62
328.829	115.62
329.058	124.62
329.287	114.62
329.515	115.62
329.744	127.62
329.972	146.62
330.201	162.62
330.43	228.62
330.658	160.62
330.887	132.62
331.115	106.62
331.344	102.62
331.572	77.62
331.801	86.62
332.03	99.62
332.258	105.62
332.486	100.62
332.715	94.62
332.943	99.62
333.172	87.62
333.4	91.62
333.629	106.62
333.857	125.62
334.085	130.62
334.314	196.62
334.542	267.62
334.771	254.62
334.999	117.62
335.227	101.62
335.455	99.62
335.684	86.62
335.912	81.62
336.14	98.62
336.369	91.62
336.597	81.62
336.825	74.62
337.053	93.62
337.281	88.62
337.51	79.62
337.738	95.62
337.966	83.62
338.194	81.62
338.422	76.62
338.65	86.62
338.878	77.62
339.106	86.62
339.334	99.62
339.562	85.62
339.79	88.62
340.018	80.62
340.246	96.62
340.474	90.62
340.702	97.62
340.93	94.62
341.158	78.62
341.386	87.62
341.614	97.62
341.842	93.62
342.07	93.62
342.298	84.62
342.526	82.62
342.754	73.62
342.981	94.62
343.209	77.62
343.437	89.62
343.665	85.62
343.893	76.62
344.12	78.62
344.348	85.62
344.576	97.62
344.804	81.62
345.031	90.62
345.259	93.62
345.487	85.62
345.714	81.62
345.942	79.62
346.17	83.62
346.397	96.62
346.625	85.62
346.853	84.62
347.08	84.62
347.308	75.62
347.535	85.62
347.763	85.62
347.99	86.62
348.218	85.62
348.445	87.62
348.673	88.62
348.9	89.62
349.128	77.62
349.355	67.62
349.583	99.62
349.81	89.62
350.037	86.62
350.265	77.62
350.492	82.62
350.72	82.62
350.947	83.62
351.174	84.62
351.402	99.62
351.629	89.62
351.856	93.62
352.083	98.62
352.311	93.62
352.538	111.62
352.765	88.62
352.992	102.62
353.22	103.62
353.447	87.62
353.674	76.62
353.901	83.62
354.128	77.62
354.355	82.62
354.583	83.62
354.81	93.62
355.037	90.62
355.264	90.62
355.491	92.62
355.718	86.62
355.945	95.62
356.172	93.62
356.399	86.62
356.626	75.62
356.853	93.62
357.08	95.62
357.307	88.62
357.534	88.62
357.761	81.62
357.988	69.62
358.215	73.62
358.441	111.62
358.668	84.62
358.895	83.62
359.122	89.62
359.349	85.62
359.576	83.62
359.802	91.62
360.029	92.62
360.256	94.62
360.483	88.62
360.709	80.62
360.936	91.62
361.163	72.62
361.39	92.62
361.616	83.62
361.843	74.62
362.07	96.62
362.296	97.62
362.523	87.62
362.749	90.62
362.976	80.62
363.203	91.62
363.429	64.62
363.656	83.62
363.882	92.62
364.109	81.62
364.335	74.62
364.562	102.62
364.788	97.62
365.015	85.62
365.241	102.62
365.468	107.62
365.694	91.62
365.92	91.62
366.147	77.62
366.373	84.62
366.599	85.62
366.826	89.62
367.052	92.62
367.278	82.62
367.505	72.62
367.731	83.62
367.957	95.62
368.184	76.62
368.41	84.62
368.636	88.62
368.862	105.62
369.089	100.62
369.315	93.62
369.541	89.62
369.767	89.62
369.993	88.62
370.219	91.62
370.445	105.62
370.672	87.62
370.898	84.62
371.124	93.62
371.35	82.62
371.576	86.62
371.802	74.62
372.028	83.62
372.254	82.62
372.48	93.62
372.706	84.62
372.932	71.62
373.158	60.62
373.384	79.62
373.61	85.62
373.835	72.62
374.061	84.62
374.287	79.62
374.513	78.62
374.739	81.62
374.965	80.62
375.191	86.62
375.416	95.62
375.642	69.62
375.868	75.62
376.094	98.62
376.319	84.62
376.545	81.62
376.771	82.62
376.997	80.62
377.222	84.62
377.448	86.62
377.674	85.62
377.899	87.62
378.125	103.62
378.35	79.62
378.576	80.62
378.802	84.62
379.027	83.62
379.253	83.62
379.478	77.62
379.704	102.62
379.929	92.62
380.155	77.62
380.38	77.62
380.606	101.62
380.831	95.62
381.057	81.62
381.282	83.62
381.507	101.62
381.733	86.62
381.958	91.62
382.184	105.62
382.409	75.62
382.634	103.62
382.86	86.62
383.085	101.62
383.31	99.62
383.535	86.62
383.761	94.62
383.986	90.62
384.211	105.62
384.436	87.62
384.662	97.62
384.887	95.62
385.112	101.62
385.337	101.62
385.562	100.62
385.787	92.62
386.013	98.62
386.238	106.62
386.463	90.62
386.688	95.62
386.913	92.62
387.138	110.62
387.363	96.62
387.588	81.62
387.813	92.62
388.038	95.62
388.263	102.62
388.488	96.62
388.713	82.62
388.938	93.62
389.163	108.62
389.387	89.62
389.612	80.62
389.837	79.62
390.062	94.62
390.287	80.62
390.512	71.62
390.736	76.62
390.961	86.62
391.186	96.62
391.411	95.62
391.636	90.62
391.86	87.62
392.085	79.62
392.31	84.62
392.534	88.62
392.759	82.62
392.984	76.62
393.208	89.62
393.433	104.62
393.658	84.62
393.882	76.62
394.107	69.62
394.331	88.62
394.556	87.62
394.78	75.62
395.005	80.62
395.229	89.62
395.454	87.62
395.678	88.62
395.903	90.62
396.127	89.62
396.352	78.62
396.576	96.62
396.801	80.62
397.025	84.62
397.249	90.62
397.474	90.62
397.698	77.62
397.922	76.62
398.147	73.62
398.371	79.62
398.595	91.62
398.82	78.62
399.044	71.62
399.268	98.62
399.492	79.62
399.717	85.62
399.941	72.62
400.165	81.62
400.389	85.62
400.613	80.62
400.837	81.62
401.062	84.62
401.286	82.62
401.51	96.62
401.734	76.62
401.958	81.62
402.182	101.62
402.406	128.62
402.63	95.62
402.854	96.62
403.078	91.62
403.302	83.62
403.526	90.62
403.75	91.62
403.974	77.62
404.198	87.62
404.422	78.62
404.645	88.62
404.869	81.62
405.093	84.62
405.317	89.62
405.541	93.62
405.765	87.62
405.988	100.62
406.212	147.62
406.436	176.62
406.66	110.62
406.883	88.62
407.107	83.62
407.331	89.62
407.555	87.62
407.778	81.62
408.002	67.62
408.226	79.62
408.449	82.62
408.673	102.62
408.896	86.62
409.12	98.62
409.344	83.62
409.567	84.62
409.791	87.62
410.014	92.62
410.238	76.62
410.461	89.62
410.685	82.62
410.908	92.62
411.132	97.62
411.355	97.62
411.578	90.62
411.802	82.62
412.025	73.62
412.249	87.62
412.472	87.62
412.695	90.62
412.919	92.62
413.142	79.62
413.365	78.62
413.589	91.62
413.812	88.62
414.035	82.62
414.258	107.62
414.482	71.62
414.705	96.62
414.928	87.62
415.151	96.62
415.374	75.62
415.597	93.62
415.821	85.62
416.044	79.62
416.267	75.62
416.49	98.62
416.713	76.62
416.936	90.62
417.159	73.62
417.382	77.62
417.605	82.62
417.828	93.62
418.051	81.62
418.274	85.62
418.497	96.62
418.72	85.62
418.943	77.62
419.166	92.62
419.389	88.62
419.611	81.62
419.834	75.62
420.057	94.62
420.28	93.62
420.503	83.62
420.726	75.62
420.948	79.62
421.171	79.62
421.394	69.62
421.617	90.62
421.839	76.62
422.062	85.62
422.285	87.62
422.507	91.62
422.73	93.62
422.953	88.62
423.175	72.62
423.398	84.62
423.621	95.62
423.843	87.62
424.066	74.62
424.288	76.62
424.511	84.62
424.733	103.62
424.956	103.62
425.178	78.62
425.401	89.62
425.623	87.62
425.846	92.62
426.068	93.62
426.291	88.62
426.513	79.62
426.735	82.62
426.958	97.62
427.18	102.62
427.402	118.62
427.625	135.62
427.847	121.62
428.069	104.62
428.292	96.62
428.514	73.62
428.736	85.62
428.958	82.62
429.181	85.62
429.403	84.62
429.625	76.62
429.847	85.62
430.069	89.62
430.292	85.62
430.514	83.62
430.736	77.62
430.958	72.62
431.18	76.62
431.402	72.62
431.624	87.62
431.846	66.62
432.068	70.62
432.29	75.62
432.512	85.62
432.734	92.62
432.956	89.62
433.178	98.62
433.4	77.62
433.622	90.62
433.844	89.62
434.066	67.62
434.287	82.62
434.509	86.62
434.731	68.62
434.953	89.62
435.175	99.62
435.397	86.62
435.618	100.62
435.84	103.62
436.062	103.62
436.284	104.62
436.505	91.62
436.727	79.62
436.949	77.62
437.17	87.62
437.392	77.62
437.614	96.62
437.835	93.62
438.057	93.62
438.278	101.62
438.5	81.62
438.721	96.62
438.943	85.62
439.165	84.62
439.386	69.62
439.608	89.62
439.829	99.62
440.05	115.62
440.272	127.62
440.493	98.62
440.715	80.62
440.936	85.62
441.158	60.62
441.379	86.62
441.6	77.62
441.822	87.62
442.043	71.62
442.264	96.62
442.486	95.62
442.707	88.62
442.928	91.62
443.149	115.62
443.371	113.62
443.592	108.62
443.813	93.62
444.034	96.62
444.255	78.62
444.476	86.62
444.698	85.62
444.919	75.62
445.14	126.62
445.361	105.62
445.582	101.62
445.803	114.62
446.024	112.62
446.245	123.62
446.466	85.62
446.687	95.62
446.908	71.62
447.129	76.62
447.35	104.62
447.571	91.62
447.792	87.62
448.013	96.62
448.234	98.62
448.455	87.62
448.675	108.62
448.896	105.62
449.117	95.62
449.338	95.62
449.559	100.62
449.779	115.62
450	87.62
450.221	74.62
450.442	77.62
450.662	93.62
450.883	92.62
451.104	79.62
451.324	90.62
451.545	97.62
451.766	77.62
451.986	87.62
452.207	90.62
452.428	73.62
452.648	74.62
452.869	95.62
453.089	100.62
453.31	91.62
453.53	89.62
453.751	74.62
453.971	87.62
454.192	100.62
454.412	77.62
454.633	95.62
454.853	81.62
455.073	89.62
455.294	76.62
455.514	82.62
455.734	77.62
455.955	88.62
456.175	81.62
456.395	77.62
456.616	80.62
456.836	88.62
457.056	93.62
457.276	77.62
457.497	80.62
457.717	81.62
457.937	91.62
458.157	83.62
458.377	88.62
458.598	98.62
458.818	127.62
459.038	117.62
459.258	93.62
459.478	76.62
459.698	85.62
459.918	84.62
460.138	97.62
460.358	80.62
460.578	89.62
460.798	82.62
461.018	93.62
461.238	84.62
461.458	80.62
461.678	81.62
461.898	82.62
462.118	70.62
462.338	82.62
462.558	86.62
462.777	82.62
462.997	84.62
463.217	75.62
463.437	82.62
463.657	82.62
463.876	79.62
464.096	82.62
464.316	84.62
464.536	81.62
464.755	107.62
464.975	91.62
465.195	131.62
465.414	126.62
465.634	94.62
465.854	92.62
466.073	91.62
466.293	77.62
466.512	85.62
466.732	79.62
466.951	83.62
467.171	79.62
467.391	92.62
467.61	92.62
467.829	101.62
468.049	128.62
468.268	159.62
468.488	90.62
468.707	69.62
468.927	64.62
469.146	77.62
469.365	75.62
469.585	91.62
469.804	81.62
470.023	77.62
470.243	87.62
470.462	95.62
470.681	99.62
470.901	86.62
471.12	88.62
471.339	85.62
471.558	95.62
471.777	88.62
471.997	102.62
472.216	200.62
472.435	352.62
472.654	133.62
472.873	87.62
473.092	71.62
473.311	70.62
473.53	80.62
473.749	87.62
473.968	80.62
474.187	90.62
474.406	89.62
474.625	81.62
474.844	84.62
475.063	83.62
475.282	88.62
475.501	82.62
475.72	94.62
475.939	84.62
476.158	88.62
476.377	76.62
476.596	68.62
476.814	80.62
477.033	99.62
477.252	87.62
477.471	99.62
477.69	87.62
477.908	78.62
478.127	86.62
478.346	96.62
478.564	91.62
478.783	95.62
479.002	83.62
479.22	88.62
479.439	88.62
479.658	92.62
479.876	77.62
480.095	83.62
480.313	84.62
480.532	91.62
480.751	86.62
480.969	203.62
481.188	573.62
481.406	377.62
481.624	129.62
481.843	99.62
482.061	82.62
482.28	87.62
482.498	85.62
482.717	71.62
482.935	92.62
483.153	81.62
483.372	78.62
483.59	90.62
483.808	89.62
484.027	106.62
484.245	100.62
484.463	97.62
484.681	95.62
484.9	75.62
485.118	91.62
485.336	78.62
485.554	87.62
485.772	87.62
485.99	97.62
486.209	88.62
486.427	92.62
486.645	91.62
486.863	100.62
487.081	82.62
487.299	92.62
487.517	104.62
487.735	80.62
487.953	86.62
488.171	96.62
488.389	85.62
488.607	97.62
488.825	76.62
489.043	95.62
489.261	82.62
489.479	90.62
489.696	87.62
489.914	91.62
490.132	86.62
490.35	85.62
490.568	88.62
490.786	81.62
491.003	88.62
491.221	88.62
491.439	92.62
491.657	102.62
491.874	96.62
492.092	86.62
492.31	91.62
492.527	82.62
492.745	83.62
492.963	83.62
493.18	98.62
493.398	98.62
493.615	84.62
493.833	79.62
494.05	75.62
494.268	77.62
494.485	86.62
494.703	87.62
494.92	89.62
495.138	72.62
495.355	83.62
495.573	80.62
495.79	86.62
496.008	99.62
496.225	84.62
496.442	90.62
496.66	87.62
496.877	87.62
497.094	89.62
497.312	103.62
497.529	86.62
497.746	85.62
497.963	92.62
498.181	89.62
498.398	90.62
498.615	116.62
498.832	93.62
499.049	87.62
499.267	88.62
499.484	73.62
499.701	76.62
499.918	86.62
500.135	84.62
500.352	72.62
500.569	75.62
500.786	78.62
501.003	92.62
501.22	80.62
501.437	93.62
501.654	80.62
501.871	95.62
502.088	97.62
502.305	90.62
502.522	86.62
502.739	83.62
502.956	88.62
503.172	98.62
503.389	98.62
503.606	80.62
503.823	79.62
504.04	89.62
504.256	88.62
504.473	84.62
504.69	95.62
504.907	100.62
505.123	72.62
505.34	87.62
505.557	85.62
505.773	90.62
505.99	97.62
506.207	93.62
506.423	81.62
506.64	99.62
506.856	87.62
507.073	100.62
507.289	78.62
507.506	91.62
507.722	94.62
507.939	96.62
508.155	83.62
508.372	107.62
508.588	94.62
508.805	89.62
509.021	90.62
509.238	99.62
509.454	97.62
509.67	96.62
509.887	107.62
510.103	121.62
510.319	159.62
510.536	554.62
510.752	1691.62
510.968	487.62
511.184	137.62
511.401	102.62
511.617	97.62
511.833	104.62
512.049	85.62
512.265	78.62
512.481	85.62
512.698	85.62
512.914	82.62
513.13	99.62
513.346	86.62
513.562	86.62
513.778	82.62
513.994	95.62
514.21	98.62
514.426	104.62
514.642	124.62
514.858	113.62
515.074	126.62
515.29	329.62
515.506	994.62
515.721	394.62
515.937	119.62
516.153	95.62
516.369	99.62
516.585	84.62
516.801	90.62
517.016	100.62
517.232	89.62
517.448	90.62
517.664	94.62
