Data from Circ_2010_H10_HRD10591_00071.txt Node
Date: Wed Jan 03 10:09:55 EST 2024
User: Yrep
Spectrometer: HR+D1059
Trigger mode: 1
Integration Time (sec): 1.000000E-1
Scans to average: 1
Electric dark correction enabled: true
Nonlinearity correction enabled: false
Boxcar width: 0
XAxis mode: Wavelengths
Number of Pixels in Spectrum: 2048
>>>>>Begin Spectral Data<<<<<
223.165	-24.88
223.4	-24.88
223.635	-24.88
223.869	-10.88
224.104	-16.88
224.338	-10.88
224.573	-16.88
224.808	-15.88
225.042	-4.88
225.277	-6.88
225.511	-6.88
225.746	1.12
225.98	16.12
226.215	17.12
226.449	23.12
226.683	13.12
226.918	23.12
227.152	21.12
227.387	40.12
227.621	35.12
227.856	38.12
228.09	56.12
228.324	41.12
228.559	58.12
228.793	67.12
229.027	55.12
229.262	49.12
229.496	71.12
229.73	89.12
229.964	90.12
230.199	83.12
230.433	82.12
230.667	66.12
230.901	93.12
231.136	81.12
231.37	72.12
231.604	75.12
231.838	81.12
232.072	79.12
232.306	79.12
232.541	89.12
232.775	72.12
233.009	84.12
233.243	73.12
233.477	85.12
233.711	68.12
233.945	85.12
234.179	73.12
234.413	85.12
234.647	81.12
234.881	77.12
235.115	90.12
235.349	88.12
235.583	84.12
235.817	83.12
236.051	84.12
236.285	83.12
236.519	81.12
236.753	72.12
236.987	72.12
237.221	87.12
237.455	67.12
237.689	70.12
237.922	80.12
238.156	84.12
238.39	69.12
238.624	73.12
238.858	80.12
239.091	84.12
239.325	67.12
239.559	64.12
239.793	82.12
240.027	83.12
240.26	76.12
240.494	69.12
240.728	70.12
240.961	75.12
241.195	91.12
241.429	85.12
241.662	71.12
241.896	79.12
242.13	84.12
242.363	77.12
242.597	81.12
242.83	82.12
243.064	89.12
243.298	77.12
243.531	70.12
243.765	76.12
243.998	85.12
244.232	82.12
244.465	79.12
244.699	76.12
244.932	78.12
245.166	89.12
245.399	85.12
245.633	73.12
245.866	85.12
246.099	85.12
246.333	76.12
246.566	80.12
246.8	83.12
247.033	72.12
247.266	93.12
247.5	75.12
247.733	80.12
247.966	80.12
248.2	77.12
248.433	81.12
248.666	79.12
248.899	92.12
249.133	94.12
249.366	99.12
249.599	104.12
249.832	77.12
250.066	87.12
250.299	78.12
250.532	77.12
250.765	80.12
250.998	67.12
251.231	78.12
251.465	77.12
251.698	77.12
251.931	79.12
252.164	97.12
252.397	71.12
252.63	73.12
252.863	77.12
253.096	84.12
253.329	69.12
253.562	81.12
253.795	75.12
254.028	81.12
254.261	82.12
254.494	73.12
254.727	79.12
254.96	83.12
255.193	82.12
255.426	75.12
255.659	83.12
255.892	77.12
256.124	72.12
256.357	86.12
256.59	88.12
256.823	91.12
257.056	90.12
257.289	89.12
257.521	75.12
257.754	76.12
257.987	79.12
258.22	91.12
258.452	83.12
258.685	97.12
258.918	83.12
259.151	82.12
259.383	76.12
259.616	87.12
259.849	85.12
260.081	84.12
260.314	87.12
260.547	75.12
260.779	85.12
261.012	84.12
261.244	80.12
261.477	96.12
261.71	96.12
261.942	105.12
262.175	96.12
262.407	81.12
262.64	74.12
262.872	87.12
263.105	90.12
263.337	82.12
263.57	79.12
263.802	72.12
264.035	85.12
264.267	87.12
264.499	63.12
264.732	83.12
264.964	84.12
265.197	79.12
265.429	78.12
265.661	87.12
265.894	97.12
266.126	78.12
266.358	83.12
266.591	91.12
266.823	91.12
267.055	79.12
267.287	85.12
267.52	79.12
267.752	87.12
267.984	88.12
268.216	87.12
268.448	72.12
268.681	81.12
268.913	76.12
269.145	84.12
269.377	77.12
269.609	79.12
269.841	76.12
270.073	88.12
270.306	84.12
270.538	90.12
270.77	97.12
271.002	92.12
271.234	79.12
271.466	79.12
271.698	95.12
271.93	85.12
272.162	95.12
272.394	82.12
272.626	78.12
272.858	79.12
273.09	83.12
273.322	79.12
273.553	72.12
273.785	82.12
274.017	76.12
274.249	92.12
274.481	86.12
274.713	69.12
274.945	89.12
275.176	80.12
275.408	88.12
275.64	86.12
275.872	88.12
276.104	70.12
276.335	86.12
276.567	101.12
276.799	92.12
277.031	97.12
277.262	94.12
277.494	85.12
277.726	85.12
277.957	79.12
278.189	90.12
278.421	83.12
278.652	82.12
278.884	85.12
279.115	88.12
279.347	90.12
279.579	84.12
279.81	93.12
280.042	105.12
280.273	100.12
280.505	88.12
280.736	92.12
280.968	92.12
281.199	85.12
281.431	85.12
281.662	85.12
281.894	95.12
282.125	88.12
282.356	117.12
282.588	111.12
282.819	101.12
283.051	76.12
283.282	87.12
283.513	92.12
283.745	92.12
283.976	89.12
284.207	94.12
284.439	91.12
284.67	74.12
284.901	85.12
285.132	89.12
285.364	101.12
285.595	88.12
285.826	71.12
286.057	83.12
286.288	90.12
286.52	87.12
286.751	69.12
286.982	68.12
287.213	84.12
287.444	86.12
287.675	73.12
287.906	90.12
288.138	92.12
288.369	85.12
288.6	105.12
288.831	83.12
289.062	78.12
289.293	90.12
289.524	76.12
289.755	89.12
289.986	76.12
290.217	79.12
290.448	88.12
290.679	78.12
290.91	84.12
291.141	101.12
291.371	80.12
291.602	85.12
291.833	90.12
292.064	88.12
292.295	76.12
292.526	88.12
292.757	71.12
292.987	86.12
293.218	77.12
293.449	89.12
293.68	82.12
293.91	90.12
294.141	98.12
294.372	85.12
294.603	70.12
294.833	93.12
295.064	87.12
295.295	92.12
295.525	88.12
295.756	104.12
295.987	97.12
296.217	101.12
296.448	100.12
296.679	94.12
296.909	102.12
297.14	89.12
297.37	76.12
297.601	82.12
297.831	84.12
298.062	84.12
298.292	86.12
298.523	103.12
298.753	91.12
298.984	78.12
299.214	98.12
299.445	87.12
299.675	88.12
299.905	100.12
300.136	90.12
300.366	75.12
300.597	87.12
300.827	92.12
301.057	97.12
301.288	93.12
301.518	97.12
301.748	93.12
301.979	104.12
302.209	105.12
302.439	80.12
302.669	104.12
302.9	88.12
303.13	101.12
303.36	108.12
303.59	101.12
303.82	90.12
304.051	93.12
304.281	97.12
304.511	77.12
304.741	76.12
304.971	75.12
305.201	81.12
305.431	91.12
305.661	79.12
305.891	73.12
306.121	86.12
306.352	105.12
306.582	94.12
306.812	88.12
307.042	88.12
307.272	93.12
307.502	112.12
307.731	115.12
307.961	87.12
308.191	91.12
308.421	98.12
308.651	87.12
308.881	89.12
309.111	97.12
309.341	97.12
309.571	106.12
309.8	103.12
310.03	86.12
310.26	86.12
310.49	107.12
310.72	90.12
310.949	104.12
311.179	89.12
311.409	96.12
311.639	100.12
311.868	98.12
312.098	90.12
312.328	88.12
312.557	90.12
312.787	94.12
313.017	94.12
313.246	92.12
313.476	93.12
313.706	95.12
313.935	92.12
314.165	99.12
314.394	94.12
314.624	100.12
314.853	103.12
315.083	93.12
315.312	101.12
315.542	89.12
315.771	77.12
316.001	81.12
316.23	95.12
316.46	86.12
316.689	90.12
316.919	92.12
317.148	88.12
317.377	99.12
317.607	93.12
317.836	92.12
318.065	76.12
318.295	92.12
318.524	104.12
318.753	106.12
318.983	103.12
319.212	89.12
319.441	102.12
319.67	108.12
319.9	100.12
320.129	79.12
320.358	97.12
320.587	103.12
320.816	100.12
321.046	95.12
321.275	101.12
321.504	80.12
321.733	100.12
321.962	94.12
322.191	101.12
322.42	95.12
322.649	94.12
322.878	106.12
323.108	107.12
323.337	101.12
323.566	122.12
323.795	129.12
324.024	202.12
324.253	319.12
324.482	657.12
324.71	1287.12
324.939	1660.12
325.168	647.12
325.397	210.12
325.626	140.12
325.855	116.12
326.084	118.12
326.313	111.12
326.542	138.12
326.77	213.12
326.999	401.12
327.228	779.12
327.457	1329.12
327.686	1069.12
327.914	315.12
328.143	193.12
328.372	167.12
328.6	133.12
328.829	108.12
329.058	121.12
329.287	116.12
329.515	105.12
329.744	125.12
329.972	140.12
330.201	190.12
330.43	216.12
330.658	159.12
330.887	128.12
331.115	110.12
331.344	102.12
331.572	106.12
331.801	100.12
332.03	101.12
332.258	107.12
332.486	104.12
332.715	85.12
332.943	86.12
333.172	92.12
333.4	92.12
333.629	97.12
333.857	116.12
334.085	139.12
334.314	190.12
334.542	263.12
334.771	269.12
334.999	134.12
335.227	108.12
335.455	106.12
335.684	118.12
335.912	103.12
336.14	85.12
336.369	102.12
336.597	95.12
336.825	94.12
337.053	88.12
337.281	94.12
337.51	93.12
337.738	97.12
337.966	90.12
338.194	80.12
338.422	85.12
338.65	93.12
338.878	102.12
339.106	87.12
339.334	89.12
339.562	83.12
339.79	96.12
340.018	88.12
340.246	96.12
340.474	87.12
340.702	111.12
340.93	94.12
341.158	99.12
341.386	90.12
341.614	89.12
341.842	91.12
342.07	86.12
342.298	101.12
342.526	100.12
342.754	85.12
342.981	85.12
343.209	84.12
343.437	99.12
343.665	84.12
343.893	76.12
344.12	85.12
344.348	89.12
344.576	103.12
344.804	90.12
345.031	94.12
345.259	89.12
345.487	88.12
345.714	86.12
345.942	87.12
346.17	84.12
346.397	92.12
346.625	96.12
346.853	94.12
347.08	86.12
347.308	101.12
347.535	90.12
347.763	100.12
347.99	105.12
348.218	83.12
348.445	90.12
348.673	94.12
348.9	110.12
349.128	88.12
349.355	102.12
349.583	97.12
349.81	99.12
350.037	91.12
350.265	109.12
350.492	119.12
350.72	95.12
350.947	100.12
351.174	91.12
351.402	102.12
351.629	102.12
351.856	99.12
352.083	85.12
352.311	91.12
352.538	106.12
352.765	117.12
352.992	115.12
353.22	116.12
353.447	99.12
353.674	85.12
353.901	88.12
354.128	95.12
354.355	105.12
354.583	102.12
354.81	107.12
355.037	87.12
355.264	100.12
355.491	93.12
355.718	90.12
355.945	85.12
356.172	85.12
356.399	86.12
356.626	88.12
356.853	88.12
357.08	93.12
357.307	92.12
357.534	104.12
357.761	90.12
357.988	95.12
358.215	102.12
358.441	97.12
358.668	92.12
358.895	91.12
359.122	109.12
359.349	85.12
359.576	88.12
359.802	89.12
360.029	95.12
360.256	105.12
360.483	104.12
360.709	83.12
360.936	95.12
361.163	105.12
361.39	93.12
361.616	86.12
361.843	68.12
362.07	87.12
362.296	104.12
362.523	96.12
362.749	95.12
362.976	95.12
363.203	101.12
363.429	87.12
363.656	93.12
363.882	79.12
364.109	85.12
364.335	86.12
364.562	86.12
364.788	92.12
365.015	96.12
365.241	100.12
365.468	110.12
365.694	104.12
365.92	89.12
366.147	83.12
366.373	91.12
366.599	92.12
366.826	94.12
367.052	95.12
367.278	99.12
367.505	102.12
367.731	94.12
367.957	87.12
368.184	96.12
368.41	100.12
368.636	93.12
368.862	101.12
369.089	104.12
369.315	81.12
369.541	89.12
369.767	89.12
369.993	101.12
370.219	87.12
370.445	80.12
370.672	94.12
370.898	103.12
371.124	81.12
371.35	82.12
371.576	82.12
371.802	85.12
372.028	78.12
372.254	90.12
372.48	69.12
372.706	79.12
372.932	76.12
373.158	85.12
373.384	90.12
373.61	89.12
373.835	95.12
374.061	102.12
374.287	92.12
374.513	85.12
374.739	85.12
374.965	76.12
375.191	76.12
375.416	87.12
375.642	101.12
375.868	91.12
376.094	93.12
376.319	82.12
376.545	88.12
376.771	89.12
376.997	88.12
377.222	110.12
377.448	88.12
377.674	95.12
377.899	97.12
378.125	83.12
378.35	94.12
378.576	92.12
378.802	84.12
379.027	93.12
379.253	87.12
379.478	78.12
379.704	91.12
379.929	92.12
380.155	87.12
380.38	92.12
380.606	103.12
380.831	86.12
381.057	88.12
381.282	88.12
381.507	100.12
381.733	100.12
381.958	93.12
382.184	110.12
382.409	96.12
382.634	96.12
382.86	80.12
383.085	97.12
383.31	97.12
383.535	98.12
383.761	104.12
383.986	86.12
384.211	94.12
384.436	92.12
384.662	112.12
384.887	91.12
385.112	89.12
385.337	100.12
385.562	108.12
385.787	107.12
386.013	104.12
386.238	109.12
386.463	95.12
386.688	104.12
386.913	96.12
387.138	117.12
387.363	97.12
387.588	102.12
387.813	112.12
388.038	108.12
388.263	118.12
388.488	100.12
388.713	101.12
388.938	99.12
389.163	96.12
389.387	98.12
389.612	86.12
389.837	85.12
390.062	98.12
390.287	80.12
390.512	91.12
390.736	97.12
390.961	100.12
391.186	103.12
391.411	95.12
391.636	85.12
391.86	84.12
392.085	86.12
392.31	67.12
392.534	96.12
392.759	77.12
392.984	99.12
393.208	85.12
393.433	88.12
393.658	97.12
393.882	89.12
394.107	100.12
394.331	87.12
394.556	73.12
394.78	79.12
395.005	94.12
395.229	80.12
395.454	71.12
395.678	97.12
395.903	85.12
396.127	87.12
396.352	82.12
396.576	92.12
396.801	87.12
397.025	84.12
397.249	88.12
397.474	89.12
397.698	78.12
397.922	88.12
398.147	92.12
398.371	86.12
398.595	91.12
398.82	93.12
399.044	86.12
399.268	84.12
399.492	89.12
399.717	88.12
399.941	83.12
400.165	94.12
400.389	88.12
400.613	87.12
400.837	80.12
401.062	87.12
401.286	88.12
401.51	89.12
401.734	85.12
401.958	93.12
402.182	104.12
402.406	131.12
402.63	103.12
402.854	77.12
403.078	79.12
403.302	88.12
403.526	85.12
403.75	72.12
403.974	85.12
404.198	88.12
404.422	88.12
404.645	93.12
404.869	83.12
405.093	107.12
405.317	98.12
405.541	101.12
405.765	86.12
405.988	102.12
406.212	128.12
406.436	168.12
406.66	120.12
406.883	88.12
407.107	87.12
407.331	92.12
407.555	89.12
407.778	94.12
408.002	89.12
408.226	94.12
408.449	81.12
408.673	83.12
408.896	94.12
409.12	86.12
409.344	92.12
409.567	93.12
409.791	81.12
410.014	96.12
410.238	99.12
410.461	96.12
410.685	97.12
410.908	102.12
411.132	93.12
411.355	82.12
411.578	79.12
411.802	79.12
412.025	85.12
412.249	88.12
412.472	94.12
412.695	98.12
412.919	78.12
413.142	85.12
413.365	90.12
413.589	80.12
413.812	91.12
414.035	85.12
414.258	80.12
414.482	101.12
414.705	91.12
414.928	88.12
415.151	97.12
415.374	101.12
415.597	101.12
415.821	101.12
416.044	81.12
416.267	75.12
416.49	90.12
416.713	86.12
416.936	89.12
417.159	84.12
417.382	82.12
417.605	85.12
417.828	88.12
418.051	86.12
418.274	83.12
418.497	88.12
418.72	87.12
418.943	75.12
419.166	93.12
419.389	92.12
419.611	80.12
419.834	93.12
420.057	89.12
420.28	91.12
420.503	102.12
420.726	94.12
420.948	96.12
421.171	98.12
421.394	78.12
421.617	93.12
421.839	88.12
422.062	88.12
422.285	99.12
422.507	101.12
422.73	105.12
422.953	100.12
423.175	87.12
423.398	91.12
423.621	87.12
423.843	98.12
424.066	103.12
424.288	85.12
424.511	89.12
424.733	89.12
424.956	103.12
425.178	87.12
425.401	100.12
425.623	98.12
425.846	88.12
426.068	94.12
426.291	100.12
426.513	102.12
426.735	90.12
426.958	90.12
427.18	94.12
427.402	109.12
427.625	131.12
427.847	131.12
428.069	125.12
428.292	92.12
428.514	88.12
428.736	94.12
428.958	77.12
429.181	102.12
429.403	88.12
429.625	86.12
429.847	93.12
430.069	118.12
430.292	89.12
430.514	93.12
430.736	87.12
430.958	69.12
431.18	89.12
431.402	81.12
431.624	89.12
431.846	85.12
432.068	98.12
432.29	89.12
432.512	99.12
432.734	85.12
432.956	96.12
433.178	100.12
433.4	85.12
433.622	89.12
433.844	86.12
434.066	109.12
434.287	91.12
434.509	83.12
434.731	87.12
434.953	96.12
435.175	89.12
435.397	81.12
435.618	95.12
435.84	97.12
436.062	115.12
436.284	95.12
436.505	90.12
436.727	96.12
436.949	80.12
437.17	97.12
437.392	89.12
437.614	97.12
437.835	89.12
438.057	119.12
438.278	100.12
438.5	86.12
438.721	106.12
438.943	107.12
439.165	90.12
439.386	100.12
439.608	89.12
439.829	85.12
440.05	105.12
440.272	117.12
440.493	78.12
440.715	70.12
440.936	86.12
441.158	81.12
441.379	85.12
441.6	91.12
441.822	86.12
442.043	87.12
442.264	119.12
442.486	84.12
442.707	75.12
442.928	109.12
443.149	101.12
443.371	111.12
443.592	97.12
443.813	106.12
444.034	97.12
444.255	89.12
444.476	82.12
444.698	81.12
444.919	95.12
445.14	139.12
445.361	121.12
445.582	103.12
445.803	120.12
446.024	116.12
446.245	101.12
446.466	100.12
446.687	78.12
446.908	91.12
447.129	86.12
447.35	85.12
447.571	90.12
447.792	96.12
448.013	84.12
448.234	112.12
448.455	93.12
448.675	106.12
448.896	117.12
449.117	103.12
449.338	104.12
449.559	105.12
449.779	109.12
450	90.12
450.221	89.12
450.442	93.12
450.662	89.12
450.883	99.12
451.104	103.12
451.324	99.12
451.545	95.12
451.766	75.12
451.986	90.12
452.207	95.12
452.428	91.12
452.648	92.12
452.869	101.12
453.089	96.12
453.31	109.12
453.53	81.12
453.751	92.12
453.971	97.12
454.192	98.12
454.412	94.12
454.633	101.12
454.853	90.12
455.073	87.12
455.294	86.12
455.514	100.12
455.734	96.12
455.955	62.12
456.175	84.12
456.395	101.12
456.616	93.12
456.836	99.12
457.056	82.12
457.276	81.12
457.497	80.12
457.717	90.12
457.937	87.12
458.157	88.12
458.377	83.12
458.598	91.12
458.818	133.12
459.038	133.12
459.258	110.12
459.478	96.12
459.698	91.12
459.918	81.12
460.138	82.12
460.358	87.12
460.578	81.12
460.798	80.12
461.018	88.12
461.238	94.12
461.458	87.12
461.678	90.12
461.898	85.12
462.118	88.12
462.338	88.12
462.558	79.12
462.777	92.12
462.997	92.12
463.217	99.12
463.437	74.12
463.657	85.12
463.876	76.12
464.096	88.12
464.316	78.12
464.536	85.12
464.755	108.12
464.975	93.12
465.195	115.12
465.414	110.12
465.634	98.12
465.854	86.12
466.073	79.12
466.293	80.12
466.512	100.12
466.732	95.12
466.951	78.12
467.171	89.12
467.391	101.12
467.61	92.12
467.829	98.12
468.049	130.12
468.268	158.12
468.488	98.12
468.707	84.12
468.927	83.12
469.146	88.12
469.365	96.12
469.585	81.12
469.804	81.12
470.023	103.12
470.243	97.12
470.462	96.12
470.681	109.12
470.901	92.12
471.12	76.12
471.339	91.12
471.558	92.12
471.777	95.12
471.997	113.12
472.216	207.12
472.435	364.12
472.654	161.12
472.873	94.12
473.092	78.12
473.311	91.12
473.53	91.12
473.749	95.12
473.968	96.12
474.187	98.12
474.406	92.12
474.625	92.12
474.844	88.12
475.063	95.12
475.282	96.12
475.501	87.12
475.72	87.12
475.939	80.12
476.158	84.12
476.377	87.12
476.596	93.12
476.814	105.12
477.033	83.12
477.252	90.12
477.471	89.12
477.69	100.12
477.908	87.12
478.127	94.12
478.346	84.12
478.564	84.12
478.783	95.12
479.002	85.12
479.22	96.12
479.439	109.12
479.658	98.12
479.876	101.12
480.095	99.12
480.313	92.12
480.532	119.12
480.751	112.12
480.969	203.12
481.188	574.12
481.406	371.12
481.624	112.12
481.843	87.12
482.061	102.12
482.28	81.12
482.498	89.12
482.717	80.12
482.935	84.12
483.153	94.12
483.372	99.12
483.59	95.12
483.808	92.12
484.027	80.12
484.245	80.12
484.463	79.12
484.681	88.12
484.9	83.12
485.118	89.12
485.336	94.12
485.554	103.12
485.772	93.12
485.99	83.12
486.209	101.12
486.427	102.12
486.645	106.12
486.863	100.12
487.081	105.12
487.299	90.12
487.517	95.12
487.735	89.12
487.953	77.12
488.171	102.12
488.389	99.12
488.607	94.12
488.825	85.12
489.043	85.12
489.261	112.12
489.479	98.12
489.696	85.12
489.914	86.12
490.132	91.12
490.35	87.12
490.568	99.12
490.786	97.12
491.003	79.12
491.221	78.12
491.439	93.12
491.657	90.12
491.874	95.12
492.092	94.12
492.31	82.12
492.527	70.12
492.745	93.12
492.963	97.12
493.18	88.12
493.398	104.12
493.615	89.12
493.833	99.12
494.05	105.12
494.268	94.12
494.485	90.12
494.703	81.12
494.92	97.12
495.138	87.12
495.355	92.12
495.573	79.12
495.79	97.12
496.008	94.12
496.225	108.12
496.442	91.12
496.66	102.12
496.877	86.12
497.094	83.12
497.312	95.12
497.529	88.12
497.746	94.12
497.963	101.12
498.181	85.12
498.398	79.12
498.615	108.12
498.832	116.12
499.049	102.12
499.267	100.12
499.484	99.12
499.701	92.12
499.918	86.12
500.135	94.12
500.352	89.12
500.569	89.12
500.786	96.12
501.003	86.12
501.22	82.12
501.437	96.12
501.654	85.12
501.871	109.12
502.088	93.12
502.305	87.12
502.522	94.12
502.739	94.12
502.956	88.12
503.172	105.12
503.389	94.12
503.606	96.12
503.823	100.12
504.04	87.12
504.256	80.12
504.473	83.12
504.69	87.12
504.907	88.12
505.123	86.12
505.34	94.12
505.557	91.12
505.773	95.12
505.99	80.12
506.207	99.12
506.423	87.12
506.64	86.12
506.856	102.12
507.073	87.12
507.289	103.12
507.506	90.12
507.722	104.12
507.939	87.12
508.155	106.12
508.372	88.12
508.588	103.12
508.805	94.12
509.021	84.12
509.238	93.12
509.454	95.12
509.67	105.12
509.887	91.12
510.103	143.12
510.319	177.12
510.536	555.12
510.752	1642.12
510.968	501.12
511.184	137.12
511.401	105.12
511.617	102.12
511.833	81.12
512.049	89.12
512.265	94.12
512.481	87.12
512.698	92.12
512.914	95.12
513.13	103.12
513.346	95.12
513.562	85.12
513.778	90.12
513.994	99.12
514.21	99.12
514.426	119.12
514.642	123.12
514.858	103.12
515.074	143.12
515.29	334.12
515.506	988.12
515.721	393.12
515.937	137.12
