Data from Circ_2010_H10_HRD10591_00072.txt Node
Date: Wed Jan 03 10:09:55 EST 2024
User: Yrep
Spectrometer: HR+D1059
Trigger mode: 1
Integration Time (sec): 1.000000E-1
Scans to average: 1
Electric dark correction enabled: true
Nonlinearity correction enabled: false
Boxcar width: 0
XAxis mode: Wavelengths
Number of Pixels in Spectrum: 2048
>>>>>Begin Spectral Data<<<<<
223.165	-23.94
223.4	-23.94
223.635	-23.94
223.869	-35.94
224.104	-37.94
224.338	-15.94
224.573	-12.94
224.808	-2.94
225.042	0.06
225.277	-6.94
225.511	-7.94
225.746	1.06
225.98	10.06
226.215	22.06
226.449	4.06
226.683	27.06
226.918	41.06
227.152	39.06
227.387	54.06
227.621	41.06
227.856	46.06
228.09	48.06
228.324	39.06
228.559	61.06
228.793	58.06
229.027	58.06
229.262	66.06
229.496	71.06
229.73	77.06
229.964	83.06
230.199	89.06
230.433	65.06
230.667	79.06
230.901	78.06
231.136	86.06
231.37	77.06
231.604	86.06
231.838	79.06
232.072	83.06
232.306	87.06
232.541	91.06
232.775	81.06
233.009	90.06
233.243	75.06
233.477	90.06
233.711	76.06
233.945	87.06
234.179	80.06
234.413	83.06
234.647	79.06
234.881	87.06
235.115	73.06
235.349	72.06
235.583	95.06
235.817	66.06
236.051	81.06
236.285	84.06
236.519	89.06
236.753	83.06
236.987	74.06
237.221	85.06
237.455	90.06
237.689	82.06
237.922	88.06
238.156	74.06
238.39	81.06
238.624	71.06
238.858	82.06
239.091	82.06
239.325	73.06
239.559	89.06
239.793	87.06
240.027	76.06
240.26	83.06
240.494	89.06
240.728	88.06
240.961	82.06
241.195	84.06
241.429	81.06
241.662	62.06
241.896	78.06
242.13	74.06
242.363	99.06
242.597	80.06
242.83	75.06
243.064	75.06
243.298	78.06
243.531	81.06
243.765	94.06
243.998	85.06
244.232	96.06
244.465	85.06
244.699	78.06
244.932	67.06
245.166	89.06
245.399	72.06
245.633	76.06
245.866	72.06
246.099	86.06
246.333	87.06
246.566	76.06
246.8	84.06
247.033	73.06
247.266	80.06
247.5	84.06
247.733	84.06
247.966	75.06
248.2	87.06
248.433	65.06
248.666	74.06
248.899	96.06
249.133	74.06
249.366	83.06
249.599	89.06
249.832	72.06
250.066	81.06
250.299	72.06
250.532	86.06
250.765	79.06
250.998	70.06
251.231	73.06
251.465	78.06
251.698	82.06
251.931	74.06
252.164	89.06
252.397	89.06
252.63	83.06
252.863	80.06
253.096	67.06
253.329	90.06
253.562	98.06
253.795	86.06
254.028	85.06
254.261	75.06
254.494	88.06
254.727	79.06
254.96	94.06
255.193	77.06
255.426	97.06
255.659	92.06
255.892	84.06
256.124	96.06
256.357	88.06
256.59	99.06
256.823	80.06
257.056	85.06
257.289	88.06
257.521	84.06
257.754	88.06
257.987	78.06
258.22	67.06
258.452	83.06
258.685	78.06
258.918	77.06
259.151	82.06
259.383	71.06
259.616	79.06
259.849	80.06
260.081	80.06
260.314	81.06
260.547	93.06
260.779	91.06
261.012	80.06
261.244	66.06
261.477	92.06
261.71	83.06
261.942	98.06
262.175	112.06
262.407	77.06
262.64	87.06
262.872	82.06
263.105	80.06
263.337	90.06
263.57	106.06
263.802	95.06
264.035	86.06
264.267	81.06
264.499	83.06
264.732	80.06
264.964	76.06
265.197	89.06
265.429	88.06
265.661	79.06
265.894	79.06
266.126	87.06
266.358	97.06
266.591	85.06
266.823	76.06
267.055	97.06
267.287	94.06
267.52	85.06
267.752	89.06
267.984	96.06
268.216	92.06
268.448	89.06
268.681	94.06
268.913	93.06
269.145	79.06
269.377	91.06
269.609	69.06
269.841	74.06
270.073	96.06
270.306	104.06
270.538	80.06
270.77	75.06
271.002	87.06
271.234	83.06
271.466	78.06
271.698	76.06
271.93	85.06
272.162	84.06
272.394	87.06
272.626	89.06
272.858	79.06
273.09	90.06
273.322	74.06
273.553	75.06
273.785	94.06
274.017	89.06
274.249	93.06
274.481	86.06
274.713	76.06
274.945	88.06
275.176	83.06
275.408	84.06
275.64	90.06
275.872	96.06
276.104	95.06
276.335	81.06
276.567	102.06
276.799	90.06
277.031	111.06
277.262	109.06
277.494	103.06
277.726	99.06
277.957	73.06
278.189	93.06
278.421	87.06
278.652	92.06
278.884	81.06
279.115	97.06
279.347	80.06
279.579	81.06
279.81	90.06
280.042	95.06
280.273	108.06
280.505	103.06
280.736	87.06
280.968	68.06
281.199	80.06
281.431	85.06
281.662	78.06
281.894	79.06
282.125	96.06
282.356	109.06
282.588	133.06
282.819	99.06
283.051	88.06
283.282	89.06
283.513	89.06
283.745	72.06
283.976	88.06
284.207	78.06
284.439	86.06
284.67	91.06
284.901	90.06
285.132	92.06
285.364	89.06
285.595	95.06
285.826	93.06
286.057	98.06
286.288	80.06
286.52	93.06
286.751	87.06
286.982	84.06
287.213	86.06
287.444	90.06
287.675	83.06
287.906	101.06
288.138	91.06
288.369	85.06
288.6	84.06
288.831	82.06
289.062	85.06
289.293	100.06
289.524	92.06
289.755	91.06
289.986	85.06
290.217	96.06
290.448	96.06
290.679	76.06
290.91	105.06
291.141	84.06
291.371	95.06
291.602	69.06
291.833	84.06
292.064	89.06
292.295	85.06
292.526	87.06
292.757	83.06
292.987	80.06
293.218	86.06
293.449	94.06
293.68	80.06
293.91	95.06
294.141	86.06
294.372	99.06
294.603	90.06
294.833	96.06
295.064	92.06
295.295	81.06
295.525	87.06
295.756	90.06
295.987	89.06
296.217	125.06
296.448	110.06
296.679	104.06
296.909	95.06
297.14	89.06
297.37	78.06
297.601	81.06
297.831	107.06
298.062	94.06
298.292	80.06
298.523	87.06
298.753	94.06
298.984	91.06
299.214	87.06
299.445	99.06
299.675	94.06
299.905	95.06
300.136	108.06
300.366	89.06
300.597	81.06
300.827	85.06
301.057	86.06
301.288	89.06
301.518	89.06
301.748	94.06
301.979	95.06
302.209	100.06
302.439	87.06
302.669	85.06
302.9	78.06
303.13	96.06
303.36	99.06
303.59	105.06
303.82	106.06
304.051	103.06
304.281	109.06
304.511	97.06
304.741	86.06
304.971	111.06
305.201	90.06
305.431	92.06
305.661	100.06
305.891	96.06
306.121	86.06
306.352	108.06
306.582	91.06
306.812	82.06
307.042	99.06
307.272	84.06
307.502	96.06
307.731	99.06
307.961	95.06
308.191	88.06
308.421	93.06
308.651	89.06
308.881	93.06
309.111	103.06
309.341	93.06
309.571	87.06
309.8	105.06
310.03	108.06
310.26	98.06
310.49	99.06
310.72	96.06
310.949	96.06
311.179	101.06
311.409	99.06
311.639	103.06
311.868	91.06
312.098	107.06
312.328	87.06
312.557	95.06
312.787	97.06
313.017	95.06
313.246	114.06
313.476	87.06
313.706	104.06
313.935	96.06
314.165	98.06
314.394	98.06
314.624	98.06
314.853	104.06
315.083	102.06
315.312	101.06
315.542	103.06
315.771	98.06
316.001	96.06
316.23	100.06
316.46	96.06
316.689	97.06
316.919	87.06
317.148	90.06
317.377	103.06
317.607	98.06
317.836	103.06
318.065	107.06
318.295	87.06
318.524	83.06
318.753	91.06
318.983	96.06
319.212	85.06
319.441	104.06
319.67	107.06
319.9	104.06
320.129	96.06
320.358	90.06
320.587	94.06
320.816	97.06
321.046	104.06
321.275	88.06
321.504	92.06
321.733	91.06
321.962	88.06
322.191	106.06
322.42	97.06
322.649	109.06
322.878	111.06
323.108	93.06
323.337	116.06
323.566	132.06
323.795	138.06
324.024	173.06
324.253	339.06
324.482	681.06
324.71	1318.06
324.939	1682.06
325.168	654.06
325.397	211.06
325.626	132.06
325.855	134.06
326.084	111.06
326.313	98.06
326.542	142.06
326.77	203.06
326.999	397.06
327.228	758.06
327.457	1323.06
327.686	1066.06
327.914	305.06
328.143	202.06
328.372	194.06
328.6	127.06
328.829	126.06
329.058	120.06
329.287	113.06
329.515	127.06
329.744	106.06
329.972	154.06
330.201	211.06
330.43	266.06
330.658	154.06
330.887	136.06
331.115	117.06
331.344	120.06
331.572	104.06
331.801	112.06
332.03	97.06
332.258	111.06
332.486	100.06
332.715	87.06
332.943	88.06
333.172	101.06
333.4	95.06
333.629	107.06
333.857	114.06
334.085	144.06
334.314	207.06
334.542	310.06
334.771	302.06
334.999	152.06
335.227	113.06
335.455	102.06
335.684	99.06
335.912	101.06
336.14	104.06
336.369	107.06
336.597	90.06
336.825	91.06
337.053	95.06
337.281	89.06
337.51	91.06
337.738	91.06
337.966	91.06
338.194	90.06
338.422	96.06
338.65	89.06
338.878	105.06
339.106	93.06
339.334	105.06
339.562	92.06
339.79	84.06
340.018	91.06
340.246	92.06
340.474	90.06
340.702	103.06
340.93	85.06
341.158	92.06
341.386	100.06
341.614	100.06
341.842	92.06
342.07	80.06
342.298	97.06
342.526	104.06
342.754	98.06
342.981	103.06
343.209	91.06
343.437	96.06
343.665	86.06
343.893	90.06
344.12	82.06
344.348	90.06
344.576	89.06
344.804	80.06
345.031	91.06
345.259	90.06
345.487	88.06
345.714	83.06
345.942	82.06
346.17	95.06
346.397	100.06
346.625	81.06
346.853	96.06
347.08	85.06
347.308	102.06
347.535	90.06
347.763	103.06
347.99	100.06
348.218	98.06
348.445	102.06
348.673	99.06
348.9	103.06
349.128	96.06
349.355	105.06
349.583	106.06
349.81	94.06
350.037	94.06
350.265	91.06
350.492	83.06
350.72	108.06
350.947	102.06
351.174	123.06
351.402	109.06
351.629	99.06
351.856	100.06
352.083	101.06
352.311	101.06
352.538	108.06
352.765	107.06
352.992	121.06
353.22	105.06
353.447	108.06
353.674	91.06
353.901	104.06
354.128	100.06
354.355	103.06
354.583	102.06
354.81	98.06
355.037	82.06
355.264	89.06
355.491	88.06
355.718	88.06
355.945	93.06
356.172	96.06
356.399	97.06
356.626	97.06
356.853	98.06
357.08	94.06
357.307	87.06
357.534	106.06
357.761	96.06
357.988	102.06
358.215	98.06
358.441	98.06
358.668	108.06
358.895	99.06
359.122	95.06
359.349	88.06
359.576	86.06
359.802	95.06
360.029	95.06
360.256	109.06
360.483	90.06
360.709	85.06
360.936	98.06
361.163	90.06
361.39	86.06
361.616	93.06
361.843	89.06
362.07	90.06
362.296	92.06
362.523	92.06
362.749	89.06
362.976	96.06
363.203	95.06
363.429	96.06
363.656	98.06
363.882	91.06
364.109	92.06
364.335	93.06
364.562	95.06
364.788	96.06
365.015	95.06
365.241	102.06
365.468	113.06
365.694	107.06
365.92	95.06
366.147	87.06
366.373	79.06
366.599	91.06
366.826	77.06
367.052	99.06
367.278	104.06
367.505	89.06
367.731	86.06
367.957	83.06
368.184	93.06
368.41	98.06
368.636	99.06
368.862	104.06
369.089	117.06
369.315	91.06
369.541	86.06
369.767	82.06
369.993	94.06
370.219	83.06
370.445	89.06
370.672	87.06
370.898	80.06
371.124	97.06
371.35	80.06
371.576	74.06
371.802	84.06
372.028	97.06
372.254	76.06
372.48	96.06
372.706	91.06
372.932	91.06
373.158	91.06
373.384	89.06
373.61	81.06
373.835	91.06
374.061	88.06
374.287	96.06
374.513	104.06
374.739	90.06
374.965	73.06
375.191	82.06
375.416	97.06
375.642	80.06
375.868	84.06
376.094	83.06
376.319	104.06
376.545	90.06
376.771	95.06
376.997	89.06
377.222	88.06
377.448	81.06
377.674	98.06
377.899	88.06
378.125	91.06
378.35	92.06
378.576	107.06
378.802	103.06
379.027	91.06
379.253	93.06
379.478	85.06
379.704	90.06
379.929	103.06
380.155	89.06
380.38	90.06
380.606	108.06
380.831	84.06
381.057	114.06
381.282	89.06
381.507	93.06
381.733	96.06
381.958	91.06
382.184	106.06
382.409	103.06
382.634	118.06
382.86	86.06
383.085	110.06
383.31	109.06
383.535	99.06
383.761	102.06
383.986	86.06
384.211	101.06
384.436	102.06
384.662	98.06
384.887	108.06
385.112	97.06
385.337	83.06
385.562	106.06
385.787	99.06
386.013	109.06
386.238	121.06
386.463	101.06
386.688	104.06
386.913	92.06
387.138	98.06
387.363	99.06
387.588	88.06
387.813	91.06
388.038	98.06
388.263	114.06
388.488	104.06
388.713	103.06
388.938	103.06
389.163	96.06
389.387	100.06
389.612	74.06
389.837	103.06
390.062	95.06
390.287	105.06
390.512	97.06
390.736	94.06
390.961	94.06
391.186	102.06
391.411	113.06
391.636	94.06
391.86	87.06
392.085	93.06
392.31	98.06
392.534	96.06
392.759	96.06
392.984	85.06
393.208	94.06
393.433	89.06
393.658	101.06
393.882	91.06
394.107	83.06
394.331	81.06
394.556	80.06
394.78	79.06
395.005	87.06
395.229	72.06
395.454	94.06
395.678	101.06
395.903	96.06
396.127	94.06
396.352	98.06
396.576	89.06
396.801	92.06
397.025	94.06
397.249	94.06
397.474	90.06
397.698	80.06
397.922	88.06
398.147	84.06
398.371	88.06
398.595	77.06
398.82	90.06
399.044	100.06
399.268	94.06
399.492	70.06
399.717	90.06
399.941	97.06
400.165	87.06
400.389	99.06
400.613	104.06
400.837	86.06
401.062	95.06
401.286	102.06
401.51	103.06
401.734	80.06
401.958	107.06
402.182	130.06
402.406	116.06
402.63	103.06
402.854	80.06
403.078	107.06
403.302	84.06
403.526	97.06
403.75	94.06
403.974	95.06
404.198	90.06
404.422	78.06
404.645	87.06
404.869	97.06
405.093	91.06
405.317	103.06
405.541	114.06
405.765	86.06
405.988	100.06
406.212	143.06
406.436	186.06
406.66	116.06
406.883	97.06
407.107	107.06
407.331	80.06
407.555	91.06
407.778	85.06
408.002	86.06
408.226	86.06
408.449	84.06
408.673	93.06
408.896	90.06
409.12	101.06
409.344	100.06
409.567	90.06
409.791	80.06
410.014	99.06
410.238	92.06
410.461	87.06
410.685	96.06
410.908	98.06
411.132	96.06
411.355	83.06
411.578	77.06
411.802	83.06
412.025	90.06
412.249	89.06
412.472	92.06
412.695	111.06
412.919	92.06
413.142	95.06
413.365	92.06
413.589	80.06
413.812	76.06
414.035	96.06
414.258	83.06
414.482	81.06
414.705	89.06
414.928	108.06
415.151	92.06
415.374	82.06
415.597	85.06
415.821	102.06
416.044	87.06
416.267	84.06
416.49	95.06
416.713	89.06
416.936	93.06
417.159	83.06
417.382	98.06
417.605	105.06
417.828	95.06
418.051	101.06
418.274	99.06
418.497	88.06
418.72	86.06
418.943	82.06
419.166	84.06
419.389	88.06
419.611	75.06
419.834	95.06
420.057	91.06
420.28	91.06
420.503	99.06
420.726	88.06
420.948	92.06
421.171	92.06
421.394	79.06
421.617	93.06
421.839	91.06
422.062	83.06
422.285	92.06
422.507	108.06
422.73	112.06
422.953	98.06
423.175	91.06
423.398	76.06
423.621	84.06
423.843	74.06
424.066	72.06
424.288	91.06
424.511	83.06
424.733	95.06
424.956	90.06
425.178	86.06
425.401	87.06
425.623	88.06
425.846	94.06
426.068	95.06
426.291	103.06
426.513	86.06
426.735	93.06
426.958	89.06
427.18	107.06
427.402	140.06
427.625	123.06
427.847	135.06
428.069	115.06
428.292	103.06
428.514	86.06
428.736	97.06
428.958	90.06
429.181	92.06
429.403	88.06
429.625	91.06
429.847	76.06
430.069	92.06
430.292	90.06
430.514	98.06
430.736	99.06
430.958	103.06
431.18	92.06
431.402	91.06
431.624	94.06
431.846	87.06
432.068	92.06
432.29	87.06
432.512	74.06
432.734	84.06
432.956	86.06
433.178	81.06
433.4	100.06
433.622	99.06
433.844	97.06
434.066	101.06
434.287	89.06
434.509	84.06
434.731	82.06
434.953	88.06
435.175	72.06
435.397	93.06
435.618	80.06
435.84	88.06
436.062	111.06
436.284	104.06
436.505	103.06
436.727	119.06
436.949	90.06
437.17	77.06
437.392	87.06
437.614	95.06
437.835	93.06
438.057	105.06
438.278	96.06
438.5	107.06
438.721	101.06
438.943	118.06
439.165	96.06
439.386	97.06
439.608	105.06
439.829	107.06
440.05	115.06
440.272	116.06
440.493	97.06
440.715	80.06
440.936	85.06
441.158	79.06
441.379	98.06
441.6	90.06
441.822	76.06
442.043	86.06
442.264	102.06
442.486	96.06
442.707	95.06
442.928	108.06
443.149	132.06
443.371	138.06
443.592	105.06
443.813	103.06
444.034	95.06
444.255	94.06
444.476	64.06
444.698	91.06
444.919	84.06
445.14	133.06
445.361	115.06
445.582	98.06
445.803	107.06
446.024	123.06
446.245	116.06
446.466	88.06
446.687	78.06
446.908	86.06
447.129	81.06
447.35	90.06
447.571	80.06
447.792	101.06
448.013	90.06
448.234	105.06
448.455	96.06
448.675	92.06
448.896	111.06
449.117	101.06
449.338	108.06
449.559	114.06
449.779	124.06
450	102.06
450.221	74.06
450.442	96.06
450.662	98.06
450.883	102.06
451.104	102.06
451.324	102.06
451.545	100.06
451.766	102.06
451.986	81.06
452.207	105.06
452.428	82.06
452.648	95.06
452.869	101.06
453.089	96.06
453.31	106.06
453.53	91.06
453.751	86.06
453.971	89.06
454.192	98.06
454.412	92.06
454.633	79.06
454.853	78.06
455.073	82.06
455.294	93.06
455.514	90.06
455.734	81.06
455.955	66.06
456.175	76.06
456.395	82.06
456.616	87.06
456.836	95.06
457.056	82.06
457.276	73.06
457.497	80.06
457.717	75.06
457.937	92.06
458.157	79.06
458.377	93.06
458.598	94.06
458.818	129.06
459.038	145.06
459.258	130.06
459.478	94.06
459.698	87.06
459.918	82.06
460.138	82.06
460.358	84.06
460.578	86.06
460.798	102.06
461.018	75.06
461.238	86.06
461.458	85.06
461.678	81.06
461.898	90.06
462.118	75.06
462.338	91.06
462.558	89.06
462.777	85.06
462.997	77.06
463.217	93.06
463.437	102.06
463.657	99.06
463.876	80.06
464.096	94.06
464.316	91.06
464.536	86.06
464.755	94.06
464.975	103.06
465.195	144.06
465.414	141.06
465.634	91.06
465.854	89.06
466.073	89.06
466.293	86.06
466.512	74.06
466.732	96.06
466.951	81.06
467.171	92.06
467.391	90.06
467.61	107.06
467.829	116.06
468.049	151.06
468.268	185.06
468.488	88.06
468.707	96.06
468.927	84.06
469.146	89.06
469.365	99.06
469.585	88.06
469.804	82.06
470.023	93.06
470.243	98.06
470.462	101.06
470.681	93.06
470.901	81.06
471.12	82.06
471.339	102.06
471.558	83.06
471.777	91.06
471.997	112.06
472.216	234.06
472.435	409.06
472.654	160.06
472.873	99.06
473.092	92.06
473.311	98.06
473.53	79.06
473.749	88.06
473.968	94.06
474.187	93.06
474.406	93.06
474.625	86.06
474.844	87.06
475.063	82.06
475.282	75.06
475.501	88.06
475.72	90.06
475.939	80.06
476.158	89.06
476.377	89.06
476.596	96.06
476.814	99.06
477.033	85.06
477.252	74.06
477.471	81.06
477.69	81.06
477.908	88.06
478.127	92.06
478.346	91.06
478.564	89.06
478.783	97.06
479.002	92.06
479.22	88.06
479.439	90.06
479.658	110.06
479.876	95.06
480.095	99.06
480.313	104.06
480.532	91.06
480.751	123.06
480.969	221.06
481.188	689.06
481.406	451.06
481.624	126.06
481.843	100.06
482.061	94.06
482.28	90.06
482.498	94.06
482.717	95.06
482.935	99.06
483.153	97.06
483.372	90.06
483.59	99.06
483.808	102.06
484.027	95.06
484.245	88.06
484.463	90.06
484.681	99.06
484.9	98.06
485.118	94.06
485.336	83.06
485.554	103.06
485.772	103.06
485.99	110.06
486.209	106.06
486.427	105.06
486.645	100.06
486.863	106.06
487.081	100.06
487.299	96.06
487.517	102.06
487.735	93.06
487.953	99.06
488.171	106.06
488.389	87.06
488.607	90.06
488.825	98.06
489.043	98.06
489.261	106.06
489.479	113.06
489.696	93.06
489.914	90.06
490.132	91.06
490.35	80.06
490.568	84.06
490.786	82.06
491.003	102.06
491.221	97.06
491.439	98.06
491.657	102.06
491.874	91.06
492.092	95.06
492.31	76.06
492.527	75.06
492.745	81.06
492.963	90.06
493.18	91.06
493.398	83.06
493.615	105.06
493.833	79.06
494.05	97.06
494.268	96.06
494.485	82.06
494.703	86.06
494.92	113.06
495.138	94.06
495.355	80.06
495.573	109.06
495.79	93.06
496.008	93.06
496.225	97.06
496.442	91.06
496.66	89.06
496.877	97.06
497.094	100.06
497.312	91.06
497.529	92.06
497.746	97.06
497.963	83.06
498.181	83.06
498.398	107.06
498.615	94.06
498.832	102.06
499.049	96.06
499.267	95.06
499.484	90.06
499.701	104.06
499.918	104.06
500.135	97.06
500.352	81.06
500.569	93.06
500.786	94.06
501.003	91.06
501.22	84.06
501.437	81.06
501.654	109.06
501.871	106.06
502.088	93.06
502.305	85.06
502.522	99.06
502.739	97.06
502.956	94.06
503.172	78.06
503.389	88.06
503.606	97.06
503.823	103.06
504.04	89.06
504.256	90.06
504.473	103.06
504.69	88.06
504.907	106.06
505.123	84.06
505.34	93.06
505.557	79.06
505.773	92.06
505.99	84.06
506.207	106.06
506.423	96.06
506.64	99.06
506.856	81.06
507.073	86.06
507.289	94.06
507.506	97.06
507.722	93.06
507.939	102.06
508.155	93.06
508.372	82.06
508.588	92.06
508.805	96.06
509.021	102.06
509.238	102.06
509.454	88.06
509.67	91.06
509.887	99.06
510.103	126.06
510.319	164.06
510.536	535.06
510.752	1650.06
510.968	510.06
511.184	132.06
511.401	109.06
511.617	108.06
511.833	91.06
512.049	96.06
512.265	90.06
512.481	98.06
512.698	100.06
512.914	91.06
513.13	86.06
513.346	83.06
513.562	99.06
513.778	95.06
513.994	84.06
514.21	105.06
514.426	114.06
514.642	121.06
514.858	101.06
515.074	145.06
515.29	328.06
515.506	994.06
