Data from Circ_2010_H10_HRD10591_00050.txt Node
Date: Wed Jan 03 10:09:51 EST 2024
User: Yrep
Spectrometer: HR+D1059
Trigger mode: 1
Integration Time (sec): 1.000000E-1
Scans to average: 1
Electric dark correction enabled: true
Nonlinearity correction enabled: false
Boxcar width: 0
XAxis mode: Wavelengths
Number of Pixels in Spectrum: 2048
>>>>>Begin Spectral Data<<<<<
223.165	-11.81
223.4	-11.81
223.635	-11.81
223.869	-16.81
224.104	-19.81
224.338	-25.81
224.573	-4.81
224.808	-9.81
225.042	-11.81
225.277	-2.81
225.511	-2.81
225.746	-4.81
225.98	3.19
226.215	7.19
226.449	26.19
226.683	12.19
226.918	24.19
227.152	38.19
227.387	22.19
227.621	27.19
227.856	51.19
228.09	56.19
228.324	39.19
228.559	55.19
228.793	48.19
229.027	54.19
229.262	57.19
229.496	68.19
229.73	77.19
229.964	69.19
230.199	69.19
230.433	84.19
230.667	69.19
230.901	68.19
231.136	70.19
231.37	83.19
231.604	88.19
231.838	84.19
232.072	76.19
232.306	76.19
232.541	67.19
232.775	85.19
233.009	67.19
233.243	67.19
233.477	68.19
233.711	84.19
233.945	72.19
234.179	75.19
234.413	74.19
234.647	75.19
234.881	87.19
235.115	79.19
235.349	83.19
235.583	89.19
235.817	77.19
236.051	73.19
236.285	70.19
236.519	76.19
236.753	72.19
236.987	79.19
237.221	83.19
237.455	90.19
237.689	75.19
237.922	68.19
238.156	53.19
238.39	50.19
238.624	70.19
238.858	72.19
239.091	62.19
239.325	78.19
239.559	79.19
239.793	79.19
240.027	67.19
240.26	70.19
240.494	72.19
240.728	71.19
240.961	83.19
241.195	74.19
241.429	79.19
241.662	85.19
241.896	81.19
242.13	78.19
242.363	71.19
242.597	72.19
242.83	76.19
243.064	62.19
243.298	76.19
243.531	75.19
243.765	73.19
243.998	71.19
244.232	70.19
244.465	76.19
244.699	65.19
244.932	73.19
245.166	78.19
245.399	75.19
245.633	75.19
245.866	86.19
246.099	76.19
246.333	82.19
246.566	77.19
246.8	76.19
247.033	67.19
247.266	73.19
247.5	75.19
247.733	73.19
247.966	84.19
248.2	55.19
248.433	83.19
248.666	76.19
248.899	81.19
249.133	86.19
249.366	102.19
249.599	92.19
249.832	74.19
250.066	90.19
250.299	84.19
250.532	83.19
250.765	79.19
250.998	73.19
251.231	69.19
251.465	83.19
251.698	63.19
251.931	68.19
252.164	66.19
252.397	69.19
252.63	77.19
252.863	68.19
253.096	83.19
253.329	81.19
253.562	69.19
253.795	81.19
254.028	60.19
254.261	65.19
254.494	76.19
254.727	86.19
254.96	82.19
255.193	79.19
255.426	82.19
255.659	83.19
255.892	83.19
256.124	82.19
256.357	79.19
256.59	90.19
256.823	75.19
257.056	80.19
257.289	82.19
257.521	77.19
257.754	68.19
257.987	72.19
258.22	82.19
258.452	85.19
258.685	82.19
258.918	74.19
259.151	73.19
259.383	90.19
259.616	90.19
259.849	72.19
260.081	80.19
260.314	82.19
260.547	77.19
260.779	77.19
261.012	95.19
261.244	81.19
261.477	98.19
261.71	70.19
261.942	106.19
262.175	97.19
262.407	78.19
262.64	83.19
262.872	81.19
263.105	82.19
263.337	82.19
263.57	85.19
263.802	92.19
264.035	74.19
264.267	72.19
264.499	83.19
264.732	95.19
264.964	70.19
265.197	79.19
265.429	77.19
265.661	78.19
265.894	70.19
266.126	73.19
266.358	79.19
266.591	84.19
266.823	94.19
267.055	85.19
267.287	88.19
267.52	71.19
267.752	77.19
267.984	81.19
268.216	76.19
268.448	90.19
268.681	76.19
268.913	85.19
269.145	58.19
269.377	78.19
269.609	67.19
269.841	83.19
270.073	93.19
270.306	80.19
270.538	86.19
270.77	78.19
271.002	79.19
271.234	67.19
271.466	82.19
271.698	89.19
271.93	90.19
272.162	73.19
272.394	92.19
272.626	81.19
272.858	80.19
273.09	87.19
273.322	79.19
273.553	88.19
273.785	81.19
274.017	82.19
274.249	71.19
274.481	65.19
274.713	64.19
274.945	91.19
275.176	86.19
275.408	80.19
275.64	74.19
275.872	77.19
276.104	89.19
276.335	79.19
276.567	99.19
276.799	100.19
277.031	95.19
277.262	79.19
277.494	101.19
277.726	76.19
277.957	77.19
278.189	78.19
278.421	91.19
278.652	74.19
278.884	85.19
279.115	78.19
279.347	89.19
279.579	77.19
279.81	72.19
280.042	85.19
280.273	107.19
280.505	82.19
280.736	83.19
280.968	93.19
281.199	81.19
281.431	94.19
281.662	84.19
281.894	77.19
282.125	93.19
282.356	101.19
282.588	135.19
282.819	109.19
283.051	89.19
283.282	65.19
283.513	98.19
283.745	90.19
283.976	62.19
284.207	76.19
284.439	88.19
284.67	89.19
284.901	70.19
285.132	85.19
285.364	89.19
285.595	96.19
285.826	87.19
286.057	77.19
286.288	74.19
286.52	79.19
286.751	91.19
286.982	96.19
287.213	85.19
287.444	85.19
287.675	82.19
287.906	58.19
288.138	91.19
288.369	97.19
288.6	73.19
288.831	86.19
289.062	83.19
289.293	71.19
289.524	98.19
289.755	93.19
289.986	73.19
290.217	74.19
290.448	81.19
290.679	87.19
290.91	75.19
291.141	84.19
291.371	79.19
291.602	89.19
291.833	85.19
292.064	91.19
292.295	88.19
292.526	83.19
292.757	80.19
292.987	87.19
293.218	78.19
293.449	79.19
293.68	80.19
293.91	68.19
294.141	79.19
294.372	89.19
294.603	76.19
294.833	88.19
295.064	101.19
295.295	82.19
295.525	89.19
295.756	106.19
295.987	102.19
296.217	115.19
296.448	118.19
296.679	99.19
296.909	90.19
297.14	100.19
297.37	81.19
297.601	88.19
297.831	82.19
298.062	97.19
298.292	95.19
298.523	88.19
298.753	84.19
298.984	90.19
299.214	87.19
299.445	94.19
299.675	90.19
299.905	100.19
300.136	73.19
300.366	82.19
300.597	86.19
300.827	89.19
301.057	91.19
301.288	98.19
301.518	83.19
301.748	83.19
301.979	85.19
302.209	87.19
302.439	99.19
302.669	87.19
302.9	88.19
303.13	97.19
303.36	79.19
303.59	97.19
303.82	83.19
304.051	94.19
304.281	83.19
304.511	84.19
304.741	81.19
304.971	88.19
305.201	85.19
305.431	86.19
305.661	84.19
305.891	98.19
306.121	87.19
306.352	95.19
306.582	102.19
306.812	98.19
307.042	94.19
307.272	90.19
307.502	93.19
307.731	111.19
307.961	85.19
308.191	92.19
308.421	88.19
308.651	95.19
308.881	85.19
309.111	91.19
309.341	101.19
309.571	109.19
309.8	83.19
310.03	97.19
310.26	91.19
310.49	107.19
310.72	105.19
310.949	92.19
311.179	82.19
311.409	87.19
311.639	98.19
311.868	93.19
312.098	91.19
312.328	91.19
312.557	88.19
312.787	93.19
313.017	102.19
313.246	78.19
313.476	86.19
313.706	61.19
313.935	94.19
314.165	87.19
314.394	86.19
314.624	87.19
314.853	89.19
315.083	89.19
315.312	90.19
315.542	88.19
315.771	72.19
316.001	95.19
316.23	96.19
316.46	102.19
316.689	87.19
316.919	89.19
317.148	99.19
317.377	82.19
317.607	95.19
317.836	94.19
318.065	86.19
318.295	60.19
318.524	87.19
318.753	95.19
318.983	97.19
319.212	90.19
319.441	111.19
319.67	109.19
319.9	84.19
320.129	86.19
320.358	84.19
320.587	94.19
320.816	85.19
321.046	85.19
321.275	88.19
321.504	99.19
321.733	93.19
321.962	102.19
322.191	96.19
322.42	95.19
322.649	104.19
322.878	95.19
323.108	104.19
323.337	106.19
323.566	114.19
323.795	141.19
324.024	177.19
324.253	351.19
324.482	702.19
324.71	1442.19
324.939	1797.19
325.168	678.19
325.397	208.19
325.626	119.19
325.855	111.19
326.084	124.19
326.313	121.19
326.542	146.19
326.77	211.19
326.999	404.19
327.228	811.19
327.457	1452.19
327.686	1139.19
327.914	326.19
328.143	191.19
328.372	171.19
328.6	138.19
328.829	115.19
329.058	121.19
329.287	118.19
329.515	115.19
329.744	109.19
329.972	135.19
330.201	165.19
330.43	209.19
330.658	153.19
330.887	130.19
331.115	108.19
331.344	100.19
331.572	107.19
331.801	101.19
332.03	96.19
332.258	86.19
332.486	84.19
332.715	94.19
332.943	91.19
333.172	79.19
333.4	79.19
333.629	110.19
333.857	107.19
334.085	140.19
334.314	185.19
334.542	265.19
334.771	246.19
334.999	117.19
335.227	97.19
335.455	96.19
335.684	83.19
335.912	107.19
336.14	91.19
336.369	86.19
336.597	77.19
336.825	84.19
337.053	84.19
337.281	95.19
337.51	90.19
337.738	85.19
337.966	83.19
338.194	81.19
338.422	79.19
338.65	105.19
338.878	92.19
339.106	87.19
339.334	106.19
339.562	85.19
339.79	81.19
340.018	92.19
340.246	86.19
340.474	81.19
340.702	95.19
340.93	84.19
341.158	88.19
341.386	82.19
341.614	94.19
341.842	97.19
342.07	74.19
342.298	100.19
342.526	87.19
342.754	78.19
342.981	85.19
343.209	85.19
343.437	92.19
343.665	73.19
343.893	71.19
344.12	75.19
344.348	96.19
344.576	90.19
344.804	94.19
345.031	102.19
345.259	91.19
345.487	85.19
345.714	90.19
345.942	91.19
346.17	91.19
346.397	91.19
346.625	87.19
346.853	96.19
347.08	97.19
347.308	82.19
347.535	81.19
347.763	94.19
347.99	83.19
348.218	109.19
348.445	108.19
348.673	98.19
348.9	84.19
349.128	78.19
349.355	76.19
349.583	104.19
349.81	100.19
350.037	83.19
350.265	85.19
350.492	90.19
350.72	89.19
350.947	89.19
351.174	99.19
351.402	93.19
351.629	86.19
351.856	103.19
352.083	85.19
352.311	103.19
352.538	104.19
352.765	108.19
352.992	104.19
353.22	111.19
353.447	101.19
353.674	93.19
353.901	90.19
354.128	92.19
354.355	90.19
354.583	106.19
354.81	84.19
355.037	93.19
355.264	86.19
355.491	91.19
355.718	91.19
355.945	98.19
356.172	88.19
356.399	85.19
356.626	98.19
356.853	93.19
357.08	81.19
357.307	76.19
357.534	97.19
357.761	90.19
357.988	93.19
358.215	82.19
358.441	89.19
358.668	95.19
358.895	105.19
359.122	94.19
359.349	85.19
359.576	96.19
359.802	83.19
360.029	98.19
360.256	109.19
360.483	88.19
360.709	94.19
360.936	99.19
361.163	93.19
361.39	100.19
361.616	95.19
361.843	83.19
362.07	82.19
362.296	75.19
362.523	95.19
362.749	85.19
362.976	76.19
363.203	98.19
363.429	78.19
363.656	92.19
363.882	86.19
364.109	89.19
364.335	105.19
364.562	85.19
364.788	78.19
365.015	83.19
365.241	75.19
365.468	97.19
365.694	103.19
365.92	98.19
366.147	87.19
366.373	92.19
366.599	84.19
366.826	91.19
367.052	90.19
367.278	87.19
367.505	92.19
367.731	77.19
367.957	98.19
368.184	94.19
368.41	94.19
368.636	95.19
368.862	102.19
369.089	89.19
369.315	83.19
369.541	79.19
369.767	92.19
369.993	80.19
370.219	101.19
370.445	85.19
370.672	86.19
370.898	85.19
371.124	90.19
371.35	83.19
371.576	87.19
371.802	89.19
372.028	87.19
372.254	78.19
372.48	78.19
372.706	94.19
372.932	96.19
373.158	91.19
373.384	88.19
373.61	85.19
373.835	78.19
374.061	90.19
374.287	73.19
374.513	92.19
374.739	82.19
374.965	91.19
375.191	85.19
375.416	86.19
375.642	88.19
375.868	79.19
376.094	85.19
376.319	90.19
376.545	79.19
376.771	85.19
376.997	78.19
377.222	94.19
377.448	89.19
377.674	97.19
377.899	86.19
378.125	85.19
378.35	93.19
378.576	85.19
378.802	75.19
379.027	78.19
379.253	86.19
379.478	78.19
379.704	84.19
379.929	91.19
380.155	94.19
380.38	90.19
380.606	95.19
380.831	88.19
381.057	113.19
381.282	99.19
381.507	76.19
381.733	100.19
381.958	97.19
382.184	102.19
382.409	100.19
382.634	102.19
382.86	94.19
383.085	99.19
383.31	107.19
383.535	98.19
383.761	97.19
383.986	95.19
384.211	97.19
384.436	100.19
384.662	105.19
384.887	94.19
385.112	88.19
385.337	108.19
385.562	87.19
385.787	98.19
386.013	108.19
386.238	90.19
386.463	92.19
386.688	111.19
386.913	94.19
387.138	107.19
387.363	97.19
387.588	93.19
387.813	101.19
388.038	106.19
388.263	85.19
388.488	105.19
388.713	97.19
388.938	110.19
389.163	101.19
389.387	83.19
389.612	90.19
389.837	85.19
390.062	86.19
390.287	93.19
390.512	78.19
390.736	83.19
390.961	84.19
391.186	97.19
391.411	92.19
391.636	96.19
391.86	88.19
392.085	78.19
392.31	82.19
392.534	81.19
392.759	87.19
392.984	103.19
393.208	80.19
393.433	99.19
393.658	105.19
393.882	86.19
394.107	82.19
394.331	92.19
394.556	86.19
394.78	93.19
395.005	74.19
395.229	78.19
395.454	83.19
395.678	90.19
395.903	74.19
396.127	96.19
396.352	90.19
396.576	76.19
396.801	97.19
397.025	90.19
397.249	83.19
397.474	84.19
397.698	86.19
397.922	84.19
398.147	82.19
398.371	73.19
398.595	99.19
398.82	86.19
399.044	84.19
399.268	80.19
399.492	72.19
399.717	82.19
399.941	89.19
400.165	95.19
400.389	97.19
400.613	96.19
400.837	83.19
401.062	89.19
401.286	78.19
401.51	81.19
401.734	96.19
401.958	103.19
402.182	102.19
402.406	148.19
402.63	120.19
402.854	92.19
403.078	77.19
403.302	85.19
403.526	82.19
403.75	78.19
403.974	90.19
404.198	83.19
404.422	90.19
404.645	95.19
404.869	94.19
405.093	84.19
405.317	94.19
405.541	119.19
405.765	94.19
405.988	116.19
406.212	157.19
406.436	197.19
406.66	122.19
406.883	109.19
407.107	76.19
407.331	85.19
407.555	92.19
407.778	97.19
408.002	79.19
408.226	86.19
408.449	74.19
408.673	87.19
408.896	93.19
409.12	92.19
409.344	83.19
409.567	79.19
409.791	85.19
410.014	88.19
410.238	92.19
410.461	97.19
410.685	89.19
410.908	88.19
411.132	96.19
411.355	90.19
411.578	79.19
411.802	75.19
412.025	88.19
412.249	84.19
412.472	100.19
412.695	92.19
412.919	79.19
413.142	97.19
413.365	97.19
413.589	73.19
413.812	84.19
414.035	79.19
414.258	80.19
414.482	97.19
414.705	90.19
414.928	93.19
415.151	94.19
415.374	92.19
415.597	95.19
415.821	89.19
416.044	94.19
416.267	86.19
416.49	81.19
416.713	78.19
416.936	89.19
417.159	73.19
417.382	77.19
417.605	87.19
417.828	103.19
418.051	91.19
418.274	85.19
418.497	87.19
418.72	95.19
418.943	80.19
419.166	83.19
419.389	92.19
419.611	85.19
419.834	91.19
420.057	84.19
420.28	83.19
420.503	87.19
420.726	79.19
420.948	86.19
421.171	102.19
421.394	93.19
421.617	82.19
421.839	78.19
422.062	78.19
422.285	84.19
422.507	82.19
422.73	90.19
422.953	88.19
423.175	86.19
423.398	88.19
423.621	91.19
423.843	93.19
424.066	85.19
424.288	87.19
424.511	77.19
424.733	87.19
424.956	74.19
425.178	75.19
425.401	84.19
425.623	107.19
425.846	84.19
426.068	86.19
426.291	93.19
426.513	89.19
426.735	77.19
426.958	91.19
427.18	85.19
427.402	121.19
427.625	136.19
427.847	124.19
428.069	127.19
428.292	93.19
428.514	92.19
428.736	86.19
428.958	92.19
429.181	80.19
429.403	78.19
429.625	95.19
429.847	85.19
430.069	81.19
430.292	87.19
430.514	89.19
430.736	77.19
430.958	82.19
431.18	71.19
431.402	98.19
431.624	80.19
431.846	75.19
432.068	75.19
432.29	66.19
432.512	92.19
432.734	85.19
432.956	89.19
433.178	78.19
433.4	100.19
433.622	86.19
433.844	81.19
434.066	81.19
434.287	92.19
434.509	79.19
434.731	74.19
434.953	99.19
435.175	79.19
435.397	92.19
435.618	70.19
435.84	85.19
436.062	104.19
436.284	107.19
436.505	87.19
436.727	90.19
436.949	83.19
437.17	91.19
437.392	84.19
437.614	96.19
437.835	99.19
438.057	114.19
438.278	90.19
438.5	95.19
438.721	122.19
438.943	86.19
439.165	91.19
439.386	78.19
439.608	93.19
439.829	88.19
440.05	103.19
440.272	115.19
440.493	93.19
440.715	77.19
440.936	79.19
441.158	83.19
441.379	82.19
441.6	79.19
441.822	103.19
442.043	80.19
442.264	103.19
442.486	94.19
442.707	82.19
442.928	91.19
443.149	123.19
443.371	109.19
443.592	99.19
443.813	100.19
444.034	94.19
444.255	95.19
444.476	79.19
444.698	86.19
444.919	78.19
445.14	129.19
445.361	104.19
445.582	104.19
445.803	116.19
446.024	113.19
446.245	110.19
446.466	104.19
446.687	81.19
446.908	96.19
447.129	98.19
447.35	79.19
447.571	94.19
447.792	97.19
448.013	93.19
448.234	101.19
448.455	92.19
448.675	105.19
448.896	98.19
449.117	90.19
449.338	92.19
449.559	100.19
449.779	121.19
450	98.19
450.221	78.19
450.442	89.19
450.662	90.19
450.883	102.19
451.104	97.19
451.324	96.19
451.545	84.19
451.766	78.19
451.986	86.19
452.207	92.19
452.428	80.19
452.648	85.19
452.869	113.19
453.089	105.19
453.31	124.19
453.53	84.19
453.751	101.19
453.971	107.19
454.192	101.19
454.412	69.19
454.633	86.19
454.853	74.19
455.073	89.19
455.294	89.19
455.514	100.19
455.734	92.19
455.955	93.19
456.175	82.19
456.395	80.19
456.616	94.19
456.836	92.19
457.056	73.19
457.276	103.19
457.497	90.19
457.717	83.19
457.937	92.19
458.157	85.19
458.377	94.19
458.598	102.19
458.818	137.19
459.038	148.19
459.258	106.19
459.478	90.19
459.698	94.19
459.918	95.19
460.138	85.19
460.358	84.19
460.578	71.19
460.798	69.19
461.018	84.19
461.238	83.19
461.458	90.19
461.678	78.19
461.898	85.19
462.118	76.19
462.338	72.19
462.558	105.19
462.777	82.19
462.997	100.19
463.217	89.19
463.437	87.19
463.657	83.19
463.876	103.19
464.096	90.19
464.316	91.19
464.536	96.19
464.755	97.19
464.975	106.19
465.195	146.19
465.414	141.19
465.634	84.19
465.854	84.19
466.073	87.19
466.293	77.19
466.512	72.19
466.732	83.19
466.951	95.19
467.171	89.19
467.391	100.19
467.61	107.19
467.829	94.19
468.049	142.19
468.268	164.19
468.488	103.19
468.707	68.19
468.927	73.19
469.146	85.19
469.365	81.19
469.585	88.19
469.804	78.19
470.023	85.19
470.243	89.19
470.462	82.19
470.681	105.19
470.901	92.19
471.12	99.19
471.339	75.19
471.558	72.19
471.777	94.19
471.997	127.19
472.216	215.19
472.435	353.19
472.654	147.19
472.873	105.19
473.092	77.19
473.311	94.19
473.53	90.19
473.749	97.19
473.968	92.19
474.187	85.19
474.406	95.19
474.625	88.19
474.844	75.19
475.063	93.19
475.282	99.19
475.501	96.19
475.72	90.19
475.939	71.19
476.158	93.19
476.377	82.19
476.596	76.19
476.814	82.19
477.033	95.19
477.252	106.19
477.471	82.19
477.69	80.19
477.908	78.19
478.127	73.19
478.346	97.19
478.564	100.19
478.783	91.19
479.002	88.19
479.22	77.19
479.439	90.19
479.658	102.19
479.876	95.19
480.095	88.19
480.313	107.19
480.532	90.19
480.751	112.19
480.969	209.19
481.188	562.19
481.406	356.19
481.624	120.19
481.843	95.19
482.061	89.19
482.28	78.19
482.498	73.19
482.717	90.19
482.935	78.19
483.153	93.19
483.372	82.19
483.59	89.19
483.808	97.19
484.027	87.19
484.245	89.19
484.463	93.19
484.681	102.19
484.9	99.19
485.118	94.19
485.336	85.19
485.554	102.19
485.772	91.19
485.99	105.19
486.209	98.19
486.427	105.19
486.645	109.19
486.863	98.19
487.081	95.19
487.299	83.19
487.517	78.19
487.735	86.19
487.953	87.19
488.171	104.19
488.389	93.19
488.607	84.19
488.825	75.19
489.043	77.19
489.261	93.19
489.479	87.19
489.696	87.19
489.914	84.19
490.132	105.19
490.35	81.19
490.568	85.19
490.786	102.19
491.003	91.19
491.221	83.19
491.439	93.19
491.657	98.19
491.874	93.19
492.092	97.19
492.31	71.19
492.527	85.19
492.745	88.19
492.963	98.19
493.18	78.19
493.398	88.19
493.615	95.19
493.833	111.19
494.05	72.19
494.268	78.19
494.485	99.19
494.703	95.19
494.92	82.19
495.138	85.19
495.355	96.19
495.573	93.19
495.79	92.19
496.008	100.19
496.225	86.19
496.442	74.19
496.66	83.19
496.877	92.19
497.094	99.19
497.312	92.19
497.529	90.19
497.746	98.19
497.963	85.19
498.181	95.19
498.398	85.19
498.615	100.19
498.832	93.19
499.049	96.19
499.267	87.19
499.484	85.19
499.701	87.19
499.918	86.19
500.135	97.19
500.352	94.19
500.569	77.19
500.786	82.19
501.003	94.19
501.22	87.19
501.437	86.19
501.654	90.19
501.871	89.19
502.088	81.19
502.305	78.19
502.522	92.19
502.739	91.19
502.956	84.19
503.172	77.19
503.389	93.19
503.606	98.19
503.823	90.19
504.04	74.19
504.256	85.19
504.473	98.19
504.69	77.19
504.907	91.19
505.123	84.19
505.34	89.19
505.557	84.19
505.773	75.19
505.99	80.19
506.207	70.19
506.423	83.19
506.64	92.19
506.856	90.19
507.073	91.19
507.289	105.19
507.506	108.19
507.722	111.19
507.939	84.19
508.155	91.19
508.372	93.19
508.588	99.19
508.805	88.19
509.021	84.19
509.238	90.19
509.454	98.19
509.67	104.19
509.887	113.19
510.103	131.19
510.319	195.19
510.536	637.19
510.752	2009.19
510.968	573.19
511.184	123.19
511.401	99.19
511.617	104.19
511.833	94.19
512.049	89.19
512.265	93.19
512.481	92.19
512.698	83.19
512.914	83.19
513.13	76.19
513.346	73.19
513.562	89.19
513.778	81.19
513.994	78.19
514.21	91.19
514.426	97.19
514.642	126.19
514.858	108.19
515.074	149.19
515.29	385.19
515.506	1263.19
515.721	479.19
515.937	148.19
516.153	104.19
516.369	93.19
516.585	98.19
516.801	94.19
