Data from Circ_2010_H10_HRD10591_00022.txt Node
Date: Wed Jan 03 10:09:45 EST 2024
User: Yrep
Spectrometer: HR+D1059
Trigger mode: 1
Integration Time (sec): 1.000000E-1
Scans to average: 1
Electric dark correction enabled: true
Nonlinearity correction enabled: false
Boxcar width: 0
XAxis mode: Wavelengths
Number of Pixels in Spectrum: 2048
>>>>>Begin Spectral Data<<<<<
223.165	-4.69
223.4	-4.69
223.635	-4.69
223.869	-9.69
224.104	-12.69
224.338	-27.69
224.573	-13.69
224.808	-16.69
225.042	-20.69
225.277	-8.69
225.511	0.31
225.746	9.31
225.98	15.31
226.215	5.31
226.449	16.31
226.683	23.31
226.918	12.31
227.152	32.31
227.387	32.31
227.621	22.31
227.856	48.31
228.09	47.31
228.324	56.31
228.559	63.31
228.793	58.31
229.027	57.31
229.262	76.31
229.496	84.31
229.73	83.31
229.964	82.31
230.199	70.31
230.433	69.31
230.667	72.31
230.901	87.31
231.136	90.31
231.37	81.31
231.604	84.31
231.838	69.31
232.072	76.31
232.306	86.31
232.541	80.31
232.775	82.31
233.009	80.31
233.243	74.31
233.477	81.31
233.711	71.31
233.945	77.31
234.179	82.31
234.413	73.31
234.647	78.31
234.881	80.31
235.115	77.31
235.349	82.31
235.583	76.31
235.817	74.31
236.051	87.31
236.285	70.31
236.519	77.31
236.753	91.31
236.987	83.31
237.221	89.31
237.455	81.31
237.689	81.31
237.922	82.31
238.156	81.31
238.39	80.31
238.624	83.31
238.858	70.31
239.091	79.31
239.325	86.31
239.559	94.31
239.793	86.31
240.027	85.31
240.26	74.31
240.494	77.31
240.728	79.31
240.961	73.31
241.195	81.31
241.429	82.31
241.662	61.31
241.896	76.31
242.13	79.31
242.363	71.31
242.597	65.31
242.83	75.31
243.064	71.31
243.298	65.31
243.531	82.31
243.765	65.31
243.998	76.31
244.232	91.31
244.465	83.31
244.699	76.31
244.932	47.31
245.166	79.31
245.399	70.31
245.633	97.31
245.866	72.31
246.099	74.31
246.333	87.31
246.566	89.31
246.8	74.31
247.033	70.31
247.266	80.31
247.5	65.31
247.733	89.31
247.966	63.31
248.2	77.31
248.433	72.31
248.666	85.31
248.899	75.31
249.133	69.31
249.366	102.31
249.599	87.31
249.832	81.31
250.066	81.31
250.299	78.31
250.532	76.31
250.765	78.31
250.998	81.31
251.231	92.31
251.465	88.31
251.698	80.31
251.931	83.31
252.164	84.31
252.397	76.31
252.63	74.31
252.863	88.31
253.096	79.31
253.329	96.31
253.562	77.31
253.795	79.31
254.028	79.31
254.261	82.31
254.494	76.31
254.727	78.31
254.96	81.31
255.193	81.31
255.426	86.31
255.659	74.31
255.892	88.31
256.124	91.31
256.357	86.31
256.59	89.31
256.823	92.31
257.056	89.31
257.289	84.31
257.521	90.31
257.754	77.31
257.987	92.31
258.22	79.31
258.452	100.31
258.685	84.31
258.918	78.31
259.151	84.31
259.383	77.31
259.616	69.31
259.849	77.31
260.081	70.31
260.314	96.31
260.547	84.31
260.779	86.31
261.012	78.31
261.244	86.31
261.477	89.31
261.71	85.31
261.942	99.31
262.175	101.31
262.407	89.31
262.64	88.31
262.872	72.31
263.105	74.31
263.337	98.31
263.57	90.31
263.802	87.31
264.035	79.31
264.267	88.31
264.499	103.31
264.732	84.31
264.964	102.31
265.197	80.31
265.429	95.31
265.661	78.31
265.894	84.31
266.126	89.31
266.358	82.31
266.591	91.31
266.823	97.31
267.055	87.31
267.287	93.31
267.52	82.31
267.752	86.31
267.984	77.31
268.216	89.31
268.448	81.31
268.681	84.31
268.913	63.31
269.145	88.31
269.377	87.31
269.609	85.31
269.841	88.31
270.073	73.31
270.306	97.31
270.538	87.31
270.77	92.31
271.002	85.31
271.234	81.31
271.466	78.31
271.698	90.31
271.93	88.31
272.162	86.31
272.394	87.31
272.626	86.31
272.858	88.31
273.09	74.31
273.322	83.31
273.553	94.31
273.785	106.31
274.017	82.31
274.249	90.31
274.481	80.31
274.713	84.31
274.945	85.31
275.176	76.31
275.408	86.31
275.64	91.31
275.872	90.31
276.104	93.31
276.335	98.31
276.567	92.31
276.799	115.31
277.031	95.31
277.262	96.31
277.494	84.31
277.726	87.31
277.957	93.31
278.189	72.31
278.421	98.31
278.652	81.31
278.884	84.31
279.115	81.31
279.347	91.31
279.579	95.31
279.81	84.31
280.042	88.31
280.273	94.31
280.505	87.31
280.736	88.31
280.968	81.31
281.199	89.31
281.431	80.31
281.662	85.31
281.894	77.31
282.125	101.31
282.356	111.31
282.588	121.31
282.819	96.31
283.051	77.31
283.282	105.31
283.513	95.31
283.745	71.31
283.976	78.31
284.207	100.31
284.439	106.31
284.67	86.31
284.901	102.31
285.132	81.31
285.364	80.31
285.595	97.31
285.826	88.31
286.057	91.31
286.288	92.31
286.52	92.31
286.751	93.31
286.982	97.31
287.213	83.31
287.444	92.31
287.675	92.31
287.906	89.31
288.138	84.31
288.369	86.31
288.6	97.31
288.831	86.31
289.062	106.31
289.293	77.31
289.524	80.31
289.755	78.31
289.986	84.31
290.217	112.31
290.448	106.31
290.679	94.31
290.91	88.31
291.141	78.31
291.371	85.31
291.602	93.31
291.833	81.31
292.064	91.31
292.295	101.31
292.526	81.31
292.757	89.31
292.987	82.31
293.218	96.31
293.449	89.31
293.68	77.31
293.91	88.31
294.141	95.31
294.372	85.31
294.603	77.31
294.833	85.31
295.064	83.31
295.295	90.31
295.525	78.31
295.756	99.31
295.987	97.31
296.217	111.31
296.448	125.31
296.679	93.31
296.909	100.31
297.14	91.31
297.37	99.31
297.601	73.31
297.831	88.31
298.062	85.31
298.292	96.31
298.523	94.31
298.753	64.31
298.984	93.31
299.214	88.31
299.445	97.31
299.675	86.31
299.905	92.31
300.136	95.31
300.366	91.31
300.597	82.31
300.827	97.31
301.057	98.31
301.288	104.31
301.518	96.31
301.748	78.31
301.979	80.31
302.209	92.31
302.439	75.31
302.669	96.31
302.9	90.31
303.13	107.31
303.36	88.31
303.59	97.31
303.82	100.31
304.051	85.31
304.281	84.31
304.511	87.31
304.741	82.31
304.971	93.31
305.201	94.31
305.431	96.31
305.661	89.31
305.891	97.31
306.121	84.31
306.352	104.31
306.582	97.31
306.812	102.31
307.042	84.31
307.272	81.31
307.502	90.31
307.731	98.31
307.961	100.31
308.191	96.31
308.421	91.31
308.651	83.31
308.881	92.31
309.111	90.31
309.341	89.31
309.571	99.31
309.8	95.31
310.03	100.31
310.26	77.31
310.49	90.31
310.72	80.31
310.949	102.31
311.179	89.31
311.409	84.31
311.639	93.31
311.868	106.31
312.098	93.31
312.328	75.31
312.557	95.31
312.787	93.31
313.017	86.31
313.246	93.31
313.476	96.31
313.706	91.31
313.935	97.31
314.165	103.31
314.394	106.31
314.624	100.31
314.853	93.31
315.083	95.31
315.312	97.31
315.542	90.31
315.771	96.31
316.001	91.31
316.23	93.31
316.46	88.31
316.689	78.31
316.919	91.31
317.148	89.31
317.377	90.31
317.607	90.31
317.836	93.31
318.065	86.31
318.295	69.31
318.524	84.31
318.753	92.31
318.983	101.31
319.212	113.31
319.441	107.31
319.67	90.31
319.9	88.31
320.129	96.31
320.358	103.31
320.587	85.31
320.816	98.31
321.046	97.31
321.275	94.31
321.504	86.31
321.733	86.31
321.962	102.31
322.191	82.31
322.42	100.31
322.649	101.31
322.878	105.31
323.108	108.31
323.337	111.31
323.566	128.31
323.795	144.31
324.024	174.31
324.253	310.31
324.482	619.31
324.71	1265.31
324.939	1602.31
325.168	600.31
325.397	214.31
325.626	130.31
325.855	114.31
326.084	126.31
326.313	124.31
326.542	153.31
326.77	199.31
326.999	376.31
327.228	709.31
327.457	1230.31
327.686	997.31
327.914	297.31
328.143	172.31
328.372	148.31
328.6	123.31
328.829	113.31
329.058	115.31
329.287	117.31
329.515	114.31
329.744	107.31
329.972	107.31
330.201	155.31
330.43	161.31
330.658	136.31
330.887	137.31
331.115	101.31
331.344	105.31
331.572	116.31
331.801	115.31
332.03	95.31
332.258	96.31
332.486	93.31
332.715	105.31
332.943	107.31
333.172	96.31
333.4	91.31
333.629	99.31
333.857	111.31
334.085	122.31
334.314	133.31
334.542	173.31
334.771	177.31
334.999	120.31
335.227	98.31
335.455	108.31
335.684	85.31
335.912	89.31
336.14	110.31
336.369	93.31
336.597	109.31
336.825	96.31
337.053	106.31
337.281	94.31
337.51	107.31
337.738	98.31
337.966	97.31
338.194	88.31
338.422	90.31
338.65	82.31
338.878	102.31
339.106	90.31
339.334	96.31
339.562	87.31
339.79	96.31
340.018	97.31
340.246	91.31
340.474	90.31
340.702	95.31
340.93	91.31
341.158	90.31
341.386	105.31
341.614	98.31
341.842	90.31
342.07	82.31
342.298	101.31
342.526	98.31
342.754	94.31
342.981	92.31
343.209	94.31
343.437	99.31
343.665	95.31
343.893	82.31
344.12	101.31
344.348	80.31
344.576	81.31
344.804	87.31
345.031	91.31
345.259	104.31
345.487	96.31
345.714	101.31
345.942	94.31
346.17	91.31
346.397	105.31
346.625	91.31
346.853	87.31
347.08	99.31
347.308	86.31
347.535	97.31
347.763	94.31
347.99	82.31
348.218	82.31
348.445	93.31
348.673	78.31
348.9	95.31
349.128	82.31
349.355	88.31
349.583	99.31
349.81	93.31
350.037	106.31
350.265	100.31
350.492	101.31
350.72	95.31
350.947	95.31
351.174	101.31
351.402	105.31
351.629	99.31
351.856	112.31
352.083	103.31
352.311	100.31
352.538	109.31
352.765	109.31
352.992	124.31
353.22	104.31
353.447	101.31
353.674	108.31
353.901	96.31
354.128	101.31
354.355	98.31
354.583	102.31
354.81	105.31
355.037	105.31
355.264	105.31
355.491	93.31
355.718	97.31
355.945	95.31
356.172	92.31
356.399	97.31
356.626	94.31
356.853	114.31
357.08	93.31
357.307	101.31
357.534	98.31
357.761	95.31
357.988	85.31
358.215	112.31
358.441	110.31
358.668	86.31
358.895	102.31
359.122	101.31
359.349	82.31
359.576	85.31
359.802	101.31
360.029	105.31
360.256	108.31
360.483	88.31
360.709	86.31
360.936	97.31
361.163	81.31
361.39	97.31
361.616	93.31
361.843	90.31
362.07	92.31
362.296	87.31
362.523	100.31
362.749	88.31
362.976	97.31
363.203	92.31
363.429	87.31
363.656	93.31
363.882	92.31
364.109	100.31
364.335	83.31
364.562	96.31
364.788	91.31
365.015	104.31
365.241	101.31
365.468	109.31
365.694	111.31
365.92	102.31
366.147	90.31
366.373	92.31
366.599	90.31
366.826	87.31
367.052	88.31
367.278	104.31
367.505	91.31
367.731	87.31
367.957	91.31
368.184	88.31
368.41	90.31
368.636	103.31
368.862	106.31
369.089	92.31
369.315	87.31
369.541	95.31
369.767	90.31
369.993	80.31
370.219	87.31
370.445	88.31
370.672	89.31
370.898	80.31
371.124	93.31
371.35	90.31
371.576	96.31
371.802	90.31
372.028	97.31
372.254	87.31
372.48	93.31
372.706	98.31
372.932	95.31
373.158	89.31
373.384	101.31
373.61	87.31
373.835	100.31
374.061	75.31
374.287	85.31
374.513	78.31
374.739	93.31
374.965	79.31
375.191	91.31
375.416	92.31
375.642	94.31
375.868	94.31
376.094	85.31
376.319	88.31
376.545	93.31
376.771	100.31
376.997	93.31
377.222	92.31
377.448	112.31
377.674	82.31
377.899	93.31
378.125	90.31
378.35	96.31
378.576	94.31
378.802	96.31
379.027	94.31
379.253	100.31
379.478	105.31
379.704	89.31
379.929	102.31
380.155	91.31
380.38	82.31
380.606	90.31
380.831	95.31
381.057	99.31
381.282	83.31
381.507	99.31
381.733	111.31
381.958	90.31
382.184	95.31
382.409	101.31
382.634	95.31
382.86	100.31
383.085	111.31
383.31	100.31
383.535	111.31
383.761	99.31
383.986	100.31
384.211	97.31
384.436	99.31
384.662	95.31
384.887	92.31
385.112	105.31
385.337	102.31
385.562	99.31
385.787	109.31
386.013	97.31
386.238	104.31
386.463	108.31
386.688	114.31
386.913	107.31
387.138	113.31
387.363	100.31
387.588	106.31
387.813	96.31
388.038	100.31
388.263	125.31
388.488	122.31
388.713	113.31
388.938	91.31
389.163	95.31
389.387	93.31
389.612	91.31
389.837	89.31
390.062	92.31
390.287	91.31
390.512	96.31
390.736	103.31
390.961	89.31
391.186	96.31
391.411	105.31
391.636	107.31
391.86	89.31
392.085	82.31
392.31	99.31
392.534	82.31
392.759	97.31
392.984	88.31
393.208	92.31
393.433	117.31
393.658	109.31
393.882	86.31
394.107	82.31
394.331	99.31
394.556	86.31
394.78	82.31
395.005	86.31
395.229	80.31
395.454	81.31
395.678	98.31
395.903	90.31
396.127	92.31
396.352	77.31
396.576	87.31
396.801	100.31
397.025	110.31
397.249	87.31
397.474	87.31
397.698	93.31
397.922	85.31
398.147	82.31
398.371	93.31
398.595	97.31
398.82	86.31
399.044	87.31
399.268	97.31
399.492	83.31
399.717	86.31
399.941	87.31
400.165	86.31
400.389	82.31
400.613	75.31
400.837	86.31
401.062	100.31
401.286	81.31
401.51	84.31
401.734	90.31
401.958	95.31
402.182	121.31
402.406	130.31
402.63	104.31
402.854	81.31
403.078	86.31
403.302	93.31
403.526	85.31
403.75	101.31
403.974	87.31
404.198	86.31
404.422	84.31
404.645	81.31
404.869	106.31
405.093	99.31
405.317	93.31
405.541	109.31
405.765	97.31
405.988	98.31
406.212	134.31
406.436	191.31
406.66	124.31
406.883	91.31
407.107	85.31
407.331	100.31
407.555	103.31
407.778	93.31
408.002	95.31
408.226	87.31
408.449	93.31
408.673	88.31
408.896	100.31
409.12	77.31
409.344	100.31
409.567	88.31
409.791	100.31
410.014	109.31
410.238	86.31
410.461	89.31
410.685	94.31
410.908	97.31
411.132	105.31
411.355	97.31
411.578	77.31
411.802	85.31
412.025	87.31
412.249	89.31
412.472	94.31
412.695	96.31
412.919	78.31
413.142	85.31
413.365	91.31
413.589	85.31
413.812	77.31
414.035	77.31
414.258	99.31
414.482	84.31
414.705	100.31
414.928	93.31
415.151	96.31
415.374	82.31
415.597	94.31
415.821	97.31
416.044	87.31
416.267	73.31
416.49	96.31
416.713	80.31
416.936	86.31
417.159	93.31
417.382	105.31
417.605	76.31
417.828	86.31
418.051	96.31
418.274	93.31
418.497	87.31
418.72	88.31
418.943	88.31
419.166	87.31
419.389	82.31
419.611	97.31
419.834	100.31
420.057	87.31
420.28	98.31
420.503	97.31
420.726	97.31
420.948	111.31
421.171	91.31
421.394	82.31
421.617	100.31
421.839	103.31
422.062	91.31
422.285	91.31
422.507	92.31
422.73	109.31
422.953	95.31
423.175	93.31
423.398	96.31
423.621	79.31
423.843	104.31
424.066	85.31
424.288	91.31
424.511	97.31
424.733	102.31
424.956	97.31
425.178	89.31
425.401	87.31
425.623	105.31
425.846	94.31
426.068	91.31
426.291	88.31
426.513	88.31
426.735	78.31
426.958	100.31
427.18	103.31
427.402	106.31
427.625	133.31
427.847	118.31
428.069	117.31
428.292	92.31
428.514	91.31
428.736	81.31
428.958	81.31
429.181	82.31
429.403	93.31
429.625	89.31
429.847	95.31
430.069	85.31
430.292	80.31
430.514	92.31
430.736	85.31
430.958	89.31
431.18	93.31
431.402	99.31
431.624	92.31
431.846	100.31
432.068	83.31
432.29	92.31
432.512	102.31
432.734	78.31
432.956	86.31
433.178	107.31
433.4	106.31
433.622	95.31
433.844	102.31
434.066	87.31
434.287	77.31
434.509	96.31
434.731	95.31
434.953	85.31
435.175	90.31
435.397	85.31
435.618	81.31
435.84	88.31
436.062	120.31
436.284	109.31
436.505	97.31
436.727	103.31
436.949	97.31
437.17	78.31
437.392	95.31
437.614	96.31
437.835	85.31
438.057	110.31
438.278	105.31
438.5	111.31
438.721	99.31
438.943	98.31
439.165	77.31
439.386	98.31
439.608	90.31
439.829	93.31
440.05	114.31
440.272	124.31
440.493	90.31
440.715	88.31
440.936	92.31
441.158	80.31
441.379	80.31
441.6	91.31
441.822	101.31
442.043	97.31
442.264	105.31
442.486	93.31
442.707	95.31
442.928	85.31
443.149	117.31
443.371	109.31
443.592	106.31
443.813	103.31
444.034	93.31
444.255	90.31
444.476	86.31
444.698	103.31
444.919	92.31
445.14	121.31
445.361	113.31
445.582	100.31
445.803	118.31
446.024	104.31
446.245	107.31
446.466	99.31
446.687	79.31
446.908	83.31
447.129	75.31
447.35	104.31
447.571	95.31
447.792	91.31
448.013	102.31
448.234	103.31
448.455	113.31
448.675	103.31
448.896	108.31
449.117	80.31
449.338	113.31
449.559	115.31
449.779	113.31
450	86.31
450.221	79.31
450.442	86.31
450.662	97.31
450.883	104.31
451.104	102.31
451.324	105.31
451.545	83.31
451.766	92.31
451.986	91.31
452.207	83.31
452.428	96.31
452.648	108.31
452.869	97.31
453.089	106.31
453.31	117.31
453.53	93.31
453.751	91.31
453.971	92.31
454.192	98.31
454.412	97.31
454.633	84.31
454.853	84.31
455.073	79.31
455.294	82.31
455.514	98.31
455.734	90.31
455.955	81.31
456.175	91.31
456.395	87.31
456.616	82.31
456.836	85.31
457.056	76.31
457.276	79.31
457.497	101.31
457.717	77.31
457.937	84.31
458.157	89.31
458.377	104.31
458.598	103.31
458.818	140.31
459.038	145.31
459.258	102.31
459.478	94.31
459.698	78.31
459.918	79.31
460.138	85.31
460.358	85.31
460.578	81.31
460.798	97.31
461.018	89.31
461.238	87.31
461.458	81.31
461.678	80.31
461.898	83.31
462.118	78.31
462.338	81.31
462.558	96.31
462.777	90.31
462.997	80.31
463.217	82.31
463.437	85.31
463.657	86.31
463.876	84.31
464.096	91.31
464.316	102.31
464.536	96.31
464.755	97.31
464.975	103.31
465.195	159.31
465.414	127.31
465.634	101.31
465.854	88.31
466.073	84.31
466.293	79.31
466.512	96.31
466.732	105.31
466.951	84.31
467.171	89.31
467.391	98.31
467.61	92.31
467.829	102.31
468.049	113.31
468.268	116.31
468.488	95.31
468.707	72.31
468.927	85.31
469.146	90.31
469.365	90.31
469.585	93.31
469.804	90.31
470.023	102.31
470.243	97.31
470.462	94.31
470.681	101.31
470.901	87.31
471.12	86.31
471.339	94.31
471.558	72.31
471.777	86.31
471.997	101.31
472.216	168.31
472.435	236.31
472.654	109.31
472.873	79.31
473.092	86.31
473.311	88.31
473.53	77.31
473.749	93.31
473.968	98.31
474.187	97.31
474.406	89.31
474.625	82.31
474.844	89.31
475.063	75.31
475.282	96.31
475.501	81.31
475.72	83.31
475.939	88.31
476.158	91.31
476.377	95.31
476.596	90.31
476.814	90.31
477.033	86.31
477.252	88.31
477.471	79.31
477.69	77.31
477.908	69.31
478.127	89.31
478.346	81.31
478.564	95.31
478.783	98.31
479.002	94.31
479.22	88.31
479.439	103.31
479.658	102.31
479.876	85.31
480.095	89.31
480.313	88.31
480.532	79.31
480.751	105.31
480.969	168.31
481.188	363.31
481.406	252.31
481.624	98.31
481.843	82.31
482.061	80.31
482.28	85.31
482.498	76.31
482.717	81.31
482.935	94.31
483.153	80.31
483.372	78.31
483.59	65.31
483.808	85.31
484.027	94.31
484.245	88.31
484.463	81.31
484.681	100.31
484.9	100.31
485.118	93.31
485.336	96.31
485.554	98.31
485.772	97.31
485.99	87.31
486.209	92.31
486.427	100.31
486.645	106.31
486.863	94.31
487.081	108.31
487.299	101.31
487.517	91.31
487.735	106.31
487.953	98.31
488.171	90.31
488.389	88.31
488.607	113.31
488.825	88.31
489.043	82.31
489.261	106.31
489.479	94.31
489.696	94.31
489.914	82.31
490.132	92.31
490.35	92.31
490.568	89.31
490.786	90.31
491.003	91.31
491.221	96.31
491.439	90.31
491.657	83.31
491.874	97.31
492.092	92.31
492.31	84.31
492.527	82.31
492.745	104.31
492.963	99.31
493.18	80.31
493.398	93.31
493.615	94.31
493.833	97.31
494.05	78.31
494.268	109.31
494.485	95.31
494.703	105.31
494.92	103.31
495.138	97.31
495.355	95.31
495.573	98.31
495.79	79.31
496.008	95.31
496.225	86.31
496.442	97.31
496.66	104.31
496.877	83.31
497.094	88.31
497.312	103.31
497.529	101.31
497.746	99.31
497.963	95.31
498.181	95.31
498.398	106.31
498.615	103.31
498.832	105.31
499.049	91.31
499.267	90.31
499.484	77.31
499.701	90.31
499.918	94.31
500.135	90.31
500.352	105.31
500.569	94.31
500.786	95.31
501.003	91.31
501.22	94.31
501.437	88.31
501.654	90.31
501.871	99.31
502.088	97.31
502.305	90.31
502.522	94.31
502.739	83.31
502.956	95.31
503.172	93.31
503.389	98.31
503.606	111.31
503.823	89.31
504.04	97.31
504.256	90.31
504.473	93.31
504.69	89.31
504.907	78.31
505.123	82.31
505.34	89.31
505.557	89.31
505.773	76.31
505.99	69.31
506.207	77.31
506.423	85.31
506.64	100.31
506.856	83.31
507.073	80.31
507.289	95.31
507.506	97.31
507.722	116.31
507.939	103.31
508.155	103.31
508.372	93.31
508.588	93.31
508.805	85.31
509.021	92.31
509.238	103.31
509.454	81.31
509.67	101.31
509.887	107.31
510.103	120.31
510.319	172.31
510.536	590.31
510.752	1810.31
510.968	534.31
511.184	152.31
511.401	95.31
511.617	88.31
511.833	80.31
512.049	83.31
512.265	88.31
512.481	93.31
512.698	101.31
512.914	95.31
513.13	78.31
513.346	87.31
513.562	89.31
513.778	91.31
513.994	94.31
514.21	88.31
514.426	102.31
514.642	101.31
514.858	118.31
515.074	140.31
515.29	327.31
515.506	1066.31
515.721	438.31
