Data from Circ_2010_H10_HRD10591_00038.txt Node
Date: Wed Jan 03 10:09:48 EST 2024
User: Yrep
Spectrometer: HR+D1059
Trigger mode: 1
Integration Time (sec): 1.000000E-1
Scans to average: 1
Electric dark correction enabled: true
Nonlinearity correction enabled: false
Boxcar width: 0
XAxis mode: Wavelengths
Number of Pixels in Spectrum: 2048
>>>>>Begin Spectral Data<<<<<
223.165	-14.06
223.4	-14.06
223.635	-14.06
223.869	-12.06
224.104	-23.06
224.338	-18.06
224.573	-23.06
224.808	-13.06
225.042	-14.06
225.277	-1.06
225.511	8.94
225.746	3.94
225.98	2.94
226.215	11.94
226.449	14.94
226.683	19.94
226.918	19.94
227.152	35.94
227.387	33.94
227.621	43.94
227.856	57.94
228.09	44.94
228.324	55.94
228.559	52.94
228.793	69.94
229.027	63.94
229.262	75.94
229.496	62.94
229.73	71.94
229.964	69.94
230.199	83.94
230.433	80.94
230.667	89.94
230.901	82.94
231.136	71.94
231.37	73.94
231.604	79.94
231.838	90.94
232.072	78.94
232.306	86.94
232.541	98.94
232.775	82.94
233.009	86.94
233.243	87.94
233.477	80.94
233.711	73.94
233.945	78.94
234.179	77.94
234.413	89.94
234.647	94.94
234.881	79.94
235.115	79.94
235.349	78.94
235.583	81.94
235.817	84.94
236.051	86.94
236.285	84.94
236.519	66.94
236.753	82.94
236.987	74.94
237.221	72.94
237.455	99.94
237.689	77.94
237.922	74.94
238.156	77.94
238.39	79.94
238.624	75.94
238.858	72.94
239.091	87.94
239.325	78.94
239.559	69.94
239.793	79.94
240.027	58.94
240.26	88.94
240.494	83.94
240.728	74.94
240.961	74.94
241.195	77.94
241.429	74.94
241.662	88.94
241.896	79.94
242.13	84.94
242.363	73.94
242.597	86.94
242.83	73.94
243.064	75.94
243.298	77.94
243.531	78.94
243.765	88.94
243.998	90.94
244.232	90.94
244.465	76.94
244.699	81.94
244.932	81.94
245.166	74.94
245.399	84.94
245.633	96.94
245.866	69.94
246.099	74.94
246.333	85.94
246.566	78.94
246.8	81.94
247.033	82.94
247.266	84.94
247.5	55.94
247.733	96.94
247.966	89.94
248.2	76.94
248.433	95.94
248.666	92.94
248.899	78.94
249.133	76.94
249.366	82.94
249.599	83.94
249.832	77.94
250.066	84.94
250.299	86.94
250.532	88.94
250.765	84.94
250.998	87.94
251.231	78.94
251.465	76.94
251.698	77.94
251.931	98.94
252.164	83.94
252.397	73.94
252.63	92.94
252.863	82.94
253.096	104.94
253.329	79.94
253.562	102.94
253.795	103.94
254.028	83.94
254.261	80.94
254.494	84.94
254.727	69.94
254.96	75.94
255.193	82.94
255.426	96.94
255.659	95.94
255.892	80.94
256.124	87.94
256.357	69.94
256.59	98.94
256.823	91.94
257.056	90.94
257.289	80.94
257.521	89.94
257.754	73.94
257.987	95.94
258.22	81.94
258.452	77.94
258.685	93.94
258.918	96.94
259.151	67.94
259.383	82.94
259.616	94.94
259.849	78.94
260.081	96.94
260.314	95.94
260.547	85.94
260.779	82.94
261.012	82.94
261.244	84.94
261.477	105.94
261.71	88.94
261.942	113.94
262.175	107.94
262.407	84.94
262.64	75.94
262.872	67.94
263.105	80.94
263.337	75.94
263.57	79.94
263.802	82.94
264.035	82.94
264.267	80.94
264.499	83.94
264.732	85.94
264.964	75.94
265.197	86.94
265.429	88.94
265.661	68.94
265.894	90.94
266.126	83.94
266.358	74.94
266.591	78.94
266.823	83.94
267.055	98.94
267.287	83.94
267.52	96.94
267.752	107.94
267.984	87.94
268.216	86.94
268.448	91.94
268.681	81.94
268.913	86.94
269.145	79.94
269.377	94.94
269.609	91.94
269.841	93.94
270.073	75.94
270.306	88.94
270.538	106.94
270.77	94.94
271.002	96.94
271.234	106.94
271.466	89.94
271.698	87.94
271.93	83.94
272.162	84.94
272.394	89.94
272.626	98.94
272.858	84.94
273.09	97.94
273.322	98.94
273.553	77.94
273.785	91.94
274.017	81.94
274.249	89.94
274.481	75.94
274.713	92.94
274.945	84.94
275.176	88.94
275.408	84.94
275.64	88.94
275.872	89.94
276.104	96.94
276.335	103.94
276.567	85.94
276.799	90.94
277.031	109.94
277.262	91.94
277.494	85.94
277.726	81.94
277.957	82.94
278.189	82.94
278.421	88.94
278.652	70.94
278.884	91.94
279.115	92.94
279.347	96.94
279.579	79.94
279.81	92.94
280.042	84.94
280.273	103.94
280.505	84.94
280.736	81.94
280.968	89.94
281.199	87.94
281.431	81.94
281.662	94.94
281.894	98.94
282.125	93.94
282.356	103.94
282.588	110.94
282.819	106.94
283.051	89.94
283.282	85.94
283.513	89.94
283.745	96.94
283.976	84.94
284.207	96.94
284.439	87.94
284.67	93.94
284.901	83.94
285.132	84.94
285.364	74.94
285.595	93.94
285.826	88.94
286.057	88.94
286.288	79.94
286.52	87.94
286.751	88.94
286.982	78.94
287.213	86.94
287.444	91.94
287.675	91.94
287.906	90.94
288.138	96.94
288.369	90.94
288.6	72.94
288.831	77.94
289.062	78.94
289.293	105.94
289.524	98.94
289.755	98.94
289.986	86.94
290.217	78.94
290.448	74.94
290.679	87.94
290.91	79.94
291.141	95.94
291.371	88.94
291.602	84.94
291.833	89.94
292.064	82.94
292.295	75.94
292.526	90.94
292.757	77.94
292.987	87.94
293.218	91.94
293.449	82.94
293.68	97.94
293.91	89.94
294.141	89.94
294.372	76.94
294.603	98.94
294.833	79.94
295.064	90.94
295.295	94.94
295.525	82.94
295.756	98.94
295.987	98.94
296.217	132.94
296.448	118.94
296.679	99.94
296.909	80.94
297.14	94.94
297.37	86.94
297.601	91.94
297.831	103.94
298.062	102.94
298.292	89.94
298.523	86.94
298.753	75.94
298.984	87.94
299.214	90.94
299.445	71.94
299.675	96.94
299.905	87.94
300.136	108.94
300.366	97.94
300.597	94.94
300.827	104.94
301.057	94.94
301.288	93.94
301.518	97.94
301.748	97.94
301.979	96.94
302.209	99.94
302.439	84.94
302.669	96.94
302.9	89.94
303.13	89.94
303.36	105.94
303.59	95.94
303.82	80.94
304.051	99.94
304.281	85.94
304.511	103.94
304.741	89.94
304.971	85.94
305.201	97.94
305.431	103.94
305.661	94.94
305.891	92.94
306.121	94.94
306.352	91.94
306.582	102.94
306.812	101.94
307.042	96.94
307.272	94.94
307.502	114.94
307.731	112.94
307.961	88.94
308.191	96.94
308.421	76.94
308.651	83.94
308.881	89.94
309.111	83.94
309.341	91.94
309.571	98.94
309.8	79.94
310.03	94.94
310.26	94.94
310.49	89.94
310.72	83.94
310.949	105.94
311.179	107.94
311.409	95.94
311.639	105.94
311.868	97.94
312.098	84.94
312.328	95.94
312.557	105.94
312.787	113.94
313.017	95.94
313.246	80.94
313.476	96.94
313.706	99.94
313.935	92.94
314.165	93.94
314.394	95.94
314.624	91.94
314.853	92.94
315.083	97.94
315.312	105.94
315.542	89.94
315.771	89.94
316.001	97.94
316.23	103.94
316.46	82.94
316.689	87.94
316.919	112.94
317.148	100.94
317.377	94.94
317.607	103.94
317.836	83.94
318.065	94.94
318.295	94.94
318.524	82.94
318.753	77.94
318.983	81.94
319.212	101.94
319.441	112.94
319.67	103.94
319.9	99.94
320.129	84.94
320.358	98.94
320.587	85.94
320.816	91.94
321.046	99.94
321.275	107.94
321.504	98.94
321.733	109.94
321.962	101.94
322.191	99.94
322.42	76.94
322.649	105.94
322.878	126.94
323.108	107.94
323.337	107.94
323.566	112.94
323.795	138.94
324.024	154.94
324.253	314.94
324.482	589.94
324.71	1190.94
324.939	1591.94
325.168	642.94
325.397	192.94
325.626	154.94
325.855	137.94
326.084	111.94
326.313	126.94
326.542	135.94
326.77	176.94
326.999	366.94
327.228	715.94
327.457	1241.94
327.686	1012.94
327.914	298.94
328.143	190.94
328.372	160.94
328.6	130.94
328.829	122.94
329.058	118.94
329.287	114.94
329.515	105.94
329.744	123.94
329.972	127.94
330.201	164.94
330.43	186.94
330.658	147.94
330.887	120.94
331.115	129.94
331.344	98.94
331.572	98.94
331.801	95.94
332.03	108.94
332.258	94.94
332.486	90.94
332.715	79.94
332.943	99.94
333.172	88.94
333.4	100.94
333.629	97.94
333.857	108.94
334.085	125.94
334.314	170.94
334.542	229.94
334.771	220.94
334.999	125.94
335.227	88.94
335.455	82.94
335.684	106.94
335.912	87.94
336.14	107.94
336.369	104.94
336.597	96.94
336.825	113.94
337.053	101.94
337.281	92.94
337.51	91.94
337.738	94.94
337.966	96.94
338.194	103.94
338.422	101.94
338.65	112.94
338.878	91.94
339.106	94.94
339.334	99.94
339.562	99.94
339.79	105.94
340.018	94.94
340.246	90.94
340.474	99.94
340.702	86.94
340.93	90.94
341.158	103.94
341.386	93.94
341.614	99.94
341.842	97.94
342.07	91.94
342.298	84.94
342.526	90.94
342.754	88.94
342.981	97.94
343.209	89.94
343.437	105.94
343.665	93.94
343.893	99.94
344.12	103.94
344.348	103.94
344.576	92.94
344.804	96.94
345.031	97.94
345.259	119.94
345.487	104.94
345.714	92.94
345.942	104.94
346.17	96.94
346.397	90.94
346.625	88.94
346.853	96.94
347.08	83.94
347.308	98.94
347.535	96.94
347.763	102.94
347.99	109.94
348.218	96.94
348.445	99.94
348.673	94.94
348.9	95.94
349.128	89.94
349.355	84.94
349.583	92.94
349.81	89.94
350.037	100.94
350.265	104.94
350.492	89.94
350.72	112.94
350.947	106.94
351.174	110.94
351.402	105.94
351.629	86.94
351.856	85.94
352.083	99.94
352.311	96.94
352.538	88.94
352.765	109.94
352.992	113.94
353.22	102.94
353.447	111.94
353.674	92.94
353.901	78.94
354.128	96.94
354.355	94.94
354.583	99.94
354.81	84.94
355.037	89.94
355.264	95.94
355.491	90.94
355.718	83.94
355.945	94.94
356.172	97.94
356.399	85.94
356.626	94.94
356.853	96.94
357.08	99.94
357.307	84.94
357.534	87.94
357.761	90.94
357.988	100.94
358.215	94.94
358.441	96.94
358.668	87.94
358.895	87.94
359.122	86.94
359.349	87.94
359.576	104.94
359.802	106.94
360.029	109.94
360.256	98.94
360.483	85.94
360.709	89.94
360.936	107.94
361.163	98.94
361.39	81.94
361.616	96.94
361.843	100.94
362.07	89.94
362.296	90.94
362.523	87.94
362.749	83.94
362.976	93.94
363.203	96.94
363.429	92.94
363.656	98.94
363.882	83.94
364.109	91.94
364.335	105.94
364.562	94.94
364.788	91.94
365.015	112.94
365.241	98.94
365.468	107.94
365.694	94.94
365.92	104.94
366.147	96.94
366.373	74.94
366.599	107.94
366.826	95.94
367.052	84.94
367.278	84.94
367.505	90.94
367.731	86.94
367.957	88.94
368.184	101.94
368.41	95.94
368.636	96.94
368.862	110.94
369.089	110.94
369.315	93.94
369.541	93.94
369.767	113.94
369.993	107.94
370.219	94.94
370.445	86.94
370.672	95.94
370.898	105.94
371.124	107.94
371.35	91.94
371.576	92.94
371.802	87.94
372.028	97.94
372.254	86.94
372.48	88.94
372.706	84.94
372.932	81.94
373.158	99.94
373.384	102.94
373.61	86.94
373.835	87.94
374.061	99.94
374.287	90.94
374.513	105.94
374.739	87.94
374.965	91.94
375.191	100.94
375.416	82.94
375.642	94.94
375.868	81.94
376.094	91.94
376.319	86.94
376.545	110.94
376.771	93.94
376.997	89.94
377.222	103.94
377.448	95.94
377.674	94.94
377.899	99.94
378.125	103.94
378.35	95.94
378.576	87.94
378.802	88.94
379.027	94.94
379.253	107.94
379.478	96.94
379.704	94.94
379.929	98.94
380.155	96.94
380.38	102.94
380.606	96.94
380.831	94.94
381.057	93.94
381.282	91.94
381.507	102.94
381.733	96.94
381.958	90.94
382.184	88.94
382.409	99.94
382.634	100.94
382.86	108.94
383.085	106.94
383.31	88.94
383.535	99.94
383.761	110.94
383.986	100.94
384.211	94.94
384.436	99.94
384.662	104.94
384.887	107.94
385.112	108.94
385.337	108.94
385.562	97.94
385.787	126.94
386.013	108.94
386.238	102.94
386.463	100.94
386.688	113.94
386.913	90.94
387.138	94.94
387.363	105.94
387.588	102.94
387.813	114.94
388.038	99.94
388.263	112.94
388.488	109.94
388.713	87.94
388.938	94.94
389.163	101.94
389.387	94.94
389.612	117.94
389.837	106.94
390.062	97.94
390.287	92.94
390.512	93.94
390.736	93.94
390.961	94.94
391.186	91.94
391.411	91.94
391.636	91.94
391.86	103.94
392.085	88.94
392.31	94.94
392.534	100.94
392.759	98.94
392.984	94.94
393.208	88.94
393.433	106.94
393.658	92.94
393.882	83.94
394.107	89.94
394.331	99.94
394.556	86.94
394.78	100.94
395.005	93.94
395.229	77.94
395.454	90.94
395.678	90.94
395.903	83.94
396.127	90.94
396.352	90.94
396.576	99.94
396.801	92.94
397.025	102.94
397.249	94.94
397.474	105.94
397.698	93.94
397.922	92.94
398.147	94.94
398.371	103.94
398.595	93.94
398.82	83.94
399.044	92.94
399.268	97.94
399.492	93.94
399.717	92.94
399.941	85.94
400.165	92.94
400.389	92.94
400.613	93.94
400.837	84.94
401.062	90.94
401.286	95.94
401.51	90.94
401.734	98.94
401.958	85.94
402.182	125.94
402.406	142.94
402.63	108.94
402.854	102.94
403.078	82.94
403.302	88.94
403.526	92.94
403.75	82.94
403.974	85.94
404.198	86.94
404.422	91.94
404.645	79.94
404.869	83.94
405.093	103.94
405.317	100.94
405.541	112.94
405.765	96.94
405.988	103.94
406.212	129.94
406.436	176.94
406.66	136.94
406.883	98.94
407.107	103.94
407.331	97.94
407.555	92.94
407.778	95.94
408.002	92.94
408.226	88.94
408.449	101.94
408.673	81.94
408.896	98.94
409.12	107.94
409.344	92.94
409.567	110.94
409.791	91.94
410.014	81.94
410.238	90.94
410.461	103.94
410.685	99.94
410.908	100.94
411.132	109.94
411.355	108.94
411.578	88.94
411.802	99.94
412.025	77.94
412.249	97.94
412.472	106.94
412.695	96.94
412.919	83.94
413.142	95.94
413.365	91.94
413.589	90.94
413.812	84.94
414.035	98.94
414.258	93.94
414.482	101.94
414.705	88.94
414.928	98.94
415.151	95.94
415.374	83.94
415.597	93.94
415.821	93.94
416.044	79.94
416.267	89.94
416.49	94.94
416.713	97.94
416.936	108.94
417.159	89.94
417.382	103.94
417.605	98.94
417.828	102.94
418.051	76.94
418.274	84.94
418.497	100.94
418.72	97.94
418.943	106.94
419.166	92.94
419.389	82.94
419.611	77.94
419.834	91.94
420.057	94.94
420.28	87.94
420.503	98.94
420.726	96.94
420.948	94.94
421.171	90.94
421.394	107.94
421.617	99.94
421.839	85.94
422.062	78.94
422.285	99.94
422.507	98.94
422.73	108.94
422.953	98.94
423.175	90.94
423.398	97.94
423.621	92.94
423.843	94.94
424.066	82.94
424.288	101.94
424.511	104.94
424.733	91.94
424.956	105.94
425.178	101.94
425.401	97.94
425.623	111.94
425.846	95.94
426.068	94.94
426.291	103.94
426.513	92.94
426.735	92.94
426.958	96.94
427.18	96.94
427.402	110.94
427.625	141.94
427.847	118.94
428.069	117.94
428.292	103.94
428.514	86.94
428.736	84.94
428.958	96.94
429.181	89.94
429.403	81.94
429.625	81.94
429.847	92.94
430.069	95.94
430.292	91.94
430.514	91.94
430.736	87.94
430.958	105.94
431.18	91.94
431.402	89.94
431.624	83.94
431.846	90.94
432.068	80.94
432.29	96.94
432.512	93.94
432.734	97.94
432.956	107.94
433.178	112.94
433.4	99.94
433.622	105.94
433.844	98.94
434.066	106.94
434.287	111.94
434.509	97.94
434.731	97.94
434.953	91.94
435.175	95.94
435.397	96.94
435.618	91.94
435.84	106.94
436.062	110.94
436.284	110.94
436.505	103.94
436.727	96.94
436.949	91.94
437.17	81.94
437.392	86.94
437.614	93.94
437.835	108.94
438.057	98.94
438.278	108.94
438.5	94.94
438.721	99.94
438.943	105.94
439.165	89.94
439.386	98.94
439.608	99.94
439.829	106.94
440.05	103.94
440.272	125.94
440.493	100.94
440.715	103.94
440.936	86.94
441.158	96.94
441.379	99.94
441.6	91.94
441.822	84.94
442.043	98.94
442.264	112.94
442.486	88.94
442.707	82.94
442.928	117.94
443.149	119.94
443.371	116.94
443.592	106.94
443.813	112.94
444.034	105.94
444.255	97.94
444.476	84.94
444.698	90.94
444.919	79.94
445.14	119.94
445.361	123.94
445.582	91.94
445.803	120.94
446.024	118.94
446.245	118.94
446.466	91.94
446.687	82.94
446.908	88.94
447.129	87.94
447.35	92.94
447.571	108.94
447.792	97.94
448.013	129.94
448.234	80.94
448.455	111.94
448.675	111.94
448.896	107.94
449.117	109.94
449.338	115.94
449.559	110.94
449.779	124.94
450	83.94
450.221	97.94
450.442	97.94
450.662	96.94
450.883	103.94
451.104	107.94
451.324	98.94
451.545	95.94
451.766	80.94
451.986	94.94
452.207	95.94
452.428	81.94
452.648	83.94
452.869	90.94
453.089	113.94
453.31	100.94
453.53	96.94
453.751	89.94
453.971	102.94
454.192	102.94
454.412	86.94
454.633	102.94
454.853	74.94
455.073	80.94
455.294	84.94
455.514	102.94
455.734	90.94
455.955	83.94
456.175	88.94
456.395	84.94
456.616	86.94
456.836	77.94
457.056	90.94
457.276	87.94
457.497	93.94
457.717	71.94
457.937	105.94
458.157	85.94
458.377	103.94
458.598	92.94
458.818	140.94
459.038	134.94
459.258	94.94
459.478	99.94
459.698	82.94
459.918	73.94
460.138	81.94
460.358	92.94
460.578	94.94
460.798	96.94
461.018	104.94
461.238	84.94
461.458	86.94
461.678	99.94
461.898	80.94
462.118	87.94
462.338	90.94
462.558	78.94
462.777	84.94
462.997	93.94
463.217	90.94
463.437	82.94
463.657	81.94
463.876	82.94
464.096	93.94
464.316	83.94
464.536	85.94
464.755	96.94
464.975	98.94
465.195	137.94
465.414	136.94
465.634	93.94
465.854	94.94
466.073	89.94
466.293	77.94
466.512	87.94
466.732	86.94
466.951	90.94
467.171	67.94
467.391	66.94
467.61	102.94
467.829	114.94
468.049	132.94
468.268	150.94
468.488	81.94
468.707	88.94
468.927	109.94
469.146	77.94
469.365	107.94
469.585	88.94
469.804	93.94
470.023	82.94
470.243	93.94
470.462	92.94
470.681	102.94
470.901	104.94
471.12	96.94
471.339	99.94
471.558	102.94
471.777	92.94
471.997	104.94
472.216	183.94
472.435	277.94
472.654	115.94
472.873	107.94
473.092	84.94
473.311	93.94
473.53	81.94
473.749	100.94
473.968	88.94
474.187	93.94
474.406	94.94
474.625	95.94
474.844	85.94
475.063	81.94
475.282	96.94
475.501	96.94
475.72	104.94
475.939	93.94
476.158	83.94
476.377	99.94
476.596	95.94
476.814	86.94
477.033	98.94
477.252	114.94
477.471	89.94
477.69	105.94
477.908	86.94
478.127	84.94
478.346	104.94
478.564	95.94
478.783	83.94
479.002	80.94
479.22	108.94
479.439	90.94
479.658	99.94
479.876	100.94
480.095	84.94
480.313	107.94
480.532	95.94
480.751	107.94
480.969	168.94
481.188	467.94
481.406	305.94
481.624	112.94
481.843	95.94
482.061	102.94
482.28	87.94
482.498	98.94
482.717	92.94
482.935	92.94
483.153	90.94
483.372	94.94
483.59	95.94
483.808	88.94
484.027	97.94
484.245	101.94
484.463	95.94
484.681	94.94
484.9	86.94
485.118	92.94
485.336	95.94
485.554	99.94
485.772	98.94
485.99	105.94
486.209	94.94
486.427	105.94
486.645	99.94
486.863	117.94
487.081	118.94
487.299	91.94
487.517	101.94
487.735	90.94
487.953	92.94
488.171	106.94
488.389	106.94
488.607	97.94
488.825	83.94
489.043	97.94
489.261	96.94
489.479	91.94
489.696	96.94
489.914	90.94
490.132	89.94
490.35	95.94
490.568	97.94
490.786	98.94
491.003	97.94
491.221	94.94
491.439	79.94
491.657	96.94
491.874	86.94
492.092	87.94
492.31	103.94
492.527	99.94
492.745	82.94
492.963	85.94
493.18	103.94
493.398	99.94
493.615	97.94
493.833	79.94
494.05	84.94
494.268	85.94
494.485	94.94
494.703	93.94
494.92	92.94
495.138	89.94
495.355	85.94
495.573	103.94
495.79	89.94
496.008	91.94
496.225	89.94
496.442	89.94
496.66	95.94
496.877	84.94
497.094	84.94
497.312	89.94
497.529	91.94
497.746	112.94
497.963	98.94
498.181	92.94
498.398	112.94
498.615	107.94
498.832	91.94
499.049	79.94
499.267	96.94
499.484	96.94
499.701	93.94
499.918	87.94
500.135	98.94
500.352	95.94
500.569	88.94
500.786	101.94
501.003	104.94
501.22	87.94
501.437	75.94
501.654	105.94
501.871	100.94
502.088	92.94
502.305	91.94
502.522	95.94
502.739	90.94
502.956	98.94
503.172	104.94
503.389	84.94
503.606	95.94
503.823	80.94
504.04	98.94
504.256	91.94
504.473	94.94
504.69	95.94
504.907	92.94
505.123	82.94
505.34	93.94
505.557	91.94
505.773	97.94
505.99	99.94
506.207	96.94
506.423	98.94
506.64	87.94
506.856	100.94
507.073	94.94
507.289	90.94
507.506	103.94
507.722	105.94
507.939	113.94
508.155	87.94
508.372	88.94
508.588	79.94
508.805	109.94
509.021	104.94
509.238	99.94
509.454	89.94
509.67	106.94
509.887	112.94
510.103	109.94
510.319	184.94
510.536	544.94
510.752	1676.94
510.968	502.94
511.184	139.94
511.401	102.94
511.617	100.94
511.833	112.94
512.049	102.94
512.265	102.94
512.481	92.94
512.698	95.94
512.914	82.94
513.13	95.94
513.346	96.94
513.562	94.94
513.778	97.94
513.994	94.94
514.21	103.94
514.426	119.94
514.642	142.94
514.858	114.94
515.074	138.94
515.29	311.94
