Data from Circ_2010_H10_HRD10591_00094.txt Node
Date: Wed Jan 03 10:10:00 EST 2024
User: Yrep
Spectrometer: HR+D1059
Trigger mode: 1
Integration Time (sec): 1.000000E-1
Scans to average: 1
Electric dark correction enabled: true
Nonlinearity correction enabled: false
Boxcar width: 0
XAxis mode: Wavelengths
Number of Pixels in Spectrum: 2048
>>>>>Begin Spectral Data<<<<<
223.165	-23
223.4	-23
223.635	-23
223.869	-19
224.104	-25
224.338	-17
224.573	-11
224.808	-11
225.042	-5
225.277	-12
225.511	2
225.746	1
225.98	1
226.215	17
226.449	16
226.683	29
226.918	23
227.152	34
227.387	34
227.621	44
227.856	28
228.09	34
228.324	36
228.559	50
228.793	63
229.027	68
229.262	58
229.496	58
229.73	81
229.964	70
230.199	70
230.433	66
230.667	92
230.901	73
231.136	74
231.37	72
231.604	83
231.838	71
232.072	74
232.306	65
232.541	89
232.775	85
233.009	85
233.243	84
233.477	89
233.711	87
233.945	74
234.179	78
234.413	71
234.647	78
234.881	81
235.115	65
235.349	77
235.583	67
235.817	53
236.051	83
236.285	86
236.519	83
236.753	67
236.987	80
237.221	79
237.455	78
237.689	75
237.922	79
238.156	83
238.39	82
238.624	85
238.858	74
239.091	83
239.325	77
239.559	65
239.793	81
240.027	70
240.26	79
240.494	93
240.728	83
240.961	78
241.195	65
241.429	75
241.662	63
241.896	75
242.13	76
242.363	64
242.597	74
242.83	71
243.064	70
243.298	49
243.531	71
243.765	72
243.998	79
244.232	95
244.465	86
244.699	77
244.932	74
245.166	84
245.399	75
245.633	82
245.866	88
246.099	70
246.333	74
246.566	86
246.8	80
247.033	65
247.266	87
247.5	59
247.733	79
247.966	84
248.2	92
248.433	57
248.666	72
248.899	73
249.133	75
249.366	105
249.599	83
249.832	78
250.066	84
250.299	82
250.532	67
250.765	74
250.998	76
251.231	73
251.465	85
251.698	67
251.931	65
252.164	85
252.397	78
252.63	81
252.863	82
253.096	85
253.329	73
253.562	70
253.795	60
254.028	74
254.261	67
254.494	83
254.727	77
254.96	79
255.193	79
255.426	84
255.659	85
255.892	79
256.124	79
256.357	71
256.59	72
256.823	70
257.056	79
257.289	79
257.521	83
257.754	76
257.987	83
258.22	79
258.452	87
258.685	81
258.918	62
259.151	77
259.383	68
259.616	77
259.849	70
260.081	87
260.314	75
260.547	77
260.779	81
261.012	74
261.244	82
261.477	91
261.71	90
261.942	107
262.175	127
262.407	84
262.64	74
262.872	89
263.105	90
263.337	87
263.57	86
263.802	75
264.035	75
264.267	74
264.499	76
264.732	85
264.964	89
265.197	81
265.429	73
265.661	71
265.894	91
266.126	89
266.358	94
266.591	71
266.823	77
267.055	73
267.287	86
267.52	94
267.752	67
267.984	72
268.216	82
268.448	73
268.681	70
268.913	83
269.145	95
269.377	79
269.609	85
269.841	78
270.073	67
270.306	69
270.538	74
270.77	88
271.002	86
271.234	87
271.466	79
271.698	71
271.93	90
272.162	103
272.394	85
272.626	68
272.858	86
273.09	83
273.322	65
273.553	83
273.785	71
274.017	81
274.249	74
274.481	77
274.713	89
274.945	87
275.176	95
275.408	79
275.64	76
275.872	86
276.104	94
276.335	84
276.567	102
276.799	115
277.031	102
277.262	106
277.494	82
277.726	87
277.957	98
278.189	88
278.421	87
278.652	93
278.884	71
279.115	71
279.347	86
279.579	81
279.81	75
280.042	98
280.273	108
280.505	92
280.736	84
280.968	89
281.199	59
281.431	76
281.662	87
281.894	105
282.125	90
282.356	116
282.588	144
282.819	93
283.051	89
283.282	79
283.513	79
283.745	78
283.976	90
284.207	82
284.439	92
284.67	85
284.901	80
285.132	78
285.364	62
285.595	75
285.826	84
286.057	72
286.288	102
286.52	97
286.751	73
286.982	74
287.213	84
287.444	87
287.675	90
287.906	86
288.138	85
288.369	84
288.6	79
288.831	91
289.062	75
289.293	101
289.524	73
289.755	83
289.986	87
290.217	94
290.448	76
290.679	80
290.91	88
291.141	85
291.371	87
291.602	90
291.833	79
292.064	94
292.295	79
292.526	97
292.757	86
292.987	89
293.218	86
293.449	92
293.68	88
293.91	76
294.141	94
294.372	85
294.603	82
294.833	91
295.064	92
295.295	88
295.525	88
295.756	106
295.987	96
296.217	148
296.448	109
296.679	74
296.909	100
297.14	84
297.37	84
297.601	84
297.831	85
298.062	104
298.292	98
298.523	95
298.753	77
298.984	73
299.214	90
299.445	88
299.675	98
299.905	92
300.136	90
300.366	96
300.597	108
300.827	99
301.057	99
301.288	116
301.518	92
301.748	91
301.979	101
302.209	88
302.439	98
302.669	92
302.9	84
303.13	84
303.36	95
303.59	109
303.82	104
304.051	101
304.281	83
304.511	101
304.741	89
304.971	97
305.201	73
305.431	85
305.661	91
305.891	80
306.121	99
306.352	98
306.582	108
306.812	105
307.042	93
307.272	100
307.502	104
307.731	110
307.961	101
308.191	98
308.421	76
308.651	95
308.881	82
309.111	92
309.341	90
309.571	95
309.8	105
310.03	83
310.26	88
310.49	83
310.72	92
310.949	110
311.179	95
311.409	89
311.639	99
311.868	104
312.098	96
312.328	96
312.557	105
312.787	102
313.017	87
313.246	87
313.476	91
313.706	91
313.935	99
314.165	88
314.394	105
314.624	88
314.853	114
315.083	93
315.312	94
315.542	106
315.771	83
316.001	83
316.23	85
316.46	92
316.689	99
316.919	86
317.148	88
317.377	86
317.607	75
317.836	93
318.065	86
318.295	100
318.524	98
318.753	86
318.983	107
319.212	122
319.441	110
319.67	100
319.9	101
320.129	85
320.358	100
320.587	85
320.816	96
321.046	103
321.275	99
321.504	96
321.733	92
321.962	101
322.191	107
322.42	103
322.649	104
322.878	73
323.108	118
323.337	130
323.566	132
323.795	143
324.024	211
324.253	419
324.482	875
324.71	1777
324.939	2318
325.168	876
325.397	250
325.626	141
325.855	109
326.084	133
326.313	142
326.542	164
326.77	246
326.999	502
327.228	970
327.457	1799
327.686	1425
327.914	385
328.143	255
328.372	218
328.6	142
328.829	114
329.058	122
329.287	139
329.515	113
329.744	137
329.972	162
330.201	241
330.43	313
330.658	196
330.887	151
331.115	125
331.344	100
331.572	103
331.801	109
332.03	89
332.258	108
332.486	97
332.715	87
332.943	85
333.172	80
333.4	94
333.629	126
333.857	130
334.085	151
334.314	245
334.542	394
334.771	365
334.999	151
335.227	113
335.455	99
335.684	94
335.912	86
336.14	85
336.369	87
336.597	105
336.825	92
337.053	94
337.281	79
337.51	84
337.738	88
337.966	83
338.194	94
338.422	92
338.65	84
338.878	95
339.106	90
339.334	92
339.562	93
339.79	85
340.018	81
340.246	104
340.474	72
340.702	90
340.93	83
341.158	90
341.386	101
341.614	99
341.842	82
342.07	110
342.298	96
342.526	69
342.754	84
342.981	90
343.209	90
343.437	86
343.665	85
343.893	90
344.12	91
344.348	82
344.576	84
344.804	101
345.031	99
345.259	88
345.487	107
345.714	99
345.942	101
346.17	92
346.397	103
346.625	89
346.853	103
347.08	100
347.308	98
347.535	93
347.763	101
347.99	89
348.218	105
348.445	98
348.673	93
348.9	91
349.128	88
349.355	94
349.583	93
349.81	82
350.037	81
350.265	90
350.492	93
350.72	78
350.947	102
351.174	111
351.402	95
351.629	106
351.856	94
352.083	118
352.311	91
352.538	107
352.765	108
352.992	116
353.22	117
353.447	100
353.674	91
353.901	85
354.128	99
354.355	93
354.583	84
354.81	104
355.037	84
355.264	102
355.491	94
355.718	74
355.945	79
356.172	85
356.399	108
356.626	82
356.853	88
357.08	87
357.307	91
357.534	81
357.761	89
357.988	82
358.215	105
358.441	97
358.668	81
358.895	100
359.122	82
359.349	83
359.576	76
359.802	94
360.029	109
360.256	103
360.483	95
360.709	70
360.936	101
361.163	92
361.39	104
361.616	94
361.843	86
362.07	74
362.296	102
362.523	98
362.749	95
362.976	88
363.203	78
363.429	91
363.656	103
363.882	86
364.109	87
364.335	98
364.562	86
364.788	92
365.015	98
365.241	89
365.468	93
365.694	98
365.92	102
366.147	82
366.373	85
366.599	81
366.826	97
367.052	104
367.278	91
367.505	85
367.731	95
367.957	97
368.184	104
368.41	93
368.636	103
368.862	116
369.089	113
369.315	79
369.541	85
369.767	88
369.993	83
370.219	81
370.445	73
370.672	87
370.898	67
371.124	90
371.35	84
371.576	95
371.802	83
372.028	88
372.254	92
372.48	79
372.706	78
372.932	62
373.158	83
373.384	92
373.61	99
373.835	91
374.061	80
374.287	88
374.513	90
374.739	93
374.965	91
375.191	87
375.416	85
375.642	100
375.868	82
376.094	90
376.319	91
376.545	72
376.771	85
376.997	92
377.222	96
377.448	76
377.674	87
377.899	84
378.125	93
378.35	86
378.576	72
378.802	99
379.027	92
379.253	83
379.478	78
379.704	89
379.929	79
380.155	84
380.38	97
380.606	102
380.831	106
381.057	75
381.282	87
381.507	75
381.733	97
381.958	86
382.184	79
382.409	91
382.634	95
382.86	90
383.085	102
383.31	97
383.535	90
383.761	99
383.986	90
384.211	83
384.436	82
384.662	93
384.887	97
385.112	114
385.337	99
385.562	90
385.787	96
386.013	97
386.238	125
386.463	104
386.688	97
386.913	100
387.138	88
387.363	83
387.588	101
387.813	100
388.038	111
388.263	104
388.488	95
388.713	105
388.938	101
389.163	89
389.387	89
389.612	100
389.837	83
390.062	81
390.287	94
390.512	92
390.736	99
390.961	93
391.186	74
391.411	96
391.636	90
391.86	94
392.085	94
392.31	76
392.534	77
392.759	92
392.984	92
393.208	98
393.433	90
393.658	86
393.882	83
394.107	89
394.331	80
394.556	93
394.78	86
395.005	83
395.229	74
395.454	89
395.678	92
395.903	81
396.127	87
396.352	82
396.576	87
396.801	100
397.025	94
397.249	85
397.474	91
397.698	81
397.922	84
398.147	88
398.371	97
398.595	82
398.82	78
399.044	82
399.268	83
399.492	69
399.717	78
399.941	94
400.165	92
400.389	79
400.613	81
400.837	97
401.062	88
401.286	89
401.51	89
401.734	100
401.958	106
402.182	131
402.406	163
402.63	106
402.854	77
403.078	84
403.302	79
403.526	75
403.75	83
403.974	92
404.198	82
404.422	92
404.645	103
404.869	102
405.093	99
405.317	111
405.541	93
405.765	82
405.988	101
406.212	170
406.436	216
406.66	154
406.883	92
407.107	82
407.331	93
407.555	99
407.778	94
408.002	89
408.226	83
408.449	87
408.673	93
408.896	88
409.12	93
409.344	85
409.567	98
409.791	92
410.014	92
410.238	91
410.461	81
410.685	93
410.908	86
411.132	97
411.355	87
411.578	91
411.802	91
412.025	89
412.249	95
412.472	93
412.695	110
412.919	87
413.142	84
413.365	90
413.589	88
413.812	84
414.035	74
414.258	103
414.482	79
414.705	85
414.928	87
415.151	93
415.374	84
415.597	79
415.821	73
416.044	70
416.267	84
416.49	83
416.713	90
416.936	99
417.159	92
417.382	87
417.605	90
417.828	88
418.051	90
418.274	79
418.497	88
418.72	77
418.943	93
419.166	76
419.389	75
419.611	74
419.834	85
420.057	84
420.28	86
420.503	93
420.726	85
420.948	89
421.171	96
421.394	98
421.617	86
421.839	94
422.062	98
422.285	90
422.507	103
422.73	98
422.953	90
423.175	89
423.398	89
423.621	77
423.843	83
424.066	79
424.288	88
424.511	93
424.733	94
424.956	106
425.178	109
425.401	93
425.623	91
425.846	88
426.068	99
426.291	78
426.513	88
426.735	89
426.958	78
427.18	107
427.402	135
427.625	150
427.847	145
428.069	134
428.292	98
428.514	92
428.736	90
428.958	81
429.181	75
429.403	72
429.625	72
429.847	77
430.069	84
430.292	83
430.514	93
430.736	78
430.958	79
431.18	91
431.402	86
431.624	79
431.846	86
432.068	81
432.29	76
432.512	70
432.734	81
432.956	87
433.178	115
433.4	100
433.622	75
433.844	87
434.066	82
434.287	85
434.509	98
434.731	91
434.953	79
435.175	79
435.397	90
435.618	81
435.84	106
436.062	121
436.284	110
436.505	99
436.727	96
436.949	101
437.17	83
437.392	89
437.614	85
437.835	100
438.057	119
438.278	106
438.5	90
438.721	108
438.943	94
439.165	74
439.386	84
439.608	91
439.829	102
440.05	121
440.272	133
440.493	113
440.715	91
440.936	96
441.158	80
441.379	99
441.6	100
441.822	86
442.043	76
442.264	90
442.486	86
442.707	84
442.928	110
443.149	116
443.371	122
443.592	95
443.813	102
444.034	107
444.255	90
444.476	73
444.698	83
444.919	84
445.14	129
445.361	133
445.582	116
445.803	130
446.024	121
446.245	122
446.466	115
446.687	82
446.908	94
447.129	91
447.35	79
447.571	91
447.792	92
448.013	91
448.234	105
448.455	110
448.675	113
448.896	119
449.117	102
449.338	100
449.559	119
449.779	117
450	82
450.221	85
450.442	87
450.662	89
450.883	113
451.104	114
451.324	88
451.545	86
451.766	85
451.986	86
452.207	99
452.428	100
452.648	92
452.869	88
453.089	120
453.31	111
453.53	99
453.751	95
453.971	104
454.192	101
454.412	92
454.633	88
454.853	80
455.073	92
455.294	79
455.514	97
455.734	89
455.955	73
456.175	89
456.395	83
456.616	95
456.836	98
457.056	85
457.276	97
457.497	90
457.717	90
457.937	76
458.157	65
458.377	88
458.598	101
458.818	142
459.038	157
459.258	107
459.478	85
459.698	90
459.918	92
460.138	83
460.358	81
460.578	85
460.798	97
461.018	84
461.238	83
461.458	82
461.678	76
461.898	86
462.118	69
462.338	79
462.558	95
462.777	67
462.997	78
463.217	98
463.437	85
463.657	73
463.876	84
464.096	88
464.316	80
464.536	89
464.755	105
464.975	96
465.195	181
465.414	140
465.634	89
465.854	92
466.073	85
466.293	99
466.512	78
466.732	82
466.951	90
467.171	86
467.391	88
467.61	103
467.829	131
468.049	178
468.268	210
468.488	125
468.707	88
468.927	76
469.146	87
469.365	95
469.585	89
469.804	87
470.023	97
470.243	88
470.462	98
470.681	114
470.901	82
471.12	90
471.339	92
471.558	97
471.777	104
471.997	130
472.216	285
472.435	535
472.654	190
472.873	87
473.092	73
473.311	94
473.53	80
473.749	90
473.968	98
474.187	107
474.406	91
474.625	84
474.844	86
475.063	73
475.282	81
475.501	88
475.72	93
475.939	87
476.158	92
476.377	82
476.596	78
476.814	107
477.033	95
477.252	71
477.471	92
477.69	80
477.908	89
478.127	86
478.346	82
478.564	101
478.783	97
479.002	86
479.22	97
479.439	109
479.658	99
479.876	89
480.095	81
480.313	90
480.532	102
480.751	118
480.969	282
481.188	893
481.406	563
481.624	139
481.843	106
482.061	91
482.28	82
482.498	96
482.717	102
482.935	91
483.153	99
483.372	83
483.59	81
483.808	86
484.027	102
484.245	108
484.463	90
484.681	104
484.9	90
485.118	84
485.336	91
485.554	98
485.772	102
485.99	85
486.209	96
486.427	93
486.645	107
486.863	109
487.081	99
487.299	94
487.517	104
487.735	86
487.953	94
488.171	95
488.389	86
488.607	91
488.825	98
489.043	89
489.261	85
489.479	103
489.696	99
489.914	79
490.132	84
490.35	94
490.568	81
490.786	93
491.003	87
491.221	94
491.439	88
491.657	102
491.874	78
492.092	108
492.31	90
492.527	89
492.745	83
492.963	93
493.18	79
493.398	98
493.615	77
493.833	102
494.05	86
494.268	90
494.485	90
494.703	85
494.92	94
495.138	94
495.355	92
495.573	93
495.79	87
496.008	100
496.225	100
496.442	89
496.66	83
496.877	79
497.094	83
497.312	86
497.529	89
497.746	79
497.963	103
498.181	70
498.398	81
498.615	105
498.832	95
499.049	98
499.267	90
499.484	90
499.701	105
499.918	96
500.135	86
500.352	94
500.569	90
500.786	80
501.003	87
501.22	87
501.437	90
501.654	77
501.871	114
502.088	93
502.305	91
502.522	108
502.739	77
502.956	77
503.172	93
503.389	102
503.606	100
503.823	98
504.04	75
504.256	93
504.473	97
504.69	86
504.907	88
505.123	82
505.34	87
505.557	87
505.773	81
505.99	92
506.207	83
506.423	80
506.64	75
506.856	84
507.073	86
507.289	91
507.506	109
507.722	104
507.939	94
508.155	93
508.372	90
508.588	83
508.805	104
509.021	89
509.238	92
509.454	103
509.67	100
509.887	102
510.103	115
510.319	203
510.536	753
510.752	2393
510.968	661
511.184	162
511.401	111
511.617	98
511.833	89
512.049	105
512.265	94
512.481	91
512.698	110
512.914	103
513.13	87
513.346	93
513.562	99
513.778	91
513.994	94
514.21	99
514.426	116
514.642	126
514.858	101
515.074	161
515.29	477
515.506	1530
515.721	609
515.937	161
516.153	110
516.369	98
516.585	88
516.801	101
517.016	94
517.232	90
517.448	90
517.664	90
517.879	71
518.095	94
518.311	76
518.527	88
518.742	88
518.958	99
519.173	91
519.389	89
519.605	81
519.82	81
520.036	87
520.251	99
520.467	110
520.682	110
520.898	104
521.113	113
521.329	119
521.544	199
521.76	586
521.975	2589
522.19	1555
522.406	325
522.621	133
522.836	100
523.052	98
523.267	86
523.482	91
523.698	84
523.913	129
524.128	92
524.343	103
524.559	95
524.774	86
524.989	92
525.204	85
525.419	99
525.634	81
525.849	88
526.064	101
526.28	95
526.495	74
526.71	80
526.925	93
527.14	94
527.355	97
527.57	76
527.785	80
527.999	91
528.214	92
528.429	93
528.644	88
528.859	79
529.074	96
529.289	118
529.503	179
529.718	99
529.933	91
530.148	95
530.363	86
530.577	90
530.792	83
531.007	94
531.221	87
531.436	84
531.651	77
531.865	95
532.08	94
532.295	95
532.509	103
532.724	94
532.938	85
533.153	81
533.367	79
533.582	67
533.796	77
534.011	98
534.225	83
534.44	103
534.654	99
534.868	87
535.083	82
535.297	94
535.511	95
535.726	102
535.94	87
536.154	87
536.369	91
536.583	90
536.797	99
537.011	86
537.225	75
537.44	81
537.654	73
537.868	97
538.082	73
538.296	87
538.51	91
538.724	84
538.938	86
539.153	96
539.367	108
539.581	86
539.795	94
540.009	89
540.222	83
540.436	88
540.65	84
540.864	86
541.078	87
541.292	95
541.506	102
541.72	84
541.934	84
542.147	81
542.361	73
542.575	98
542.789	85
543.002	99
543.216	85
543.43	85
543.644	99
543.857	98
544.071	80
544.285	85
544.498	100
544.712	92
544.925	94
545.139	80
545.352	87
545.566	66
545.779	93
545.993	93
546.206	77
546.42	94
546.633	92
546.847	98
547.06	91
547.274	97
547.487	92
547.7	86
547.914	77
548.127	89
548.34	79
548.554	78
548.767	86
548.98	93
549.193	94
549.407	83
549.62	103
549.833	89
550.046	83
550.259	79
550.473	92
550.686	95
550.899	79
551.112	89
551.325	78
551.538	80
551.751	98
551.964	74
552.177	77
552.39	87
552.603	80
552.816	79
553.029	90
553.242	83
553.455	101
553.667	102
553.88	102
554.093	91
554.306	102
554.519	103
554.732	92
554.944	105
555.157	100
555.37	87
555.583	109
555.795	108
556.008	91
556.221	90
556.433	92
556.646	77
556.859	91
557.071	81
557.284	111
557.496	84
557.709	82
557.921	94
558.134	95
558.346	87
558.559	78
558.771	82
558.984	88
559.196	88
559.409	90
559.621	86
559.833	73
560.046	82
560.258	98
560.47	85
560.683	95
560.895	78
561.107	89
561.32	80
561.532	93
561.744	92
561.956	91
562.168	91
562.381	78
562.593	92
562.805	91
563.017	85
563.229	89
563.441	96
563.653	99
563.865	89
564.077	94
564.289	83
564.501	93
564.713	89
564.925	89
565.137	109
565.349	98
565.561	81
565.773	83
565.985	82
566.197	87
566.408	91
566.62	87
566.832	83
567.044	89
567.255	89
567.467	87
567.679	79
567.891	84
568.102	90
568.314	70
568.526	92
568.737	90
568.949	91
569.161	86
569.372	82
569.584	87
569.795	97
570.007	119
570.218	235
570.43	125
570.641	91
570.853	80
571.064	65
571.276	85
571.487	89
571.698	86
571.91	82
572.121	94
572.333	83
572.544	84
572.755	81
572.966	86
573.178	86
573.389	86
573.6	85
573.811	83
574.023	83
574.234	87
574.445	66
574.656	86
574.867	86
575.078	82
575.289	79
575.501	80
575.712	90
575.923	85
576.134	81
576.345	79
576.556	88
576.767	91
576.978	91
577.188	89
577.399	91
577.61	84
577.821	98
578.032	106
578.243	273
578.454	755
578.665	219
578.875	105
579.086	84
579.297	83
579.508	106
579.718	91
579.929	79
580.14	91
580.35	82
580.561	87
580.772	94
580.982	81
581.193	73
581.403	70
581.614	84
581.825	63
582.035	83
582.246	110
582.456	86
582.667	81
582.877	84
583.087	88
583.298	80
583.508	77
583.719	79
583.929	70
584.139	85
584.35	83
584.56	92
584.77	67
584.981	83
