Data from Circ_2010_H10_HRD10591_00058.txt Node
Date: Wed Jan 03 10:09:52 EST 2024
User: Yrep
Spectrometer: HR+D1059
Trigger mode: 1
Integration Time (sec): 1.000000E-1
Scans to average: 1
Electric dark correction enabled: true
Nonlinearity correction enabled: false
Boxcar width: 0
XAxis mode: Wavelengths
Number of Pixels in Spectrum: 2048
>>>>>Begin Spectral Data<<<<<
223.165	-18.44
223.4	-18.44
223.635	-18.44
223.869	-22.44
224.104	-22.44
224.338	-19.44
224.573	-8.44
224.808	-1.44
225.042	-3.44
225.277	-1.44
225.511	1.56
225.746	-1.44
225.98	21.56
226.215	13.56
226.449	13.56
226.683	20.56
226.918	13.56
227.152	14.56
227.387	9.56
227.621	38.56
227.856	41.56
228.09	45.56
228.324	57.56
228.559	56.56
228.793	53.56
229.027	63.56
229.262	85.56
229.496	71.56
229.73	68.56
229.964	79.56
230.199	82.56
230.433	75.56
230.667	78.56
230.901	76.56
231.136	81.56
231.37	62.56
231.604	85.56
231.838	86.56
232.072	84.56
232.306	76.56
232.541	85.56
232.775	87.56
233.009	83.56
233.243	83.56
233.477	77.56
233.711	81.56
233.945	77.56
234.179	85.56
234.413	83.56
234.647	71.56
234.881	75.56
235.115	89.56
235.349	91.56
235.583	78.56
235.817	80.56
236.051	88.56
236.285	82.56
236.519	55.56
236.753	59.56
236.987	67.56
237.221	83.56
237.455	81.56
237.689	72.56
237.922	61.56
238.156	81.56
238.39	54.56
238.624	75.56
238.858	75.56
239.091	75.56
239.325	89.56
239.559	83.56
239.793	69.56
240.027	85.56
240.26	68.56
240.494	86.56
240.728	71.56
240.961	76.56
241.195	77.56
241.429	90.56
241.662	74.56
241.896	82.56
242.13	72.56
242.363	78.56
242.597	71.56
242.83	71.56
243.064	64.56
243.298	76.56
243.531	71.56
243.765	70.56
243.998	84.56
244.232	61.56
244.465	79.56
244.699	97.56
244.932	60.56
245.166	84.56
245.399	75.56
245.633	73.56
245.866	83.56
246.099	81.56
246.333	83.56
246.566	71.56
246.8	64.56
247.033	73.56
247.266	84.56
247.5	80.56
247.733	81.56
247.966	73.56
248.2	79.56
248.433	84.56
248.666	90.56
248.899	89.56
249.133	80.56
249.366	82.56
249.599	99.56
249.832	93.56
250.066	92.56
250.299	85.56
250.532	86.56
250.765	83.56
250.998	74.56
251.231	83.56
251.465	68.56
251.698	78.56
251.931	75.56
252.164	81.56
252.397	87.56
252.63	83.56
252.863	71.56
253.096	83.56
253.329	85.56
253.562	85.56
253.795	97.56
254.028	86.56
254.261	82.56
254.494	75.56
254.727	78.56
254.96	73.56
255.193	72.56
255.426	67.56
255.659	79.56
255.892	83.56
256.124	94.56
256.357	75.56
256.59	81.56
256.823	76.56
257.056	76.56
257.289	76.56
257.521	85.56
257.754	84.56
257.987	74.56
258.22	100.56
258.452	80.56
258.685	76.56
258.918	81.56
259.151	87.56
259.383	80.56
259.616	65.56
259.849	93.56
260.081	92.56
260.314	101.56
260.547	74.56
260.779	71.56
261.012	84.56
261.244	71.56
261.477	84.56
261.71	87.56
261.942	100.56
262.175	88.56
262.407	93.56
262.64	83.56
262.872	80.56
263.105	87.56
263.337	81.56
263.57	79.56
263.802	79.56
264.035	84.56
264.267	70.56
264.499	77.56
264.732	111.56
264.964	63.56
265.197	72.56
265.429	85.56
265.661	84.56
265.894	68.56
266.126	88.56
266.358	82.56
266.591	81.56
266.823	91.56
267.055	86.56
267.287	71.56
267.52	71.56
267.752	77.56
267.984	71.56
268.216	84.56
268.448	83.56
268.681	72.56
268.913	86.56
269.145	86.56
269.377	69.56
269.609	85.56
269.841	76.56
270.073	89.56
270.306	71.56
270.538	90.56
270.77	75.56
271.002	92.56
271.234	86.56
271.466	77.56
271.698	87.56
271.93	77.56
272.162	74.56
272.394	96.56
272.626	72.56
272.858	64.56
273.09	75.56
273.322	87.56
273.553	83.56
273.785	75.56
274.017	89.56
274.249	88.56
274.481	80.56
274.713	76.56
274.945	58.56
275.176	84.56
275.408	79.56
275.64	84.56
275.872	91.56
276.104	104.56
276.335	91.56
276.567	96.56
276.799	103.56
277.031	101.56
277.262	92.56
277.494	77.56
277.726	96.56
277.957	87.56
278.189	81.56
278.421	99.56
278.652	81.56
278.884	88.56
279.115	88.56
279.347	87.56
279.579	79.56
279.81	93.56
280.042	104.56
280.273	102.56
280.505	80.56
280.736	93.56
280.968	84.56
281.199	82.56
281.431	92.56
281.662	102.56
281.894	99.56
282.125	104.56
282.356	92.56
282.588	135.56
282.819	96.56
283.051	78.56
283.282	84.56
283.513	88.56
283.745	86.56
283.976	86.56
284.207	91.56
284.439	91.56
284.67	76.56
284.901	88.56
285.132	81.56
285.364	87.56
285.595	85.56
285.826	101.56
286.057	88.56
286.288	90.56
286.52	99.56
286.751	79.56
286.982	73.56
287.213	74.56
287.444	95.56
287.675	79.56
287.906	76.56
288.138	79.56
288.369	85.56
288.6	99.56
288.831	97.56
289.062	87.56
289.293	99.56
289.524	87.56
289.755	93.56
289.986	76.56
290.217	86.56
290.448	91.56
290.679	88.56
290.91	99.56
291.141	86.56
291.371	86.56
291.602	96.56
291.833	83.56
292.064	81.56
292.295	83.56
292.526	80.56
292.757	79.56
292.987	81.56
293.218	80.56
293.449	90.56
293.68	96.56
293.91	87.56
294.141	88.56
294.372	90.56
294.603	100.56
294.833	90.56
295.064	75.56
295.295	88.56
295.525	95.56
295.756	91.56
295.987	103.56
296.217	116.56
296.448	99.56
296.679	92.56
296.909	88.56
297.14	86.56
297.37	100.56
297.601	97.56
297.831	98.56
298.062	86.56
298.292	102.56
298.523	88.56
298.753	81.56
298.984	77.56
299.214	95.56
299.445	91.56
299.675	90.56
299.905	88.56
300.136	85.56
300.366	72.56
300.597	79.56
300.827	87.56
301.057	99.56
301.288	98.56
301.518	89.56
301.748	80.56
301.979	92.56
302.209	85.56
302.439	87.56
302.669	88.56
302.9	75.56
303.13	75.56
303.36	90.56
303.59	107.56
303.82	97.56
304.051	76.56
304.281	78.56
304.511	88.56
304.741	76.56
304.971	88.56
305.201	90.56
305.431	75.56
305.661	87.56
305.891	87.56
306.121	93.56
306.352	100.56
306.582	86.56
306.812	83.56
307.042	95.56
307.272	96.56
307.502	109.56
307.731	96.56
307.961	97.56
308.191	83.56
308.421	84.56
308.651	94.56
308.881	81.56
309.111	101.56
309.341	104.56
309.571	93.56
309.8	93.56
310.03	88.56
310.26	82.56
310.49	82.56
310.72	93.56
310.949	95.56
311.179	93.56
311.409	87.56
311.639	93.56
311.868	87.56
312.098	85.56
312.328	99.56
312.557	91.56
312.787	90.56
313.017	96.56
313.246	99.56
313.476	96.56
313.706	87.56
313.935	90.56
314.165	105.56
314.394	91.56
314.624	85.56
314.853	92.56
315.083	89.56
315.312	84.56
315.542	92.56
315.771	93.56
316.001	68.56
316.23	93.56
316.46	88.56
316.689	88.56
316.919	96.56
317.148	90.56
317.377	97.56
317.607	88.56
317.836	93.56
318.065	91.56
318.295	88.56
318.524	86.56
318.753	81.56
318.983	92.56
319.212	93.56
319.441	104.56
319.67	92.56
319.9	98.56
320.129	95.56
320.358	92.56
320.587	91.56
320.816	97.56
321.046	90.56
321.275	89.56
321.504	95.56
321.733	93.56
321.962	93.56
322.191	104.56
322.42	88.56
322.649	100.56
322.878	100.56
323.108	122.56
323.337	115.56
323.566	128.56
323.795	129.56
324.024	159.56
324.253	319.56
324.482	590.56
324.71	1213.56
324.939	1569.56
325.168	602.56
325.397	214.56
325.626	126.56
325.855	114.56
326.084	123.56
326.313	113.56
326.542	126.56
326.77	183.56
326.999	360.56
327.228	696.56
327.457	1233.56
327.686	996.56
327.914	295.56
328.143	190.56
328.372	165.56
328.6	129.56
328.829	108.56
329.058	118.56
329.287	116.56
329.515	104.56
329.744	120.56
329.972	126.56
330.201	170.56
330.43	209.56
330.658	132.56
330.887	131.56
331.115	112.56
331.344	103.56
331.572	97.56
331.801	107.56
332.03	106.56
332.258	88.56
332.486	96.56
332.715	94.56
332.943	100.56
333.172	104.56
333.4	105.56
333.629	114.56
333.857	107.56
334.085	122.56
334.314	163.56
334.542	244.56
334.771	255.56
334.999	135.56
335.227	102.56
335.455	92.56
335.684	95.56
335.912	105.56
336.14	99.56
336.369	90.56
336.597	93.56
336.825	97.56
337.053	88.56
337.281	89.56
337.51	87.56
337.738	81.56
337.966	75.56
338.194	97.56
338.422	83.56
338.65	82.56
338.878	94.56
339.106	90.56
339.334	91.56
339.562	97.56
339.79	85.56
340.018	84.56
340.246	81.56
340.474	88.56
340.702	87.56
340.93	103.56
341.158	89.56
341.386	91.56
341.614	78.56
341.842	85.56
342.07	79.56
342.298	89.56
342.526	97.56
342.754	85.56
342.981	93.56
343.209	88.56
343.437	100.56
343.665	84.56
343.893	86.56
344.12	71.56
344.348	90.56
344.576	88.56
344.804	91.56
345.031	81.56
345.259	87.56
345.487	81.56
345.714	95.56
345.942	89.56
346.17	92.56
346.397	88.56
346.625	91.56
346.853	85.56
347.08	93.56
347.308	87.56
347.535	77.56
347.763	96.56
347.99	103.56
348.218	101.56
348.445	96.56
348.673	94.56
348.9	104.56
349.128	96.56
349.355	99.56
349.583	84.56
349.81	105.56
350.037	93.56
350.265	90.56
350.492	87.56
350.72	87.56
350.947	90.56
351.174	98.56
351.402	113.56
351.629	104.56
351.856	96.56
352.083	111.56
352.311	99.56
352.538	99.56
352.765	91.56
352.992	104.56
353.22	108.56
353.447	113.56
353.674	87.56
353.901	97.56
354.128	96.56
354.355	83.56
354.583	96.56
354.81	101.56
355.037	102.56
355.264	90.56
355.491	95.56
355.718	104.56
355.945	85.56
356.172	90.56
356.399	95.56
356.626	105.56
356.853	100.56
357.08	85.56
357.307	87.56
357.534	82.56
357.761	88.56
357.988	86.56
358.215	92.56
358.441	92.56
358.668	88.56
358.895	85.56
359.122	89.56
359.349	83.56
359.576	90.56
359.802	98.56
360.029	106.56
360.256	95.56
360.483	88.56
360.709	79.56
360.936	91.56
361.163	99.56
361.39	81.56
361.616	93.56
361.843	80.56
362.07	100.56
362.296	95.56
362.523	90.56
362.749	87.56
362.976	88.56
363.203	89.56
363.429	71.56
363.656	67.56
363.882	93.56
364.109	88.56
364.335	92.56
364.562	88.56
364.788	98.56
365.015	85.56
365.241	80.56
365.468	86.56
365.694	87.56
365.92	84.56
366.147	86.56
366.373	92.56
366.599	79.56
366.826	87.56
367.052	80.56
367.278	77.56
367.505	98.56
367.731	89.56
367.957	103.56
368.184	88.56
368.41	99.56
368.636	100.56
368.862	108.56
369.089	102.56
369.315	84.56
369.541	94.56
369.767	97.56
369.993	89.56
370.219	84.56
370.445	94.56
370.672	83.56
370.898	87.56
371.124	81.56
371.35	86.56
371.576	88.56
371.802	75.56
372.028	85.56
372.254	90.56
372.48	83.56
372.706	72.56
372.932	93.56
373.158	93.56
373.384	86.56
373.61	97.56
373.835	89.56
374.061	90.56
374.287	75.56
374.513	87.56
374.739	96.56
374.965	83.56
375.191	91.56
375.416	79.56
375.642	80.56
375.868	101.56
376.094	80.56
376.319	94.56
376.545	91.56
376.771	97.56
376.997	86.56
377.222	94.56
377.448	94.56
377.674	96.56
377.899	89.56
378.125	93.56
378.35	92.56
378.576	90.56
378.802	81.56
379.027	99.56
379.253	84.56
379.478	90.56
379.704	78.56
379.929	97.56
380.155	100.56
380.38	91.56
380.606	91.56
380.831	89.56
381.057	93.56
381.282	88.56
381.507	99.56
381.733	82.56
381.958	94.56
382.184	100.56
382.409	92.56
382.634	110.56
382.86	90.56
383.085	96.56
383.31	101.56
383.535	100.56
383.761	78.56
383.986	118.56
384.211	80.56
384.436	93.56
384.662	108.56
384.887	95.56
385.112	94.56
385.337	97.56
385.562	96.56
385.787	102.56
386.013	102.56
386.238	101.56
386.463	92.56
386.688	109.56
386.913	104.56
387.138	111.56
387.363	91.56
387.588	111.56
387.813	92.56
388.038	100.56
388.263	112.56
388.488	105.56
388.713	84.56
388.938	101.56
389.163	96.56
389.387	106.56
389.612	105.56
389.837	83.56
390.062	104.56
390.287	96.56
390.512	93.56
390.736	90.56
390.961	86.56
391.186	95.56
391.411	76.56
391.636	93.56
391.86	92.56
392.085	98.56
392.31	78.56
392.534	88.56
392.759	85.56
392.984	93.56
393.208	96.56
393.433	108.56
393.658	101.56
393.882	90.56
394.107	79.56
394.331	99.56
394.556	87.56
394.78	87.56
395.005	78.56
395.229	83.56
395.454	86.56
395.678	78.56
395.903	82.56
396.127	90.56
396.352	85.56
396.576	81.56
396.801	91.56
397.025	96.56
397.249	92.56
397.474	93.56
397.698	88.56
397.922	92.56
398.147	70.56
398.371	91.56
398.595	80.56
398.82	73.56
399.044	89.56
399.268	94.56
399.492	81.56
399.717	101.56
399.941	98.56
400.165	83.56
400.389	100.56
400.613	80.56
400.837	71.56
401.062	76.56
401.286	101.56
401.51	71.56
401.734	76.56
401.958	103.56
402.182	99.56
402.406	133.56
402.63	106.56
402.854	83.56
403.078	77.56
403.302	91.56
403.526	87.56
403.75	85.56
403.974	94.56
404.198	77.56
404.422	78.56
404.645	88.56
404.869	82.56
405.093	83.56
405.317	86.56
405.541	97.56
405.765	93.56
405.988	107.56
406.212	147.56
406.436	162.56
406.66	130.56
406.883	93.56
407.107	83.56
407.331	85.56
407.555	108.56
407.778	89.56
408.002	89.56
408.226	95.56
408.449	81.56
408.673	77.56
408.896	93.56
409.12	95.56
409.344	73.56
409.567	87.56
409.791	98.56
410.014	101.56
410.238	89.56
410.461	92.56
410.685	83.56
410.908	86.56
411.132	106.56
411.355	95.56
411.578	81.56
411.802	100.56
412.025	87.56
412.249	109.56
412.472	102.56
412.695	96.56
412.919	84.56
413.142	102.56
413.365	75.56
413.589	88.56
413.812	90.56
414.035	88.56
414.258	86.56
414.482	87.56
414.705	85.56
414.928	82.56
415.151	97.56
415.374	85.56
415.597	88.56
415.821	88.56
416.044	92.56
416.267	88.56
416.49	72.56
416.713	91.56
416.936	95.56
417.159	79.56
417.382	84.56
417.605	100.56
417.828	102.56
418.051	101.56
418.274	81.56
418.497	77.56
418.72	94.56
418.943	88.56
419.166	81.56
419.389	87.56
419.611	92.56
419.834	94.56
420.057	80.56
420.28	77.56
420.503	87.56
420.726	94.56
420.948	87.56
421.171	99.56
421.394	95.56
421.617	76.56
421.839	82.56
422.062	89.56
422.285	88.56
422.507	95.56
422.73	95.56
422.953	87.56
423.175	95.56
423.398	88.56
423.621	85.56
423.843	90.56
424.066	83.56
424.288	99.56
424.511	92.56
424.733	92.56
424.956	109.56
425.178	108.56
425.401	103.56
425.623	100.56
425.846	93.56
426.068	79.56
426.291	89.56
426.513	87.56
426.735	91.56
426.958	88.56
427.18	91.56
427.402	129.56
427.625	148.56
427.847	134.56
428.069	123.56
428.292	88.56
428.514	80.56
428.736	80.56
428.958	78.56
429.181	98.56
429.403	90.56
429.625	93.56
429.847	81.56
430.069	80.56
430.292	96.56
430.514	72.56
430.736	82.56
430.958	85.56
431.18	77.56
431.402	82.56
431.624	91.56
431.846	88.56
432.068	92.56
432.29	97.56
432.512	93.56
432.734	79.56
432.956	93.56
433.178	95.56
433.4	80.56
433.622	92.56
433.844	93.56
434.066	87.56
434.287	100.56
434.509	86.56
434.731	80.56
434.953	93.56
435.175	78.56
435.397	88.56
435.618	72.56
435.84	100.56
436.062	107.56
436.284	98.56
436.505	95.56
436.727	89.56
436.949	95.56
437.17	74.56
437.392	76.56
437.614	82.56
437.835	108.56
438.057	85.56
438.278	105.56
438.5	104.56
438.721	104.56
438.943	80.56
439.165	91.56
439.386	94.56
439.608	97.56
439.829	87.56
440.05	109.56
440.272	119.56
440.493	86.56
440.715	81.56
440.936	93.56
441.158	76.56
441.379	87.56
441.6	86.56
441.822	87.56
442.043	92.56
442.264	94.56
442.486	96.56
442.707	92.56
442.928	103.56
443.149	101.56
443.371	119.56
443.592	104.56
443.813	96.56
444.034	101.56
444.255	73.56
444.476	84.56
444.698	96.56
444.919	85.56
445.14	134.56
445.361	111.56
445.582	117.56
445.803	119.56
446.024	115.56
446.245	122.56
446.466	102.56
446.687	86.56
446.908	100.56
447.129	80.56
447.35	86.56
447.571	87.56
447.792	80.56
448.013	98.56
448.234	99.56
448.455	100.56
448.675	91.56
448.896	94.56
449.117	99.56
449.338	90.56
449.559	109.56
449.779	103.56
450	95.56
450.221	76.56
450.442	85.56
450.662	87.56
450.883	101.56
451.104	116.56
451.324	103.56
451.545	87.56
451.766	89.56
451.986	95.56
452.207	85.56
452.428	101.56
452.648	79.56
452.869	87.56
453.089	96.56
453.31	88.56
453.53	92.56
453.751	74.56
453.971	101.56
454.192	100.56
454.412	101.56
454.633	96.56
454.853	93.56
455.073	88.56
455.294	96.56
455.514	94.56
455.734	87.56
455.955	108.56
456.175	85.56
456.395	81.56
456.616	96.56
456.836	88.56
457.056	78.56
457.276	89.56
457.497	87.56
457.717	73.56
457.937	78.56
458.157	74.56
458.377	93.56
458.598	106.56
458.818	127.56
459.038	139.56
459.258	106.56
459.478	102.56
459.698	81.56
459.918	72.56
460.138	78.56
460.358	87.56
460.578	97.56
460.798	93.56
461.018	102.56
461.238	81.56
461.458	80.56
461.678	86.56
461.898	92.56
462.118	92.56
462.338	84.56
462.558	83.56
462.777	85.56
462.997	82.56
463.217	94.56
463.437	77.56
463.657	79.56
463.876	82.56
464.096	85.56
464.316	78.56
464.536	87.56
464.755	94.56
464.975	99.56
465.195	112.56
465.414	126.56
465.634	95.56
465.854	87.56
466.073	84.56
466.293	78.56
466.512	94.56
466.732	95.56
466.951	88.56
467.171	92.56
467.391	92.56
467.61	107.56
467.829	98.56
468.049	124.56
468.268	153.56
468.488	91.56
468.707	85.56
468.927	95.56
469.146	85.56
469.365	83.56
469.585	85.56
469.804	88.56
470.023	89.56
470.243	96.56
470.462	92.56
470.681	104.56
470.901	85.56
471.12	88.56
471.339	76.56
471.558	73.56
471.777	87.56
471.997	100.56
472.216	208.56
472.435	309.56
472.654	139.56
472.873	79.56
473.092	88.56
473.311	85.56
473.53	88.56
473.749	90.56
473.968	87.56
474.187	88.56
474.406	89.56
474.625	89.56
474.844	87.56
475.063	73.56
475.282	96.56
475.501	83.56
475.72	84.56
475.939	102.56
476.158	72.56
476.377	87.56
476.596	92.56
476.814	71.56
477.033	87.56
477.252	71.56
477.471	77.56
477.69	89.56
477.908	88.56
478.127	85.56
478.346	85.56
478.564	79.56
478.783	89.56
479.002	90.56
479.22	92.56
479.439	93.56
479.658	97.56
479.876	85.56
480.095	79.56
480.313	85.56
480.532	91.56
480.751	107.56
480.969	190.56
481.188	519.56
481.406	342.56
481.624	131.56
481.843	104.56
482.061	91.56
482.28	86.56
482.498	89.56
482.717	90.56
482.935	92.56
483.153	80.56
483.372	91.56
483.59	86.56
483.808	91.56
484.027	87.56
484.245	77.56
484.463	82.56
484.681	89.56
484.9	93.56
485.118	101.56
485.336	99.56
485.554	103.56
485.772	104.56
485.99	107.56
486.209	101.56
486.427	100.56
486.645	100.56
486.863	106.56
487.081	88.56
487.299	102.56
487.517	89.56
487.735	87.56
487.953	96.56
488.171	91.56
488.389	79.56
488.607	87.56
488.825	77.56
489.043	92.56
489.261	85.56
489.479	95.56
489.696	86.56
489.914	68.56
490.132	82.56
490.35	76.56
490.568	85.56
490.786	93.56
491.003	92.56
491.221	91.56
491.439	87.56
491.657	88.56
491.874	87.56
492.092	88.56
492.31	89.56
492.527	91.56
492.745	87.56
492.963	100.56
493.18	96.56
493.398	86.56
493.615	109.56
493.833	92.56
494.05	89.56
494.268	81.56
494.485	81.56
494.703	79.56
494.92	100.56
495.138	83.56
495.355	100.56
495.573	99.56
495.79	104.56
496.008	98.56
496.225	77.56
496.442	91.56
496.66	80.56
496.877	82.56
497.094	105.56
497.312	67.56
497.529	86.56
497.746	85.56
497.963	83.56
498.181	85.56
498.398	85.56
498.615	99.56
498.832	101.56
499.049	81.56
499.267	74.56
499.484	86.56
499.701	81.56
499.918	100.56
500.135	83.56
500.352	91.56
500.569	93.56
500.786	81.56
501.003	83.56
501.22	73.56
501.437	86.56
501.654	93.56
501.871	91.56
502.088	80.56
502.305	107.56
502.522	92.56
502.739	75.56
502.956	76.56
503.172	88.56
503.389	92.56
503.606	110.56
503.823	90.56
504.04	86.56
504.256	96.56
504.473	91.56
504.69	76.56
504.907	89.56
505.123	95.56
505.34	97.56
505.557	86.56
505.773	89.56
505.99	92.56
506.207	94.56
506.423	87.56
506.64	84.56
506.856	94.56
507.073	102.56
507.289	92.56
507.506	103.56
507.722	103.56
507.939	85.56
508.155	91.56
508.372	87.56
508.588	86.56
508.805	110.56
509.021	95.56
509.238	84.56
509.454	83.56
509.67	104.56
509.887	97.56
510.103	133.56
510.319	177.56
510.536	548.56
510.752	1623.56
510.968	494.56
511.184	137.56
511.401	119.56
511.617	105.56
511.833	103.56
512.049	95.56
512.265	100.56
512.481	86.56
512.698	78.56
512.914	103.56
513.13	79.56
513.346	79.56
513.562	91.56
513.778	92.56
513.994	95.56
514.21	87.56
514.426	107.56
514.642	125.56
514.858	122.56
515.074	134.56
515.29	322.56
515.506	966.56
515.721	395.56
515.937	127.56
516.153	105.56
516.369	98.56
516.585	96.56
