Data from Circ_2010_H10_HRD10591_00083.txt Node
Date: Wed Jan 03 10:09:57 EST 2024
User: Yrep
Spectrometer: HR+D1059
Trigger mode: 1
Integration Time (sec): 1.000000E-1
Scans to average: 1
Electric dark correction enabled: true
Nonlinearity correction enabled: false
Boxcar width: 0
XAxis mode: Wavelengths
Number of Pixels in Spectrum: 2048
>>>>>Begin Spectral Data<<<<<
223.165	-13.69
223.4	-13.69
223.635	-13.69
223.869	-18.69
224.104	-15.69
224.338	-7.69
224.573	-13.69
224.808	-12.69
225.042	-5.69
225.277	-6.69
225.511	-3.69
225.746	8.31
225.98	-1.69
226.215	6.31
226.449	16.31
226.683	23.31
226.918	24.31
227.152	21.31
227.387	23.31
227.621	38.31
227.856	34.31
228.09	53.31
228.324	69.31
228.559	61.31
228.793	61.31
229.027	74.31
229.262	56.31
229.496	56.31
229.73	88.31
229.964	86.31
230.199	70.31
230.433	66.31
230.667	78.31
230.901	72.31
231.136	68.31
231.37	75.31
231.604	79.31
231.838	79.31
232.072	82.31
232.306	85.31
232.541	88.31
232.775	86.31
233.009	87.31
233.243	75.31
233.477	83.31
233.711	76.31
233.945	64.31
234.179	77.31
234.413	69.31
234.647	64.31
234.881	72.31
235.115	61.31
235.349	87.31
235.583	77.31
235.817	74.31
236.051	65.31
236.285	71.31
236.519	73.31
236.753	81.31
236.987	75.31
237.221	93.31
237.455	88.31
237.689	71.31
237.922	72.31
238.156	63.31
238.39	83.31
238.624	92.31
238.858	84.31
239.091	85.31
239.325	70.31
239.559	74.31
239.793	58.31
240.027	69.31
240.26	77.31
240.494	79.31
240.728	75.31
240.961	84.31
241.195	71.31
241.429	75.31
241.662	71.31
241.896	82.31
242.13	88.31
242.363	78.31
242.597	69.31
242.83	85.31
243.064	77.31
243.298	58.31
243.531	68.31
243.765	81.31
243.998	64.31
244.232	89.31
244.465	80.31
244.699	68.31
244.932	73.31
245.166	78.31
245.399	82.31
245.633	72.31
245.866	75.31
246.099	86.31
246.333	79.31
246.566	72.31
246.8	71.31
247.033	71.31
247.266	75.31
247.5	93.31
247.733	81.31
247.966	77.31
248.2	94.31
248.433	77.31
248.666	67.31
248.899	76.31
249.133	72.31
249.366	98.31
249.599	93.31
249.832	83.31
250.066	74.31
250.299	80.31
250.532	84.31
250.765	62.31
250.998	76.31
251.231	73.31
251.465	68.31
251.698	89.31
251.931	72.31
252.164	86.31
252.397	86.31
252.63	99.31
252.863	77.31
253.096	91.31
253.329	90.31
253.562	74.31
253.795	91.31
254.028	76.31
254.261	85.31
254.494	73.31
254.727	81.31
254.96	84.31
255.193	92.31
255.426	84.31
255.659	80.31
255.892	90.31
256.124	81.31
256.357	81.31
256.59	63.31
256.823	85.31
257.056	81.31
257.289	89.31
257.521	85.31
257.754	96.31
257.987	84.31
258.22	80.31
258.452	88.31
258.685	75.31
258.918	84.31
259.151	91.31
259.383	74.31
259.616	82.31
259.849	79.31
260.081	86.31
260.314	99.31
260.547	97.31
260.779	76.31
261.012	92.31
261.244	77.31
261.477	86.31
261.71	98.31
261.942	102.31
262.175	110.31
262.407	90.31
262.64	81.31
262.872	93.31
263.105	91.31
263.337	92.31
263.57	76.31
263.802	84.31
264.035	67.31
264.267	84.31
264.499	85.31
264.732	88.31
264.964	99.31
265.197	78.31
265.429	78.31
265.661	79.31
265.894	80.31
266.126	75.31
266.358	86.31
266.591	78.31
266.823	73.31
267.055	77.31
267.287	82.31
267.52	87.31
267.752	69.31
267.984	89.31
268.216	73.31
268.448	93.31
268.681	82.31
268.913	72.31
269.145	76.31
269.377	79.31
269.609	93.31
269.841	85.31
270.073	79.31
270.306	77.31
270.538	95.31
270.77	91.31
271.002	80.31
271.234	85.31
271.466	91.31
271.698	83.31
271.93	103.31
272.162	66.31
272.394	80.31
272.626	96.31
272.858	75.31
273.09	84.31
273.322	89.31
273.553	83.31
273.785	80.31
274.017	86.31
274.249	83.31
274.481	84.31
274.713	78.31
274.945	80.31
275.176	70.31
275.408	92.31
275.64	101.31
275.872	86.31
276.104	104.31
276.335	98.31
276.567	94.31
276.799	99.31
277.031	116.31
277.262	118.31
277.494	104.31
277.726	80.31
277.957	76.31
278.189	87.31
278.421	84.31
278.652	91.31
278.884	83.31
279.115	88.31
279.347	80.31
279.579	88.31
279.81	92.31
280.042	107.31
280.273	119.31
280.505	105.31
280.736	91.31
280.968	99.31
281.199	94.31
281.431	92.31
281.662	77.31
281.894	88.31
282.125	100.31
282.356	123.31
282.588	123.31
282.819	102.31
283.051	90.31
283.282	92.31
283.513	81.31
283.745	77.31
283.976	82.31
284.207	74.31
284.439	81.31
284.67	84.31
284.901	91.31
285.132	88.31
285.364	82.31
285.595	83.31
285.826	87.31
286.057	87.31
286.288	84.31
286.52	79.31
286.751	82.31
286.982	92.31
287.213	85.31
287.444	93.31
287.675	98.31
287.906	78.31
288.138	83.31
288.369	97.31
288.6	94.31
288.831	82.31
289.062	85.31
289.293	78.31
289.524	89.31
289.755	76.31
289.986	85.31
290.217	84.31
290.448	88.31
290.679	99.31
290.91	77.31
291.141	91.31
291.371	88.31
291.602	88.31
291.833	90.31
292.064	90.31
292.295	78.31
292.526	87.31
292.757	87.31
292.987	92.31
293.218	99.31
293.449	75.31
293.68	77.31
293.91	88.31
294.141	92.31
294.372	93.31
294.603	84.31
294.833	76.31
295.064	83.31
295.295	85.31
295.525	85.31
295.756	101.31
295.987	119.31
296.217	136.31
296.448	112.31
296.679	81.31
296.909	97.31
297.14	87.31
297.37	88.31
297.601	86.31
297.831	82.31
298.062	86.31
298.292	103.31
298.523	91.31
298.753	74.31
298.984	83.31
299.214	79.31
299.445	100.31
299.675	87.31
299.905	86.31
300.136	90.31
300.366	92.31
300.597	100.31
300.827	87.31
301.057	95.31
301.288	95.31
301.518	77.31
301.748	87.31
301.979	102.31
302.209	92.31
302.439	101.31
302.669	93.31
302.9	98.31
303.13	75.31
303.36	97.31
303.59	112.31
303.82	96.31
304.051	101.31
304.281	97.31
304.511	87.31
304.741	89.31
304.971	86.31
305.201	104.31
305.431	97.31
305.661	77.31
305.891	90.31
306.121	91.31
306.352	86.31
306.582	107.31
306.812	94.31
307.042	101.31
307.272	126.31
307.502	105.31
307.731	107.31
307.961	108.31
308.191	87.31
308.421	90.31
308.651	99.31
308.881	92.31
309.111	97.31
309.341	102.31
309.571	97.31
309.8	99.31
310.03	98.31
310.26	98.31
310.49	94.31
310.72	112.31
310.949	106.31
311.179	98.31
311.409	82.31
311.639	95.31
311.868	90.31
312.098	85.31
312.328	103.31
312.557	102.31
312.787	105.31
313.017	94.31
313.246	79.31
313.476	90.31
313.706	114.31
313.935	89.31
314.165	94.31
314.394	107.31
314.624	95.31
314.853	96.31
315.083	87.31
315.312	93.31
315.542	99.31
315.771	85.31
316.001	88.31
316.23	103.31
316.46	94.31
316.689	91.31
316.919	91.31
317.148	100.31
317.377	82.31
317.607	111.31
317.836	86.31
318.065	82.31
318.295	81.31
318.524	87.31
318.753	100.31
318.983	79.31
319.212	86.31
319.441	93.31
319.67	100.31
319.9	111.31
320.129	93.31
320.358	100.31
320.587	105.31
320.816	104.31
321.046	105.31
321.275	90.31
321.504	86.31
321.733	91.31
321.962	103.31
322.191	95.31
322.42	100.31
322.649	92.31
322.878	116.31
323.108	117.31
323.337	121.31
323.566	138.31
323.795	150.31
324.024	211.31
324.253	390.31
324.482	771.31
324.71	1618.31
324.939	2100.31
325.168	787.31
325.397	226.31
325.626	148.31
325.855	130.31
326.084	120.31
326.313	133.31
326.542	156.31
326.77	208.31
326.999	436.31
327.228	907.31
327.457	1618.31
327.686	1338.31
327.914	403.31
328.143	264.31
328.372	280.31
328.6	165.31
328.829	130.31
329.058	135.31
329.287	135.31
329.515	115.31
329.744	136.31
329.972	206.31
330.201	346.31
330.43	472.31
330.658	271.31
330.887	172.31
331.115	142.31
331.344	106.31
331.572	104.31
331.801	102.31
332.03	100.31
332.258	99.31
332.486	106.31
332.715	103.31
332.943	92.31
333.172	105.31
333.4	95.31
333.629	108.31
333.857	140.31
334.085	195.31
334.314	324.31
334.542	587.31
334.771	573.31
334.999	191.31
335.227	105.31
335.455	103.31
335.684	100.31
335.912	115.31
336.14	98.31
336.369	99.31
336.597	101.31
336.825	94.31
337.053	96.31
337.281	93.31
337.51	95.31
337.738	101.31
337.966	97.31
338.194	103.31
338.422	95.31
338.65	89.31
338.878	109.31
339.106	93.31
339.334	92.31
339.562	96.31
339.79	94.31
340.018	79.31
340.246	92.31
340.474	91.31
340.702	84.31
340.93	109.31
341.158	101.31
341.386	103.31
341.614	102.31
341.842	88.31
342.07	100.31
342.298	87.31
342.526	93.31
342.754	88.31
342.981	87.31
343.209	87.31
343.437	120.31
343.665	90.31
343.893	98.31
344.12	90.31
344.348	89.31
344.576	93.31
344.804	79.31
345.031	90.31
345.259	81.31
345.487	83.31
345.714	89.31
345.942	94.31
346.17	86.31
346.397	82.31
346.625	89.31
346.853	74.31
347.08	102.31
347.308	92.31
347.535	91.31
347.763	98.31
347.99	108.31
348.218	106.31
348.445	116.31
348.673	106.31
348.9	71.31
349.128	95.31
349.355	87.31
349.583	87.31
349.81	92.31
350.037	86.31
350.265	108.31
350.492	94.31
350.72	84.31
350.947	98.31
351.174	111.31
351.402	101.31
351.629	107.31
351.856	102.31
352.083	99.31
352.311	106.31
352.538	95.31
352.765	94.31
352.992	123.31
353.22	112.31
353.447	108.31
353.674	117.31
353.901	87.31
354.128	103.31
354.355	91.31
354.583	95.31
354.81	92.31
355.037	98.31
355.264	110.31
355.491	91.31
355.718	88.31
355.945	87.31
356.172	83.31
356.399	99.31
356.626	85.31
356.853	78.31
357.08	90.31
357.307	78.31
357.534	91.31
357.761	88.31
357.988	91.31
358.215	85.31
358.441	93.31
358.668	87.31
358.895	99.31
359.122	90.31
359.349	87.31
359.576	84.31
359.802	102.31
360.029	124.31
360.256	110.31
360.483	84.31
360.709	88.31
360.936	94.31
361.163	95.31
361.39	104.31
361.616	85.31
361.843	101.31
362.07	93.31
362.296	91.31
362.523	93.31
362.749	94.31
362.976	88.31
363.203	101.31
363.429	80.31
363.656	84.31
363.882	76.31
364.109	101.31
364.335	93.31
364.562	95.31
364.788	104.31
365.015	90.31
365.241	87.31
365.468	98.31
365.694	96.31
365.92	92.31
366.147	87.31
366.373	93.31
366.599	95.31
366.826	79.31
367.052	86.31
367.278	89.31
367.505	84.31
367.731	93.31
367.957	91.31
368.184	99.31
368.41	106.31
368.636	102.31
368.862	110.31
369.089	113.31
369.315	84.31
369.541	86.31
369.767	91.31
369.993	92.31
370.219	87.31
370.445	95.31
370.672	93.31
370.898	77.31
371.124	88.31
371.35	80.31
371.576	76.31
371.802	80.31
372.028	101.31
372.254	90.31
372.48	89.31
372.706	75.31
372.932	84.31
373.158	103.31
373.384	86.31
373.61	96.31
373.835	86.31
374.061	80.31
374.287	98.31
374.513	83.31
374.739	76.31
374.965	80.31
375.191	79.31
375.416	89.31
375.642	83.31
375.868	75.31
376.094	80.31
376.319	79.31
376.545	92.31
376.771	73.31
376.997	81.31
377.222	99.31
377.448	80.31
377.674	82.31
377.899	90.31
378.125	80.31
378.35	94.31
378.576	88.31
378.802	93.31
379.027	81.31
379.253	88.31
379.478	86.31
379.704	88.31
379.929	84.31
380.155	90.31
380.38	87.31
380.606	98.31
380.831	87.31
381.057	82.31
381.282	83.31
381.507	87.31
381.733	79.31
381.958	89.31
382.184	93.31
382.409	97.31
382.634	99.31
382.86	99.31
383.085	82.31
383.31	88.31
383.535	91.31
383.761	87.31
383.986	90.31
384.211	107.31
384.436	92.31
384.662	88.31
384.887	91.31
385.112	91.31
385.337	87.31
385.562	93.31
385.787	109.31
386.013	102.31
386.238	103.31
386.463	95.31
386.688	104.31
386.913	105.31
387.138	102.31
387.363	108.31
387.588	98.31
387.813	95.31
388.038	100.31
388.263	99.31
388.488	92.31
388.713	90.31
388.938	93.31
389.163	93.31
389.387	89.31
389.612	85.31
389.837	84.31
390.062	78.31
390.287	87.31
390.512	100.31
390.736	84.31
390.961	89.31
391.186	91.31
391.411	64.31
391.636	97.31
391.86	83.31
392.085	77.31
392.31	72.31
392.534	92.31
392.759	90.31
392.984	76.31
393.208	91.31
393.433	90.31
393.658	95.31
393.882	90.31
394.107	80.31
394.331	82.31
394.556	87.31
394.78	86.31
395.005	94.31
395.229	91.31
395.454	78.31
395.678	76.31
395.903	96.31
396.127	88.31
396.352	86.31
396.576	88.31
396.801	95.31
397.025	79.31
397.249	73.31
397.474	96.31
397.698	92.31
397.922	86.31
398.147	93.31
398.371	72.31
398.595	73.31
398.82	91.31
399.044	89.31
399.268	74.31
399.492	78.31
399.717	90.31
399.941	83.31
400.165	88.31
400.389	88.31
400.613	86.31
400.837	88.31
401.062	76.31
401.286	82.31
401.51	81.31
401.734	94.31
401.958	101.31
402.182	110.31
402.406	148.31
402.63	118.31
402.854	87.31
403.078	80.31
403.302	93.31
403.526	72.31
403.75	93.31
403.974	90.31
404.198	92.31
404.422	84.31
404.645	93.31
404.869	87.31
405.093	96.31
405.317	120.31
405.541	130.31
405.765	111.31
405.988	102.31
406.212	166.31
406.436	206.31
406.66	146.31
406.883	108.31
407.107	95.31
407.331	90.31
407.555	94.31
407.778	75.31
408.002	100.31
408.226	79.31
408.449	87.31
408.673	79.31
408.896	95.31
409.12	95.31
409.344	91.31
409.567	86.31
409.791	86.31
410.014	93.31
410.238	87.31
410.461	79.31
410.685	77.31
410.908	105.31
411.132	108.31
411.355	93.31
411.578	91.31
411.802	92.31
412.025	89.31
412.249	86.31
412.472	95.31
412.695	114.31
412.919	107.31
413.142	93.31
413.365	82.31
413.589	68.31
413.812	78.31
414.035	93.31
414.258	88.31
414.482	91.31
414.705	80.31
414.928	95.31
415.151	87.31
415.374	99.31
415.597	98.31
415.821	77.31
416.044	86.31
416.267	78.31
416.49	76.31
416.713	78.31
416.936	83.31
417.159	92.31
417.382	81.31
417.605	79.31
417.828	102.31
418.051	97.31
418.274	86.31
418.497	84.31
418.72	104.31
418.943	79.31
419.166	75.31
419.389	101.31
419.611	87.31
419.834	78.31
420.057	74.31
420.28	74.31
420.503	74.31
420.726	88.31
420.948	86.31
421.171	104.31
421.394	81.31
421.617	84.31
421.839	90.31
422.062	86.31
422.285	95.31
422.507	108.31
422.73	99.31
422.953	90.31
423.175	83.31
423.398	94.31
423.621	72.31
423.843	87.31
424.066	86.31
424.288	90.31
424.511	83.31
424.733	76.31
424.956	101.31
425.178	93.31
425.401	106.31
425.623	95.31
425.846	80.31
426.068	79.31
426.291	102.31
426.513	93.31
426.735	84.31
426.958	84.31
427.18	98.31
427.402	135.31
427.625	173.31
427.847	144.31
428.069	165.31
428.292	100.31
428.514	87.31
428.736	80.31
428.958	80.31
429.181	82.31
429.403	80.31
429.625	84.31
429.847	81.31
430.069	107.31
430.292	84.31
430.514	89.31
430.736	84.31
430.958	94.31
431.18	96.31
431.402	101.31
431.624	83.31
431.846	87.31
432.068	90.31
432.29	77.31
432.512	97.31
432.734	91.31
432.956	101.31
433.178	91.31
433.4	71.31
433.622	96.31
433.844	93.31
434.066	78.31
434.287	82.31
434.509	84.31
434.731	101.31
434.953	89.31
435.175	90.31
435.397	92.31
435.618	83.31
435.84	85.31
436.062	131.31
436.284	111.31
436.505	90.31
436.727	95.31
436.949	80.31
437.17	95.31
437.392	85.31
437.614	86.31
437.835	93.31
438.057	103.31
438.278	109.31
438.5	114.31
438.721	131.31
438.943	79.31
439.165	90.31
439.386	77.31
439.608	95.31
439.829	99.31
440.05	126.31
440.272	138.31
440.493	114.31
440.715	75.31
440.936	82.31
441.158	100.31
441.379	92.31
441.6	93.31
441.822	105.31
442.043	94.31
442.264	110.31
442.486	91.31
442.707	98.31
442.928	93.31
443.149	127.31
443.371	134.31
443.592	118.31
443.813	104.31
444.034	107.31
444.255	101.31
444.476	95.31
444.698	87.31
444.919	83.31
445.14	121.31
445.361	116.31
445.582	114.31
445.803	152.31
446.024	154.31
446.245	114.31
446.466	102.31
446.687	101.31
446.908	87.31
447.129	100.31
447.35	99.31
447.571	77.31
447.792	78.31
448.013	101.31
448.234	110.31
448.455	95.31
448.675	100.31
448.896	110.31
449.117	101.31
449.338	115.31
449.559	129.31
449.779	148.31
450	96.31
450.221	74.31
450.442	86.31
450.662	88.31
450.883	108.31
451.104	122.31
451.324	97.31
451.545	84.31
451.766	89.31
451.986	72.31
452.207	85.31
452.428	80.31
452.648	93.31
452.869	115.31
453.089	105.31
453.31	116.31
453.53	95.31
453.751	80.31
453.971	95.31
454.192	111.31
454.412	81.31
454.633	99.31
454.853	84.31
455.073	77.31
455.294	83.31
455.514	94.31
455.734	83.31
455.955	62.31
456.175	76.31
456.395	72.31
456.616	88.31
456.836	86.31
457.056	86.31
457.276	87.31
457.497	87.31
457.717	78.31
457.937	92.31
458.157	87.31
458.377	83.31
458.598	116.31
458.818	133.31
459.038	164.31
459.258	112.31
459.478	80.31
459.698	91.31
459.918	85.31
460.138	79.31
460.358	81.31
460.578	95.31
460.798	83.31
461.018	80.31
461.238	77.31
461.458	98.31
461.678	81.31
461.898	85.31
462.118	91.31
462.338	73.31
462.558	77.31
462.777	75.31
462.997	90.31
463.217	94.31
463.437	84.31
463.657	87.31
463.876	92.31
464.096	76.31
464.316	92.31
464.536	101.31
464.755	91.31
464.975	99.31
465.195	164.31
465.414	174.31
465.634	89.31
465.854	86.31
466.073	91.31
466.293	80.31
466.512	75.31
466.732	76.31
466.951	91.31
467.171	78.31
467.391	102.31
467.61	110.31
467.829	127.31
468.049	196.31
468.268	280.31
468.488	126.31
468.707	74.31
468.927	96.31
469.146	83.31
469.365	93.31
469.585	96.31
469.804	98.31
470.023	100.31
470.243	91.31
470.462	98.31
470.681	98.31
470.901	83.31
471.12	90.31
471.339	75.31
471.558	80.31
471.777	93.31
471.997	146.31
472.216	378.31
472.435	769.31
472.654	245.31
472.873	106.31
473.092	88.31
473.311	86.31
473.53	80.31
473.749	69.31
473.968	79.31
474.187	98.31
474.406	105.31
474.625	87.31
474.844	95.31
475.063	86.31
475.282	81.31
475.501	89.31
475.72	105.31
475.939	77.31
476.158	86.31
476.377	85.31
476.596	79.31
476.814	103.31
477.033	95.31
477.252	94.31
477.471	95.31
477.69	85.31
477.908	94.31
478.127	84.31
478.346	81.31
478.564	83.31
478.783	85.31
479.002	99.31
479.22	83.31
479.439	103.31
479.658	110.31
479.876	101.31
480.095	102.31
480.313	119.31
480.532	121.31
480.751	142.31
480.969	346.31
481.188	1282.31
481.406	831.31
481.624	189.31
481.843	102.31
482.061	88.31
482.28	88.31
482.498	90.31
482.717	88.31
482.935	86.31
483.153	82.31
483.372	82.31
483.59	98.31
483.808	76.31
484.027	83.31
484.245	89.31
484.463	80.31
484.681	112.31
484.9	103.31
485.118	94.31
485.336	95.31
485.554	85.31
485.772	101.31
485.99	93.31
486.209	93.31
486.427	100.31
486.645	104.31
486.863	97.31
487.081	96.31
487.299	76.31
487.517	79.31
487.735	100.31
487.953	96.31
488.171	91.31
488.389	98.31
488.607	91.31
488.825	95.31
489.043	93.31
489.261	92.31
489.479	92.31
489.696	87.31
489.914	103.31
490.132	82.31
490.35	84.31
490.568	88.31
490.786	89.31
491.003	95.31
491.221	77.31
491.439	99.31
491.657	98.31
491.874	77.31
492.092	79.31
492.31	97.31
492.527	93.31
492.745	96.31
492.963	91.31
493.18	88.31
493.398	90.31
493.615	101.31
493.833	99.31
494.05	89.31
494.268	80.31
494.485	84.31
494.703	86.31
494.92	76.31
495.138	94.31
495.355	87.31
495.573	88.31
495.79	89.31
496.008	95.31
496.225	86.31
496.442	70.31
496.66	95.31
496.877	90.31
497.094	98.31
497.312	94.31
497.529	93.31
497.746	88.31
497.963	75.31
498.181	104.31
498.398	107.31
498.615	107.31
498.832	88.31
499.049	83.31
499.267	89.31
499.484	93.31
499.701	93.31
499.918	96.31
500.135	93.31
500.352	88.31
500.569	88.31
500.786	102.31
501.003	96.31
501.22	84.31
501.437	91.31
501.654	101.31
501.871	107.31
502.088	86.31
502.305	92.31
502.522	80.31
502.739	90.31
502.956	88.31
503.172	84.31
503.389	93.31
503.606	100.31
503.823	100.31
504.04	91.31
504.256	106.31
504.473	91.31
504.69	90.31
504.907	96.31
505.123	91.31
505.34	108.31
505.557	103.31
505.773	78.31
505.99	82.31
506.207	88.31
506.423	91.31
506.64	78.31
506.856	82.31
507.073	85.31
507.289	92.31
507.506	98.31
507.722	101.31
507.939	105.31
508.155	95.31
508.372	84.31
508.588	94.31
508.805	84.31
509.021	102.31
509.238	94.31
509.454	98.31
509.67	107.31
509.887	113.31
510.103	126.31
510.319	193.31
510.536	642.31
510.752	1995.31
510.968	597.31
511.184	134.31
511.401	115.31
511.617	100.31
511.833	102.31
512.049	88.31
512.265	90.31
512.481	86.31
512.698	75.31
512.914	76.31
513.13	94.31
513.346	90.31
513.562	99.31
513.778	107.31
513.994	105.31
514.21	102.31
514.426	103.31
514.642	121.31
514.858	127.31
515.074	151.31
515.29	429.31
515.506	1374.31
515.721	543.31
