Data from Circ_2010_H10_HRD10591_00042.txt Node
Date: Wed Jan 03 10:09:49 EST 2024
User: Yrep
Spectrometer: HR+D1059
Trigger mode: 1
Integration Time (sec): 1.000000E-1
Scans to average: 1
Electric dark correction enabled: true
Nonlinearity correction enabled: false
Boxcar width: 0
XAxis mode: Wavelengths
Number of Pixels in Spectrum: 2048
>>>>>Begin Spectral Data<<<<<
223.165	-16.38
223.4	-16.38
223.635	-16.38
223.869	-19.38
224.104	-24.38
224.338	-24.38
224.573	-13.38
224.808	-13.38
225.042	-3.38
225.277	-12.38
225.511	5.62
225.746	6.62
225.98	-2.38
226.215	13.62
226.449	11.62
226.683	31.62
226.918	24.62
227.152	35.62
227.387	39.62
227.621	46.62
227.856	43.62
228.09	48.62
228.324	60.62
228.559	66.62
228.793	53.62
229.027	70.62
229.262	64.62
229.496	75.62
229.73	72.62
229.964	75.62
230.199	84.62
230.433	86.62
230.667	68.62
230.901	91.62
231.136	77.62
231.37	75.62
231.604	66.62
231.838	69.62
232.072	75.62
232.306	85.62
232.541	78.62
232.775	77.62
233.009	93.62
233.243	69.62
233.477	78.62
233.711	73.62
233.945	80.62
234.179	71.62
234.413	72.62
234.647	65.62
234.881	71.62
235.115	69.62
235.349	86.62
235.583	73.62
235.817	64.62
236.051	66.62
236.285	84.62
236.519	66.62
236.753	75.62
236.987	72.62
237.221	68.62
237.455	79.62
237.689	76.62
237.922	85.62
238.156	78.62
238.39	65.62
238.624	80.62
238.858	77.62
239.091	93.62
239.325	83.62
239.559	79.62
239.793	76.62
240.027	79.62
240.26	69.62
240.494	68.62
240.728	69.62
240.961	77.62
241.195	83.62
241.429	80.62
241.662	82.62
241.896	85.62
242.13	74.62
242.363	88.62
242.597	79.62
242.83	75.62
243.064	73.62
243.298	78.62
243.531	68.62
243.765	71.62
243.998	85.62
244.232	84.62
244.465	74.62
244.699	90.62
244.932	61.62
245.166	74.62
245.399	90.62
245.633	78.62
245.866	73.62
246.099	82.62
246.333	101.62
246.566	82.62
246.8	60.62
247.033	77.62
247.266	69.62
247.5	76.62
247.733	74.62
247.966	81.62
248.2	100.62
248.433	71.62
248.666	84.62
248.899	93.62
249.133	92.62
249.366	100.62
249.599	94.62
249.832	76.62
250.066	73.62
250.299	82.62
250.532	87.62
250.765	80.62
250.998	80.62
251.231	68.62
251.465	80.62
251.698	85.62
251.931	81.62
252.164	82.62
252.397	80.62
252.63	84.62
252.863	94.62
253.096	86.62
253.329	73.62
253.562	78.62
253.795	71.62
254.028	77.62
254.261	83.62
254.494	85.62
254.727	71.62
254.96	76.62
255.193	83.62
255.426	74.62
255.659	81.62
255.892	86.62
256.124	79.62
256.357	73.62
256.59	79.62
256.823	68.62
257.056	82.62
257.289	71.62
257.521	73.62
257.754	78.62
257.987	86.62
258.22	83.62
258.452	90.62
258.685	81.62
258.918	78.62
259.151	71.62
259.383	67.62
259.616	78.62
259.849	86.62
260.081	68.62
260.314	82.62
260.547	86.62
260.779	85.62
261.012	81.62
261.244	85.62
261.477	92.62
261.71	88.62
261.942	114.62
262.175	84.62
262.407	82.62
262.64	79.62
262.872	76.62
263.105	57.62
263.337	79.62
263.57	86.62
263.802	100.62
264.035	80.62
264.267	65.62
264.499	72.62
264.732	70.62
264.964	70.62
265.197	70.62
265.429	79.62
265.661	73.62
265.894	73.62
266.126	91.62
266.358	75.62
266.591	75.62
266.823	72.62
267.055	78.62
267.287	90.62
267.52	89.62
267.752	87.62
267.984	95.62
268.216	69.62
268.448	91.62
268.681	75.62
268.913	84.62
269.145	78.62
269.377	88.62
269.609	65.62
269.841	79.62
270.073	71.62
270.306	80.62
270.538	90.62
270.77	84.62
271.002	80.62
271.234	87.62
271.466	98.62
271.698	73.62
271.93	84.62
272.162	83.62
272.394	94.62
272.626	88.62
272.858	79.62
273.09	72.62
273.322	90.62
273.553	84.62
273.785	86.62
274.017	76.62
274.249	80.62
274.481	80.62
274.713	80.62
274.945	81.62
275.176	79.62
275.408	78.62
275.64	95.62
275.872	86.62
276.104	91.62
276.335	88.62
276.567	98.62
276.799	102.62
277.031	115.62
277.262	112.62
277.494	89.62
277.726	89.62
277.957	86.62
278.189	83.62
278.421	75.62
278.652	78.62
278.884	70.62
279.115	75.62
279.347	77.62
279.579	79.62
279.81	84.62
280.042	101.62
280.273	95.62
280.505	96.62
280.736	98.62
280.968	90.62
281.199	85.62
281.431	81.62
281.662	95.62
281.894	92.62
282.125	108.62
282.356	115.62
282.588	123.62
282.819	106.62
283.051	82.62
283.282	77.62
283.513	72.62
283.745	87.62
283.976	79.62
284.207	74.62
284.439	87.62
284.67	95.62
284.901	75.62
285.132	77.62
285.364	81.62
285.595	85.62
285.826	84.62
286.057	81.62
286.288	79.62
286.52	83.62
286.751	87.62
286.982	92.62
287.213	80.62
287.444	86.62
287.675	88.62
287.906	76.62
288.138	92.62
288.369	85.62
288.6	85.62
288.831	100.62
289.062	77.62
289.293	90.62
289.524	97.62
289.755	92.62
289.986	84.62
290.217	75.62
290.448	79.62
290.679	80.62
290.91	82.62
291.141	71.62
291.371	88.62
291.602	85.62
291.833	78.62
292.064	85.62
292.295	76.62
292.526	85.62
292.757	86.62
292.987	67.62
293.218	87.62
293.449	95.62
293.68	77.62
293.91	83.62
294.141	93.62
294.372	85.62
294.603	94.62
294.833	76.62
295.064	82.62
295.295	91.62
295.525	103.62
295.756	91.62
295.987	109.62
296.217	128.62
296.448	91.62
296.679	89.62
296.909	80.62
297.14	78.62
297.37	88.62
297.601	73.62
297.831	85.62
298.062	84.62
298.292	84.62
298.523	83.62
298.753	86.62
298.984	98.62
299.214	87.62
299.445	75.62
299.675	82.62
299.905	91.62
300.136	85.62
300.366	90.62
300.597	95.62
300.827	86.62
301.057	98.62
301.288	95.62
301.518	89.62
301.748	91.62
301.979	94.62
302.209	83.62
302.439	79.62
302.669	79.62
302.9	75.62
303.13	85.62
303.36	93.62
303.59	94.62
303.82	90.62
304.051	98.62
304.281	92.62
304.511	88.62
304.741	78.62
304.971	97.62
305.201	86.62
305.431	80.62
305.661	78.62
305.891	82.62
306.121	82.62
306.352	96.62
306.582	99.62
306.812	103.62
307.042	85.62
307.272	81.62
307.502	98.62
307.731	90.62
307.961	92.62
308.191	79.62
308.421	78.62
308.651	90.62
308.881	85.62
309.111	94.62
309.341	95.62
309.571	91.62
309.8	86.62
310.03	84.62
310.26	92.62
310.49	86.62
310.72	88.62
310.949	85.62
311.179	89.62
311.409	75.62
311.639	104.62
311.868	105.62
312.098	89.62
312.328	86.62
312.557	101.62
312.787	93.62
313.017	80.62
313.246	84.62
313.476	91.62
313.706	89.62
313.935	96.62
314.165	89.62
314.394	104.62
314.624	88.62
314.853	92.62
315.083	82.62
315.312	91.62
315.542	96.62
315.771	88.62
316.001	100.62
316.23	90.62
316.46	90.62
316.689	81.62
316.919	86.62
317.148	95.62
317.377	96.62
317.607	91.62
317.836	93.62
318.065	98.62
318.295	92.62
318.524	73.62
318.753	95.62
318.983	92.62
319.212	100.62
319.441	84.62
319.67	107.62
319.9	90.62
320.129	92.62
320.358	97.62
320.587	102.62
320.816	92.62
321.046	105.62
321.275	90.62
321.504	91.62
321.733	97.62
321.962	88.62
322.191	92.62
322.42	109.62
322.649	98.62
322.878	89.62
323.108	111.62
323.337	114.62
323.566	114.62
323.795	144.62
324.024	195.62
324.253	344.62
324.482	753.62
324.71	1540.62
324.939	1972.62
325.168	726.62
325.397	225.62
325.626	145.62
325.855	131.62
326.084	122.62
326.313	125.62
326.542	140.62
326.77	207.62
326.999	442.62
327.228	894.62
327.457	1586.62
327.686	1236.62
327.914	368.62
328.143	183.62
328.372	150.62
328.6	143.62
328.829	95.62
329.058	131.62
329.287	130.62
329.515	111.62
329.744	117.62
329.972	138.62
330.201	187.62
330.43	224.62
330.658	159.62
330.887	141.62
331.115	109.62
331.344	108.62
331.572	102.62
331.801	108.62
332.03	109.62
332.258	91.62
332.486	70.62
332.715	76.62
332.943	95.62
333.172	104.62
333.4	102.62
333.629	100.62
333.857	122.62
334.085	167.62
334.314	186.62
334.542	298.62
334.771	262.62
334.999	121.62
335.227	94.62
335.455	91.62
335.684	105.62
335.912	88.62
336.14	105.62
336.369	99.62
336.597	93.62
336.825	89.62
337.053	88.62
337.281	99.62
337.51	94.62
337.738	97.62
337.966	91.62
338.194	94.62
338.422	96.62
338.65	94.62
338.878	96.62
339.106	98.62
339.334	98.62
339.562	103.62
339.79	81.62
340.018	93.62
340.246	89.62
340.474	93.62
340.702	92.62
340.93	93.62
341.158	98.62
341.386	95.62
341.614	95.62
341.842	97.62
342.07	97.62
342.298	75.62
342.526	90.62
342.754	90.62
342.981	104.62
343.209	91.62
343.437	95.62
343.665	74.62
343.893	81.62
344.12	84.62
344.348	80.62
344.576	86.62
344.804	83.62
345.031	82.62
345.259	92.62
345.487	84.62
345.714	90.62
345.942	96.62
346.17	91.62
346.397	106.62
346.625	86.62
346.853	98.62
347.08	91.62
347.308	93.62
347.535	101.62
347.763	103.62
347.99	79.62
348.218	79.62
348.445	98.62
348.673	99.62
348.9	94.62
349.128	91.62
349.355	85.62
349.583	109.62
349.81	85.62
350.037	80.62
350.265	92.62
350.492	88.62
350.72	81.62
350.947	99.62
351.174	99.62
351.402	110.62
351.629	96.62
351.856	92.62
352.083	77.62
352.311	95.62
352.538	92.62
352.765	111.62
352.992	100.62
353.22	98.62
353.447	99.62
353.674	107.62
353.901	99.62
354.128	85.62
354.355	90.62
354.583	103.62
354.81	99.62
355.037	84.62
355.264	93.62
355.491	94.62
355.718	92.62
355.945	96.62
356.172	105.62
356.399	95.62
356.626	92.62
356.853	97.62
357.08	81.62
357.307	104.62
357.534	89.62
357.761	91.62
357.988	90.62
358.215	98.62
358.441	98.62
358.668	96.62
358.895	91.62
359.122	79.62
359.349	96.62
359.576	89.62
359.802	89.62
360.029	105.62
360.256	102.62
360.483	81.62
360.709	84.62
360.936	91.62
361.163	94.62
361.39	90.62
361.616	86.62
361.843	101.62
362.07	90.62
362.296	82.62
362.523	68.62
362.749	80.62
362.976	88.62
363.203	74.62
363.429	76.62
363.656	85.62
363.882	90.62
364.109	88.62
364.335	88.62
364.562	78.62
364.788	82.62
365.015	91.62
365.241	113.62
365.468	97.62
365.694	98.62
365.92	80.62
366.147	91.62
366.373	78.62
366.599	103.62
366.826	94.62
367.052	98.62
367.278	99.62
367.505	80.62
367.731	80.62
367.957	87.62
368.184	86.62
368.41	84.62
368.636	99.62
368.862	105.62
369.089	101.62
369.315	87.62
369.541	86.62
369.767	91.62
369.993	96.62
370.219	86.62
370.445	90.62
370.672	88.62
370.898	86.62
371.124	77.62
371.35	89.62
371.576	77.62
371.802	90.62
372.028	86.62
372.254	89.62
372.48	85.62
372.706	85.62
372.932	89.62
373.158	79.62
373.384	98.62
373.61	94.62
373.835	86.62
374.061	99.62
374.287	91.62
374.513	91.62
374.739	95.62
374.965	75.62
375.191	84.62
375.416	80.62
375.642	84.62
375.868	91.62
376.094	95.62
376.319	83.62
376.545	102.62
376.771	83.62
376.997	88.62
377.222	94.62
377.448	83.62
377.674	96.62
377.899	90.62
378.125	80.62
378.35	93.62
378.576	93.62
378.802	91.62
379.027	80.62
379.253	79.62
379.478	80.62
379.704	96.62
379.929	97.62
380.155	91.62
380.38	86.62
380.606	96.62
380.831	81.62
381.057	100.62
381.282	86.62
381.507	95.62
381.733	83.62
381.958	98.62
382.184	97.62
382.409	104.62
382.634	103.62
382.86	89.62
383.085	88.62
383.31	94.62
383.535	85.62
383.761	99.62
383.986	109.62
384.211	98.62
384.436	98.62
384.662	93.62
384.887	95.62
385.112	101.62
385.337	103.62
385.562	87.62
385.787	102.62
386.013	102.62
386.238	97.62
386.463	87.62
386.688	108.62
386.913	96.62
387.138	99.62
387.363	87.62
387.588	106.62
387.813	94.62
388.038	104.62
388.263	109.62
388.488	108.62
388.713	96.62
388.938	92.62
389.163	89.62
389.387	95.62
389.612	92.62
389.837	90.62
390.062	77.62
390.287	97.62
390.512	93.62
390.736	86.62
390.961	90.62
391.186	93.62
391.411	82.62
391.636	84.62
391.86	86.62
392.085	88.62
392.31	89.62
392.534	94.62
392.759	100.62
392.984	78.62
393.208	87.62
393.433	96.62
393.658	88.62
393.882	96.62
394.107	87.62
394.331	77.62
394.556	78.62
394.78	76.62
395.005	87.62
395.229	74.62
395.454	87.62
395.678	77.62
395.903	99.62
396.127	100.62
396.352	88.62
396.576	87.62
396.801	84.62
397.025	98.62
397.249	90.62
397.474	95.62
397.698	97.62
397.922	92.62
398.147	93.62
398.371	92.62
398.595	86.62
398.82	97.62
399.044	91.62
399.268	98.62
399.492	85.62
399.717	94.62
399.941	90.62
400.165	88.62
400.389	84.62
400.613	73.62
400.837	88.62
401.062	102.62
401.286	91.62
401.51	86.62
401.734	89.62
401.958	83.62
402.182	111.62
402.406	141.62
402.63	103.62
402.854	87.62
403.078	89.62
403.302	78.62
403.526	83.62
403.75	79.62
403.974	96.62
404.198	90.62
404.422	95.62
404.645	89.62
404.869	89.62
405.093	105.62
405.317	99.62
405.541	109.62
405.765	99.62
405.988	106.62
406.212	142.62
406.436	181.62
406.66	134.62
406.883	88.62
407.107	88.62
407.331	89.62
407.555	104.62
407.778	109.62
408.002	98.62
408.226	81.62
408.449	83.62
408.673	96.62
408.896	103.62
409.12	91.62
409.344	96.62
409.567	87.62
409.791	94.62
410.014	100.62
410.238	79.62
410.461	83.62
410.685	87.62
410.908	94.62
411.132	112.62
411.355	92.62
411.578	94.62
411.802	86.62
412.025	88.62
412.249	94.62
412.472	98.62
412.695	102.62
412.919	92.62
413.142	86.62
413.365	77.62
413.589	90.62
413.812	77.62
414.035	80.62
414.258	84.62
414.482	87.62
414.705	84.62
414.928	104.62
415.151	80.62
415.374	93.62
415.597	84.62
415.821	90.62
416.044	74.62
416.267	88.62
416.49	90.62
416.713	100.62
416.936	93.62
417.159	93.62
417.382	79.62
417.605	88.62
417.828	88.62
418.051	90.62
418.274	94.62
418.497	68.62
418.72	94.62
418.943	86.62
419.166	98.62
419.389	90.62
419.611	80.62
419.834	74.62
420.057	91.62
420.28	90.62
420.503	89.62
420.726	86.62
420.948	87.62
421.171	95.62
421.394	82.62
421.617	93.62
421.839	76.62
422.062	90.62
422.285	105.62
422.507	113.62
422.73	102.62
422.953	106.62
423.175	81.62
423.398	85.62
423.621	95.62
423.843	86.62
424.066	87.62
424.288	90.62
424.511	83.62
424.733	119.62
424.956	97.62
425.178	91.62
425.401	90.62
425.623	99.62
425.846	74.62
426.068	84.62
426.291	69.62
426.513	91.62
426.735	92.62
426.958	88.62
427.18	102.62
427.402	141.62
427.625	164.62
427.847	136.62
428.069	133.62
428.292	94.62
428.514	89.62
428.736	95.62
428.958	82.62
429.181	80.62
429.403	58.62
429.625	86.62
429.847	87.62
430.069	89.62
430.292	102.62
430.514	87.62
430.736	93.62
430.958	88.62
431.18	80.62
431.402	90.62
431.624	80.62
431.846	76.62
432.068	95.62
432.29	108.62
432.512	89.62
432.734	82.62
432.956	106.62
433.178	76.62
433.4	98.62
433.622	105.62
433.844	72.62
434.066	90.62
434.287	79.62
434.509	81.62
434.731	80.62
434.953	94.62
435.175	87.62
435.397	89.62
435.618	89.62
435.84	112.62
436.062	124.62
436.284	109.62
436.505	112.62
436.727	105.62
436.949	92.62
437.17	103.62
437.392	89.62
437.614	95.62
437.835	105.62
438.057	97.62
438.278	104.62
438.5	100.62
438.721	129.62
438.943	91.62
439.165	89.62
439.386	94.62
439.608	76.62
439.829	104.62
440.05	122.62
440.272	143.62
440.493	108.62
440.715	86.62
440.936	78.62
441.158	78.62
441.379	76.62
441.6	87.62
441.822	98.62
442.043	89.62
442.264	91.62
442.486	93.62
442.707	96.62
442.928	89.62
443.149	138.62
443.371	114.62
443.592	113.62
443.813	117.62
444.034	94.62
444.255	86.62
444.476	74.62
444.698	93.62
444.919	87.62
445.14	124.62
445.361	117.62
445.582	109.62
445.803	131.62
446.024	146.62
446.245	135.62
446.466	109.62
446.687	93.62
446.908	100.62
447.129	76.62
447.35	86.62
447.571	86.62
447.792	93.62
448.013	98.62
448.234	109.62
448.455	79.62
448.675	110.62
448.896	108.62
449.117	93.62
449.338	113.62
449.559	152.62
449.779	122.62
450	103.62
450.221	88.62
450.442	82.62
450.662	89.62
450.883	90.62
451.104	93.62
451.324	87.62
451.545	90.62
451.766	87.62
451.986	85.62
452.207	86.62
452.428	82.62
452.648	101.62
452.869	101.62
453.089	110.62
453.31	92.62
453.53	83.62
453.751	86.62
453.971	84.62
454.192	114.62
454.412	86.62
454.633	98.62
454.853	98.62
455.073	84.62
455.294	96.62
455.514	97.62
455.734	86.62
455.955	87.62
456.175	87.62
456.395	86.62
456.616	83.62
456.836	84.62
457.056	78.62
457.276	100.62
457.497	85.62
457.717	93.62
457.937	83.62
458.157	75.62
458.377	94.62
458.598	119.62
458.818	131.62
459.038	129.62
459.258	106.62
459.478	102.62
459.698	84.62
459.918	91.62
460.138	95.62
460.358	76.62
460.578	87.62
460.798	92.62
461.018	82.62
461.238	90.62
461.458	80.62
461.678	80.62
461.898	77.62
462.118	99.62
462.338	77.62
462.558	81.62
462.777	75.62
462.997	90.62
463.217	69.62
463.437	80.62
463.657	92.62
463.876	69.62
464.096	84.62
464.316	84.62
464.536	85.62
464.755	91.62
464.975	103.62
465.195	132.62
465.414	127.62
465.634	90.62
465.854	79.62
466.073	83.62
466.293	103.62
466.512	85.62
466.732	94.62
466.951	90.62
467.171	84.62
467.391	88.62
467.61	106.62
467.829	99.62
468.049	134.62
468.268	170.62
468.488	103.62
468.707	93.62
468.927	82.62
469.146	99.62
469.365	88.62
469.585	81.62
469.804	86.62
470.023	80.62
470.243	87.62
470.462	98.62
470.681	96.62
470.901	87.62
471.12	80.62
471.339	81.62
471.558	92.62
471.777	90.62
471.997	115.62
472.216	210.62
472.435	342.62
472.654	156.62
472.873	99.62
473.092	87.62
473.311	84.62
473.53	80.62
473.749	79.62
473.968	92.62
474.187	102.62
474.406	104.62
474.625	79.62
474.844	79.62
475.063	88.62
475.282	95.62
475.501	89.62
475.72	84.62
475.939	93.62
476.158	93.62
476.377	94.62
476.596	73.62
476.814	95.62
477.033	88.62
477.252	89.62
477.471	85.62
477.69	86.62
477.908	110.62
478.127	83.62
478.346	87.62
478.564	98.62
478.783	92.62
479.002	83.62
479.22	84.62
479.439	101.62
479.658	100.62
479.876	93.62
480.095	87.62
480.313	97.62
480.532	96.62
480.751	104.62
480.969	202.62
481.188	575.62
481.406	382.62
481.624	118.62
481.843	95.62
482.061	104.62
482.28	88.62
482.498	105.62
482.717	87.62
482.935	83.62
483.153	95.62
483.372	93.62
483.59	69.62
483.808	88.62
484.027	92.62
484.245	100.62
484.463	96.62
484.681	104.62
484.9	87.62
485.118	91.62
485.336	85.62
485.554	106.62
485.772	107.62
485.99	106.62
486.209	90.62
486.427	109.62
486.645	118.62
486.863	111.62
487.081	96.62
487.299	90.62
487.517	89.62
487.735	87.62
487.953	99.62
488.171	95.62
488.389	93.62
488.607	99.62
488.825	84.62
489.043	79.62
489.261	86.62
489.479	92.62
489.696	92.62
489.914	83.62
490.132	91.62
490.35	87.62
490.568	83.62
490.786	82.62
491.003	87.62
491.221	99.62
491.439	79.62
491.657	82.62
491.874	95.62
492.092	99.62
492.31	79.62
492.527	91.62
492.745	100.62
492.963	85.62
493.18	84.62
493.398	82.62
493.615	91.62
493.833	84.62
494.05	94.62
494.268	76.62
494.485	86.62
494.703	98.62
494.92	96.62
495.138	76.62
495.355	99.62
495.573	75.62
495.79	88.62
496.008	97.62
496.225	89.62
496.442	95.62
496.66	98.62
496.877	84.62
497.094	92.62
497.312	85.62
497.529	95.62
497.746	92.62
497.963	87.62
498.181	101.62
498.398	95.62
498.615	114.62
498.832	100.62
499.049	95.62
499.267	89.62
499.484	83.62
499.701	107.62
499.918	85.62
500.135	88.62
500.352	93.62
500.569	95.62
500.786	93.62
501.003	84.62
501.22	96.62
501.437	96.62
501.654	96.62
501.871	108.62
502.088	91.62
502.305	77.62
502.522	100.62
502.739	91.62
502.956	86.62
503.172	96.62
503.389	87.62
503.606	93.62
503.823	94.62
504.04	91.62
504.256	91.62
504.473	75.62
504.69	86.62
504.907	95.62
505.123	90.62
505.34	107.62
505.557	91.62
505.773	75.62
505.99	93.62
506.207	87.62
506.423	93.62
506.64	68.62
506.856	89.62
507.073	97.62
507.289	91.62
507.506	95.62
507.722	89.62
507.939	109.62
508.155	94.62
508.372	98.62
508.588	99.62
508.805	105.62
509.021	87.62
509.238	88.62
509.454	104.62
509.67	104.62
509.887	115.62
510.103	135.62
510.319	181.62
510.536	628.62
510.752	1875.62
510.968	570.62
511.184	147.62
511.401	103.62
511.617	90.62
511.833	90.62
512.049	96.62
512.265	90.62
512.481	93.62
512.698	101.62
512.914	90.62
513.13	91.62
513.346	100.62
513.562	74.62
513.778	117.62
513.994	107.62
514.21	96.62
514.426	106.62
514.642	132.62
514.858	111.62
515.074	142.62
515.29	379.62
515.506	1176.62
515.721	462.62
515.937	138.62
516.153	99.62
516.369	95.62
