Data from Circ_2010_H10_HRD10591_00087.txt Node
Date: Wed Jan 03 10:09:58 EST 2024
User: Yrep
Spectrometer: HR+D1059
Trigger mode: 1
Integration Time (sec): 1.000000E-1
Scans to average: 1
Electric dark correction enabled: true
Nonlinearity correction enabled: false
Boxcar width: 0
XAxis mode: Wavelengths
Number of Pixels in Spectrum: 2048
>>>>>Begin Spectral Data<<<<<
223.165	-27.25
223.4	-27.25
223.635	-27.25
223.869	-19.25
224.104	-10.25
224.338	-21.25
224.573	-11.25
224.808	-24.25
225.042	-17.25
225.277	0.75
225.511	-9.25
225.746	4.75
225.98	8.75
226.215	15.75
226.449	20.75
226.683	24.75
226.918	36.75
227.152	27.75
227.387	44.75
227.621	56.75
227.856	47.75
228.09	44.75
228.324	66.75
228.559	56.75
228.793	65.75
229.027	75.75
229.262	62.75
229.496	57.75
229.73	74.75
229.964	70.75
230.199	76.75
230.433	74.75
230.667	78.75
230.901	64.75
231.136	71.75
231.37	84.75
231.604	71.75
231.838	78.75
232.072	77.75
232.306	89.75
232.541	73.75
232.775	88.75
233.009	85.75
233.243	92.75
233.477	81.75
233.711	84.75
233.945	81.75
234.179	82.75
234.413	82.75
234.647	62.75
234.881	74.75
235.115	81.75
235.349	76.75
235.583	63.75
235.817	77.75
236.051	85.75
236.285	80.75
236.519	79.75
236.753	69.75
236.987	81.75
237.221	90.75
237.455	73.75
237.689	80.75
237.922	78.75
238.156	75.75
238.39	75.75
238.624	68.75
238.858	82.75
239.091	81.75
239.325	81.75
239.559	68.75
239.793	81.75
240.027	74.75
240.26	76.75
240.494	93.75
240.728	76.75
240.961	75.75
241.195	86.75
241.429	73.75
241.662	74.75
241.896	86.75
242.13	74.75
242.363	89.75
242.597	78.75
242.83	72.75
243.064	83.75
243.298	72.75
243.531	70.75
243.765	82.75
243.998	83.75
244.232	79.75
244.465	89.75
244.699	92.75
244.932	82.75
245.166	87.75
245.399	76.75
245.633	86.75
245.866	87.75
246.099	82.75
246.333	80.75
246.566	95.75
246.8	84.75
247.033	90.75
247.266	67.75
247.5	81.75
247.733	72.75
247.966	84.75
248.2	72.75
248.433	81.75
248.666	72.75
248.899	76.75
249.133	72.75
249.366	100.75
249.599	84.75
249.832	86.75
250.066	87.75
250.299	80.75
250.532	86.75
250.765	80.75
250.998	68.75
251.231	87.75
251.465	92.75
251.698	82.75
251.931	83.75
252.164	85.75
252.397	90.75
252.63	87.75
252.863	81.75
253.096	89.75
253.329	81.75
253.562	92.75
253.795	98.75
254.028	78.75
254.261	85.75
254.494	87.75
254.727	95.75
254.96	86.75
255.193	72.75
255.426	69.75
255.659	82.75
255.892	86.75
256.124	83.75
256.357	84.75
256.59	80.75
256.823	97.75
257.056	83.75
257.289	78.75
257.521	81.75
257.754	81.75
257.987	82.75
258.22	85.75
258.452	77.75
258.685	80.75
258.918	78.75
259.151	82.75
259.383	79.75
259.616	70.75
259.849	77.75
260.081	83.75
260.314	82.75
260.547	87.75
260.779	84.75
261.012	79.75
261.244	94.75
261.477	87.75
261.71	97.75
261.942	120.75
262.175	109.75
262.407	90.75
262.64	86.75
262.872	78.75
263.105	88.75
263.337	76.75
263.57	78.75
263.802	78.75
264.035	78.75
264.267	80.75
264.499	82.75
264.732	94.75
264.964	81.75
265.197	68.75
265.429	78.75
265.661	82.75
265.894	81.75
266.126	82.75
266.358	88.75
266.591	78.75
266.823	76.75
267.055	79.75
267.287	85.75
267.52	82.75
267.752	89.75
267.984	70.75
268.216	83.75
268.448	94.75
268.681	98.75
268.913	91.75
269.145	86.75
269.377	93.75
269.609	80.75
269.841	82.75
270.073	85.75
270.306	80.75
270.538	80.75
270.77	67.75
271.002	82.75
271.234	86.75
271.466	89.75
271.698	90.75
271.93	90.75
272.162	78.75
272.394	87.75
272.626	80.75
272.858	82.75
273.09	88.75
273.322	80.75
273.553	92.75
273.785	89.75
274.017	78.75
274.249	93.75
274.481	87.75
274.713	85.75
274.945	78.75
275.176	87.75
275.408	92.75
275.64	89.75
275.872	90.75
276.104	84.75
276.335	96.75
276.567	94.75
276.799	102.75
277.031	113.75
277.262	104.75
277.494	103.75
277.726	82.75
277.957	89.75
278.189	99.75
278.421	87.75
278.652	90.75
278.884	94.75
279.115	74.75
279.347	101.75
279.579	74.75
279.81	101.75
280.042	114.75
280.273	120.75
280.505	108.75
280.736	92.75
280.968	99.75
281.199	87.75
281.431	93.75
281.662	91.75
281.894	91.75
282.125	103.75
282.356	107.75
282.588	129.75
282.819	95.75
283.051	103.75
283.282	77.75
283.513	84.75
283.745	73.75
283.976	81.75
284.207	91.75
284.439	96.75
284.67	87.75
284.901	82.75
285.132	93.75
285.364	87.75
285.595	93.75
285.826	98.75
286.057	86.75
286.288	84.75
286.52	85.75
286.751	90.75
286.982	87.75
287.213	84.75
287.444	81.75
287.675	85.75
287.906	91.75
288.138	92.75
288.369	90.75
288.6	104.75
288.831	91.75
289.062	92.75
289.293	94.75
289.524	72.75
289.755	81.75
289.986	92.75
290.217	91.75
290.448	88.75
290.679	86.75
290.91	92.75
291.141	95.75
291.371	77.75
291.602	103.75
291.833	82.75
292.064	83.75
292.295	79.75
292.526	88.75
292.757	103.75
292.987	92.75
293.218	86.75
293.449	75.75
293.68	92.75
293.91	87.75
294.141	89.75
294.372	81.75
294.603	88.75
294.833	84.75
295.064	89.75
295.295	84.75
295.525	102.75
295.756	101.75
295.987	103.75
296.217	138.75
296.448	108.75
296.679	79.75
296.909	92.75
297.14	98.75
297.37	108.75
297.601	90.75
297.831	90.75
298.062	94.75
298.292	79.75
298.523	84.75
298.753	87.75
298.984	85.75
299.214	82.75
299.445	91.75
299.675	93.75
299.905	90.75
300.136	81.75
300.366	82.75
300.597	93.75
300.827	85.75
301.057	100.75
301.288	110.75
301.518	93.75
301.748	84.75
301.979	105.75
302.209	102.75
302.439	90.75
302.669	91.75
302.9	93.75
303.13	79.75
303.36	116.75
303.59	107.75
303.82	104.75
304.051	96.75
304.281	110.75
304.511	91.75
304.741	97.75
304.971	78.75
305.201	96.75
305.431	87.75
305.661	91.75
305.891	96.75
306.121	105.75
306.352	100.75
306.582	103.75
306.812	101.75
307.042	102.75
307.272	109.75
307.502	103.75
307.731	118.75
307.961	97.75
308.191	92.75
308.421	92.75
308.651	92.75
308.881	93.75
309.111	97.75
309.341	85.75
309.571	90.75
309.8	84.75
310.03	93.75
310.26	109.75
310.49	106.75
310.72	104.75
310.949	94.75
311.179	103.75
311.409	89.75
311.639	88.75
311.868	100.75
312.098	86.75
312.328	104.75
312.557	102.75
312.787	104.75
313.017	100.75
313.246	95.75
313.476	97.75
313.706	81.75
313.935	104.75
314.165	86.75
314.394	102.75
314.624	94.75
314.853	96.75
315.083	103.75
315.312	91.75
315.542	86.75
315.771	82.75
316.001	91.75
316.23	90.75
316.46	103.75
316.689	91.75
316.919	90.75
317.148	94.75
317.377	88.75
317.607	92.75
317.836	84.75
318.065	87.75
318.295	88.75
318.524	86.75
318.753	85.75
318.983	90.75
319.212	89.75
319.441	102.75
319.67	116.75
319.9	101.75
320.129	90.75
320.358	105.75
320.587	82.75
320.816	95.75
321.046	94.75
321.275	103.75
321.504	90.75
321.733	99.75
321.962	99.75
322.191	91.75
322.42	92.75
322.649	97.75
322.878	98.75
323.108	103.75
323.337	131.75
323.566	132.75
323.795	152.75
324.024	189.75
324.253	388.75
324.482	783.75
324.71	1588.75
324.939	2131.75
325.168	767.75
325.397	232.75
325.626	140.75
325.855	137.75
326.084	103.75
326.313	126.75
326.542	157.75
326.77	228.75
326.999	462.75
327.228	926.75
327.457	1649.75
327.686	1311.75
327.914	379.75
328.143	218.75
328.372	229.75
328.6	177.75
328.829	120.75
329.058	123.75
329.287	132.75
329.515	116.75
329.744	147.75
329.972	194.75
330.201	301.75
330.43	383.75
330.658	226.75
330.887	143.75
331.115	110.75
331.344	96.75
331.572	98.75
331.801	105.75
332.03	109.75
332.258	95.75
332.486	97.75
332.715	82.75
332.943	86.75
333.172	101.75
333.4	98.75
333.629	110.75
333.857	137.75
334.085	186.75
334.314	281.75
334.542	477.75
334.771	455.75
334.999	173.75
335.227	118.75
335.455	83.75
335.684	102.75
335.912	99.75
336.14	82.75
336.369	95.75
336.597	97.75
336.825	78.75
337.053	94.75
337.281	103.75
337.51	97.75
337.738	91.75
337.966	104.75
338.194	99.75
338.422	101.75
338.65	97.75
338.878	82.75
339.106	96.75
339.334	92.75
339.562	97.75
339.79	105.75
340.018	97.75
340.246	92.75
340.474	87.75
340.702	85.75
340.93	89.75
341.158	75.75
341.386	97.75
341.614	93.75
341.842	77.75
342.07	77.75
342.298	92.75
342.526	91.75
342.754	95.75
342.981	89.75
343.209	89.75
343.437	89.75
343.665	84.75
343.893	102.75
344.12	87.75
344.348	99.75
344.576	85.75
344.804	85.75
345.031	96.75
345.259	82.75
345.487	87.75
345.714	80.75
345.942	83.75
346.17	81.75
346.397	83.75
346.625	86.75
346.853	98.75
347.08	109.75
347.308	105.75
347.535	97.75
347.763	102.75
347.99	81.75
348.218	103.75
348.445	91.75
348.673	83.75
348.9	77.75
349.128	96.75
349.355	94.75
349.583	91.75
349.81	90.75
350.037	114.75
350.265	93.75
350.492	88.75
350.72	95.75
350.947	104.75
351.174	120.75
351.402	120.75
351.629	113.75
351.856	101.75
352.083	108.75
352.311	97.75
352.538	118.75
352.765	105.75
352.992	102.75
353.22	113.75
353.447	99.75
353.674	94.75
353.901	97.75
354.128	83.75
354.355	102.75
354.583	94.75
354.81	97.75
355.037	91.75
355.264	90.75
355.491	95.75
355.718	76.75
355.945	87.75
356.172	85.75
356.399	91.75
356.626	101.75
356.853	119.75
357.08	96.75
357.307	96.75
357.534	98.75
357.761	91.75
357.988	109.75
358.215	101.75
358.441	91.75
358.668	94.75
358.895	99.75
359.122	91.75
359.349	75.75
359.576	98.75
359.802	117.75
360.029	107.75
360.256	95.75
360.483	87.75
360.709	82.75
360.936	89.75
361.163	85.75
361.39	82.75
361.616	82.75
361.843	100.75
362.07	95.75
362.296	104.75
362.523	85.75
362.749	86.75
362.976	91.75
363.203	91.75
363.429	87.75
363.656	82.75
363.882	96.75
364.109	84.75
364.335	96.75
364.562	90.75
364.788	99.75
365.015	83.75
365.241	104.75
365.468	101.75
365.694	103.75
365.92	93.75
366.147	94.75
366.373	91.75
366.599	81.75
366.826	96.75
367.052	87.75
367.278	93.75
367.505	102.75
367.731	82.75
367.957	95.75
368.184	79.75
368.41	113.75
368.636	100.75
368.862	102.75
369.089	84.75
369.315	98.75
369.541	92.75
369.767	104.75
369.993	89.75
370.219	91.75
370.445	81.75
370.672	85.75
370.898	74.75
371.124	87.75
371.35	89.75
371.576	87.75
371.802	85.75
372.028	85.75
372.254	84.75
372.48	79.75
372.706	88.75
372.932	87.75
373.158	86.75
373.384	80.75
373.61	92.75
373.835	97.75
374.061	96.75
374.287	82.75
374.513	88.75
374.739	80.75
374.965	88.75
375.191	89.75
375.416	87.75
375.642	94.75
375.868	98.75
376.094	89.75
376.319	100.75
376.545	88.75
376.771	80.75
376.997	91.75
377.222	105.75
377.448	82.75
377.674	96.75
377.899	85.75
378.125	95.75
378.35	78.75
378.576	93.75
378.802	94.75
379.027	90.75
379.253	92.75
379.478	97.75
379.704	98.75
379.929	97.75
380.155	88.75
380.38	94.75
380.606	77.75
380.831	96.75
381.057	88.75
381.282	99.75
381.507	105.75
381.733	96.75
381.958	86.75
382.184	91.75
382.409	107.75
382.634	109.75
382.86	102.75
383.085	99.75
383.31	91.75
383.535	102.75
383.761	96.75
383.986	78.75
384.211	95.75
384.436	97.75
384.662	93.75
384.887	97.75
385.112	109.75
385.337	109.75
385.562	100.75
385.787	108.75
386.013	117.75
386.238	98.75
386.463	105.75
386.688	98.75
386.913	97.75
387.138	110.75
387.363	85.75
387.588	80.75
387.813	104.75
388.038	120.75
388.263	106.75
388.488	111.75
388.713	98.75
388.938	92.75
389.163	94.75
389.387	88.75
389.612	96.75
389.837	86.75
390.062	93.75
390.287	82.75
390.512	86.75
390.736	82.75
390.961	94.75
391.186	96.75
391.411	90.75
391.636	96.75
391.86	91.75
392.085	83.75
392.31	95.75
392.534	85.75
392.759	93.75
392.984	87.75
393.208	70.75
393.433	89.75
393.658	90.75
393.882	92.75
394.107	86.75
394.331	69.75
394.556	67.75
394.78	103.75
395.005	82.75
395.229	81.75
395.454	85.75
395.678	85.75
395.903	84.75
396.127	82.75
396.352	82.75
396.576	87.75
396.801	96.75
397.025	77.75
397.249	79.75
397.474	88.75
397.698	90.75
397.922	99.75
398.147	84.75
398.371	86.75
398.595	97.75
398.82	88.75
399.044	81.75
399.268	80.75
399.492	88.75
399.717	77.75
399.941	84.75
400.165	94.75
400.389	87.75
400.613	85.75
400.837	81.75
401.062	90.75
401.286	83.75
401.51	84.75
401.734	81.75
401.958	89.75
402.182	124.75
402.406	152.75
402.63	111.75
402.854	81.75
403.078	91.75
403.302	90.75
403.526	79.75
403.75	108.75
403.974	73.75
404.198	90.75
404.422	87.75
404.645	98.75
404.869	80.75
405.093	98.75
405.317	105.75
405.541	113.75
405.765	103.75
405.988	120.75
406.212	158.75
406.436	201.75
406.66	140.75
406.883	102.75
407.107	97.75
407.331	95.75
407.555	106.75
407.778	101.75
408.002	99.75
408.226	81.75
408.449	85.75
408.673	103.75
408.896	108.75
409.12	97.75
409.344	103.75
409.567	93.75
409.791	96.75
410.014	93.75
410.238	100.75
410.461	96.75
410.685	95.75
410.908	89.75
411.132	89.75
411.355	98.75
411.578	106.75
411.802	101.75
412.025	104.75
412.249	94.75
412.472	95.75
412.695	101.75
412.919	87.75
413.142	89.75
413.365	73.75
413.589	93.75
413.812	67.75
414.035	94.75
414.258	90.75
414.482	96.75
414.705	94.75
414.928	95.75
415.151	105.75
415.374	105.75
415.597	93.75
415.821	88.75
416.044	85.75
416.267	84.75
416.49	63.75
416.713	93.75
416.936	90.75
417.159	90.75
417.382	77.75
417.605	85.75
417.828	86.75
418.051	90.75
418.274	90.75
418.497	85.75
418.72	97.75
418.943	87.75
419.166	90.75
419.389	79.75
419.611	100.75
419.834	100.75
420.057	97.75
420.28	94.75
420.503	86.75
420.726	95.75
420.948	81.75
421.171	106.75
421.394	94.75
421.617	99.75
421.839	82.75
422.062	90.75
422.285	103.75
422.507	96.75
422.73	109.75
422.953	93.75
423.175	87.75
423.398	102.75
423.621	100.75
423.843	100.75
424.066	85.75
424.288	78.75
424.511	89.75
424.733	87.75
424.956	93.75
425.178	110.75
425.401	106.75
425.623	100.75
425.846	90.75
426.068	111.75
426.291	94.75
426.513	89.75
426.735	102.75
426.958	88.75
427.18	111.75
427.402	134.75
427.625	167.75
427.847	145.75
428.069	152.75
428.292	100.75
428.514	88.75
428.736	90.75
428.958	89.75
429.181	93.75
429.403	88.75
429.625	98.75
429.847	82.75
430.069	106.75
430.292	88.75
430.514	86.75
430.736	84.75
430.958	98.75
431.18	98.75
431.402	89.75
431.624	82.75
431.846	82.75
432.068	93.75
432.29	83.75
432.512	90.75
432.734	89.75
432.956	82.75
433.178	101.75
433.4	104.75
433.622	87.75
433.844	93.75
434.066	96.75
434.287	83.75
434.509	108.75
434.731	99.75
434.953	92.75
435.175	81.75
435.397	96.75
435.618	79.75
435.84	102.75
436.062	108.75
436.284	117.75
436.505	106.75
436.727	81.75
436.949	88.75
437.17	101.75
437.392	88.75
437.614	109.75
437.835	99.75
438.057	118.75
438.278	106.75
438.5	92.75
438.721	122.75
438.943	87.75
439.165	90.75
439.386	82.75
439.608	90.75
439.829	79.75
440.05	109.75
440.272	128.75
440.493	109.75
440.715	82.75
440.936	103.75
441.158	88.75
441.379	76.75
441.6	81.75
441.822	84.75
442.043	88.75
442.264	85.75
442.486	90.75
442.707	102.75
442.928	112.75
443.149	128.75
443.371	121.75
443.592	110.75
443.813	111.75
444.034	110.75
444.255	87.75
444.476	86.75
444.698	93.75
444.919	94.75
445.14	112.75
445.361	123.75
445.582	105.75
445.803	133.75
446.024	126.75
446.245	143.75
446.466	125.75
446.687	107.75
446.908	90.75
447.129	81.75
447.35	93.75
447.571	98.75
447.792	104.75
448.013	117.75
448.234	108.75
448.455	89.75
448.675	111.75
448.896	113.75
449.117	94.75
449.338	99.75
449.559	124.75
449.779	133.75
450	87.75
450.221	92.75
450.442	100.75
450.662	89.75
450.883	87.75
451.104	103.75
451.324	90.75
451.545	75.75
451.766	79.75
451.986	88.75
452.207	95.75
452.428	75.75
452.648	99.75
452.869	117.75
453.089	119.75
453.31	103.75
453.53	90.75
453.751	88.75
453.971	98.75
454.192	111.75
454.412	89.75
454.633	77.75
454.853	96.75
455.073	85.75
455.294	83.75
455.514	78.75
455.734	97.75
455.955	87.75
456.175	79.75
456.395	98.75
456.616	96.75
456.836	89.75
457.056	88.75
457.276	88.75
457.497	87.75
457.717	92.75
457.937	92.75
458.157	86.75
458.377	85.75
458.598	104.75
458.818	141.75
459.038	152.75
459.258	107.75
459.478	91.75
459.698	93.75
459.918	88.75
460.138	86.75
460.358	95.75
460.578	78.75
460.798	85.75
461.018	91.75
461.238	94.75
461.458	87.75
461.678	91.75
461.898	89.75
462.118	88.75
462.338	89.75
462.558	91.75
462.777	89.75
462.997	97.75
463.217	86.75
463.437	94.75
463.657	83.75
463.876	87.75
464.096	88.75
464.316	83.75
464.536	85.75
464.755	83.75
464.975	98.75
465.195	154.75
465.414	158.75
465.634	95.75
465.854	77.75
466.073	79.75
466.293	80.75
466.512	91.75
466.732	84.75
466.951	90.75
467.171	91.75
467.391	106.75
467.61	95.75
467.829	108.75
468.049	190.75
468.268	238.75
468.488	112.75
468.707	97.75
468.927	90.75
469.146	84.75
469.365	90.75
469.585	76.75
469.804	96.75
470.023	100.75
470.243	79.75
470.462	92.75
470.681	95.75
470.901	98.75
471.12	91.75
471.339	74.75
471.558	96.75
471.777	92.75
471.997	140.75
472.216	326.75
472.435	623.75
472.654	197.75
472.873	97.75
473.092	96.75
473.311	97.75
473.53	73.75
473.749	94.75
473.968	102.75
474.187	87.75
474.406	88.75
474.625	79.75
474.844	79.75
475.063	90.75
475.282	76.75
475.501	79.75
475.72	91.75
475.939	85.75
476.158	90.75
476.377	95.75
476.596	86.75
476.814	90.75
477.033	92.75
477.252	91.75
477.471	97.75
477.69	89.75
477.908	105.75
478.127	80.75
478.346	95.75
478.564	97.75
478.783	96.75
479.002	91.75
479.22	96.75
479.439	95.75
479.658	112.75
479.876	105.75
480.095	104.75
480.313	89.75
480.532	101.75
480.751	161.75
480.969	302.75
481.188	1056.75
481.406	716.75
481.624	162.75
481.843	97.75
482.061	88.75
482.28	79.75
482.498	84.75
482.717	78.75
482.935	72.75
483.153	92.75
483.372	85.75
483.59	89.75
483.808	100.75
484.027	99.75
484.245	82.75
484.463	87.75
484.681	98.75
484.9	92.75
485.118	87.75
485.336	93.75
485.554	111.75
485.772	100.75
485.99	99.75
486.209	104.75
486.427	97.75
486.645	106.75
486.863	105.75
487.081	106.75
487.299	97.75
487.517	98.75
487.735	101.75
487.953	97.75
488.171	93.75
488.389	87.75
488.607	96.75
488.825	88.75
489.043	88.75
489.261	88.75
489.479	94.75
489.696	93.75
489.914	80.75
490.132	86.75
490.35	95.75
490.568	87.75
490.786	97.75
491.003	97.75
491.221	102.75
491.439	101.75
491.657	114.75
491.874	90.75
492.092	90.75
492.31	96.75
492.527	90.75
492.745	100.75
492.963	72.75
493.18	87.75
493.398	87.75
493.615	85.75
493.833	93.75
494.05	72.75
494.268	94.75
494.485	98.75
494.703	90.75
494.92	92.75
495.138	81.75
495.355	86.75
495.573	89.75
495.79	81.75
496.008	95.75
496.225	76.75
496.442	91.75
496.66	96.75
496.877	87.75
497.094	91.75
497.312	96.75
497.529	94.75
497.746	97.75
497.963	101.75
498.181	97.75
498.398	102.75
498.615	105.75
498.832	111.75
499.049	106.75
499.267	97.75
499.484	86.75
499.701	90.75
499.918	93.75
500.135	90.75
500.352	80.75
500.569	82.75
500.786	86.75
501.003	83.75
501.22	86.75
501.437	85.75
501.654	95.75
501.871	91.75
502.088	91.75
502.305	98.75
502.522	86.75
502.739	89.75
502.956	86.75
503.172	89.75
503.389	93.75
503.606	91.75
503.823	101.75
504.04	77.75
504.256	85.75
504.473	82.75
504.69	66.75
504.907	88.75
505.123	88.75
505.34	86.75
505.557	95.75
505.773	96.75
505.99	95.75
506.207	98.75
506.423	95.75
506.64	101.75
506.856	92.75
507.073	84.75
507.289	92.75
507.506	95.75
507.722	111.75
507.939	102.75
508.155	100.75
508.372	91.75
508.588	87.75
508.805	96.75
509.021	106.75
509.238	96.75
509.454	85.75
509.67	107.75
509.887	109.75
510.103	113.75
510.319	200.75
510.536	582.75
510.752	1853.75
510.968	559.75
511.184	139.75
511.401	111.75
511.617	102.75
511.833	102.75
512.049	101.75
512.265	93.75
512.481	92.75
512.698	85.75
512.914	101.75
513.13	88.75
513.346	99.75
513.562	82.75
513.778	87.75
513.994	100.75
514.21	91.75
514.426	118.75
514.642	138.75
514.858	113.75
515.074	139.75
515.29	388.75
515.506	1198.75
