Data from Circ_2010_H10_HRD10591_00070.txt Node
Date: Wed Jan 03 10:09:55 EST 2024
User: Yrep
Spectrometer: HR+D1059
Trigger mode: 1
Integration Time (sec): 1.000000E-1
Scans to average: 1
Electric dark correction enabled: true
Nonlinearity correction enabled: false
Boxcar width: 0
XAxis mode: Wavelengths
Number of Pixels in Spectrum: 2048
>>>>>Begin Spectral Data<<<<<
223.165	-8.75
223.4	-8.75
223.635	-8.75
223.869	-26.75
224.104	-11.75
224.338	-6.75
224.573	-12.75
224.808	-10.75
225.042	-8.75
225.277	-22.75
225.511	6.25
225.746	5.25
225.98	11.25
226.215	1.25
226.449	11.25
226.683	12.25
226.918	27.25
227.152	34.25
227.387	18.25
227.621	46.25
227.856	54.25
228.09	50.25
228.324	41.25
228.559	52.25
228.793	44.25
229.027	70.25
229.262	62.25
229.496	66.25
229.73	75.25
229.964	75.25
230.199	69.25
230.433	63.25
230.667	68.25
230.901	77.25
231.136	75.25
231.37	78.25
231.604	66.25
231.838	81.25
232.072	58.25
232.306	70.25
232.541	79.25
232.775	89.25
233.009	86.25
233.243	79.25
233.477	78.25
233.711	89.25
233.945	77.25
234.179	74.25
234.413	75.25
234.647	75.25
234.881	71.25
235.115	76.25
235.349	83.25
235.583	82.25
235.817	80.25
236.051	66.25
236.285	75.25
236.519	79.25
236.753	55.25
236.987	82.25
237.221	82.25
237.455	92.25
237.689	84.25
237.922	68.25
238.156	62.25
238.39	72.25
238.624	81.25
238.858	80.25
239.091	69.25
239.325	69.25
239.559	78.25
239.793	86.25
240.027	65.25
240.26	65.25
240.494	74.25
240.728	82.25
240.961	72.25
241.195	96.25
241.429	81.25
241.662	65.25
241.896	73.25
242.13	62.25
242.363	65.25
242.597	67.25
242.83	74.25
243.064	81.25
243.298	68.25
243.531	92.25
243.765	67.25
243.998	81.25
244.232	75.25
244.465	88.25
244.699	79.25
244.932	72.25
245.166	59.25
245.399	65.25
245.633	73.25
245.866	82.25
246.099	87.25
246.333	81.25
246.566	79.25
246.8	82.25
247.033	73.25
247.266	81.25
247.5	72.25
247.733	84.25
247.966	89.25
248.2	82.25
248.433	65.25
248.666	55.25
248.899	81.25
249.133	86.25
249.366	90.25
249.599	87.25
249.832	75.25
250.066	62.25
250.299	75.25
250.532	82.25
250.765	86.25
250.998	75.25
251.231	85.25
251.465	76.25
251.698	74.25
251.931	78.25
252.164	86.25
252.397	79.25
252.63	65.25
252.863	77.25
253.096	78.25
253.329	65.25
253.562	72.25
253.795	79.25
254.028	83.25
254.261	83.25
254.494	73.25
254.727	83.25
254.96	70.25
255.193	78.25
255.426	87.25
255.659	89.25
255.892	95.25
256.124	79.25
256.357	77.25
256.59	92.25
256.823	75.25
257.056	76.25
257.289	89.25
257.521	85.25
257.754	77.25
257.987	76.25
258.22	75.25
258.452	78.25
258.685	72.25
258.918	66.25
259.151	81.25
259.383	81.25
259.616	76.25
259.849	85.25
260.081	89.25
260.314	83.25
260.547	77.25
260.779	90.25
261.012	81.25
261.244	89.25
261.477	87.25
261.71	90.25
261.942	101.25
262.175	113.25
262.407	86.25
262.64	80.25
262.872	78.25
263.105	82.25
263.337	71.25
263.57	65.25
263.802	82.25
264.035	84.25
264.267	79.25
264.499	77.25
264.732	89.25
264.964	64.25
265.197	70.25
265.429	72.25
265.661	89.25
265.894	85.25
266.126	66.25
266.358	75.25
266.591	90.25
266.823	70.25
267.055	76.25
267.287	85.25
267.52	80.25
267.752	82.25
267.984	86.25
268.216	83.25
268.448	89.25
268.681	82.25
268.913	95.25
269.145	89.25
269.377	75.25
269.609	89.25
269.841	79.25
270.073	92.25
270.306	67.25
270.538	81.25
270.77	62.25
271.002	76.25
271.234	90.25
271.466	78.25
271.698	93.25
271.93	78.25
272.162	86.25
272.394	78.25
272.626	90.25
272.858	81.25
273.09	67.25
273.322	90.25
273.553	85.25
273.785	81.25
274.017	78.25
274.249	70.25
274.481	81.25
274.713	88.25
274.945	76.25
275.176	69.25
275.408	88.25
275.64	80.25
275.872	90.25
276.104	90.25
276.335	79.25
276.567	83.25
276.799	110.25
277.031	93.25
277.262	93.25
277.494	97.25
277.726	94.25
277.957	90.25
278.189	76.25
278.421	75.25
278.652	92.25
278.884	82.25
279.115	74.25
279.347	87.25
279.579	92.25
279.81	78.25
280.042	93.25
280.273	107.25
280.505	102.25
280.736	83.25
280.968	83.25
281.199	91.25
281.431	80.25
281.662	90.25
281.894	92.25
282.125	92.25
282.356	95.25
282.588	127.25
282.819	91.25
283.051	89.25
283.282	85.25
283.513	83.25
283.745	78.25
283.976	76.25
284.207	82.25
284.439	82.25
284.67	92.25
284.901	92.25
285.132	85.25
285.364	90.25
285.595	89.25
285.826	85.25
286.057	83.25
286.288	88.25
286.52	74.25
286.751	77.25
286.982	89.25
287.213	82.25
287.444	94.25
287.675	87.25
287.906	85.25
288.138	82.25
288.369	71.25
288.6	89.25
288.831	66.25
289.062	94.25
289.293	89.25
289.524	83.25
289.755	79.25
289.986	83.25
290.217	88.25
290.448	88.25
290.679	100.25
290.91	67.25
291.141	81.25
291.371	85.25
291.602	78.25
291.833	75.25
292.064	83.25
292.295	85.25
292.526	94.25
292.757	90.25
292.987	70.25
293.218	88.25
293.449	73.25
293.68	107.25
293.91	82.25
294.141	95.25
294.372	89.25
294.603	76.25
294.833	92.25
295.064	83.25
295.295	81.25
295.525	87.25
295.756	106.25
295.987	104.25
296.217	124.25
296.448	109.25
296.679	82.25
296.909	85.25
297.14	78.25
297.37	80.25
297.601	80.25
297.831	93.25
298.062	80.25
298.292	85.25
298.523	94.25
298.753	86.25
298.984	91.25
299.214	90.25
299.445	87.25
299.675	85.25
299.905	76.25
300.136	82.25
300.366	93.25
300.597	84.25
300.827	82.25
301.057	101.25
301.288	102.25
301.518	83.25
301.748	100.25
301.979	94.25
302.209	90.25
302.439	99.25
302.669	83.25
302.9	82.25
303.13	94.25
303.36	101.25
303.59	94.25
303.82	111.25
304.051	101.25
304.281	91.25
304.511	89.25
304.741	87.25
304.971	87.25
305.201	79.25
305.431	80.25
305.661	77.25
305.891	97.25
306.121	96.25
306.352	86.25
306.582	79.25
306.812	92.25
307.042	87.25
307.272	87.25
307.502	104.25
307.731	90.25
307.961	93.25
308.191	86.25
308.421	96.25
308.651	82.25
308.881	95.25
309.111	90.25
309.341	91.25
309.571	102.25
309.8	93.25
310.03	90.25
310.26	90.25
310.49	106.25
310.72	90.25
310.949	85.25
311.179	99.25
311.409	89.25
311.639	106.25
311.868	87.25
312.098	90.25
312.328	89.25
312.557	86.25
312.787	98.25
313.017	86.25
313.246	77.25
313.476	90.25
313.706	87.25
313.935	92.25
314.165	80.25
314.394	97.25
314.624	102.25
314.853	95.25
315.083	99.25
315.312	92.25
315.542	87.25
315.771	90.25
316.001	93.25
316.23	95.25
316.46	96.25
316.689	88.25
316.919	94.25
317.148	103.25
317.377	108.25
317.607	68.25
317.836	92.25
318.065	83.25
318.295	82.25
318.524	81.25
318.753	95.25
318.983	84.25
319.212	97.25
319.441	102.25
319.67	100.25
319.9	83.25
320.129	88.25
320.358	93.25
320.587	90.25
320.816	99.25
321.046	93.25
321.275	100.25
321.504	106.25
321.733	96.25
321.962	93.25
322.191	94.25
322.42	89.25
322.649	104.25
322.878	92.25
323.108	105.25
323.337	107.25
323.566	114.25
323.795	121.25
324.024	179.25
324.253	330.25
324.482	738.25
324.71	1425.25
324.939	1849.25
325.168	698.25
325.397	209.25
325.626	149.25
325.855	106.25
326.084	87.25
326.313	119.25
326.542	124.25
326.77	201.25
326.999	405.25
327.228	826.25
327.457	1467.25
327.686	1177.25
327.914	350.25
328.143	214.25
328.372	208.25
328.6	153.25
328.829	119.25
329.058	104.25
329.287	124.25
329.515	120.25
329.744	121.25
329.972	167.25
330.201	227.25
330.43	310.25
330.658	186.25
330.887	140.25
331.115	107.25
331.344	90.25
331.572	95.25
331.801	100.25
332.03	97.25
332.258	89.25
332.486	93.25
332.715	88.25
332.943	97.25
333.172	95.25
333.4	103.25
333.629	97.25
333.857	119.25
334.085	147.25
334.314	236.25
334.542	364.25
334.771	351.25
334.999	160.25
335.227	105.25
335.455	90.25
335.684	84.25
335.912	104.25
336.14	98.25
336.369	98.25
336.597	92.25
336.825	93.25
337.053	82.25
337.281	94.25
337.51	88.25
337.738	94.25
337.966	85.25
338.194	89.25
338.422	89.25
338.65	84.25
338.878	100.25
339.106	78.25
339.334	94.25
339.562	87.25
339.79	82.25
340.018	89.25
340.246	92.25
340.474	102.25
340.702	92.25
340.93	84.25
341.158	95.25
341.386	97.25
341.614	83.25
341.842	83.25
342.07	86.25
342.298	93.25
342.526	91.25
342.754	79.25
342.981	78.25
343.209	91.25
343.437	100.25
343.665	80.25
343.893	82.25
344.12	91.25
344.348	81.25
344.576	83.25
344.804	80.25
345.031	98.25
345.259	96.25
345.487	94.25
345.714	86.25
345.942	84.25
346.17	83.25
346.397	86.25
346.625	92.25
346.853	80.25
347.08	88.25
347.308	97.25
347.535	96.25
347.763	89.25
347.99	89.25
348.218	102.25
348.445	90.25
348.673	100.25
348.9	82.25
349.128	92.25
349.355	89.25
349.583	94.25
349.81	97.25
350.037	77.25
350.265	87.25
350.492	99.25
350.72	80.25
350.947	94.25
351.174	98.25
351.402	91.25
351.629	78.25
351.856	86.25
352.083	101.25
352.311	110.25
352.538	93.25
352.765	104.25
352.992	96.25
353.22	104.25
353.447	98.25
353.674	95.25
353.901	84.25
354.128	85.25
354.355	87.25
354.583	109.25
354.81	94.25
355.037	97.25
355.264	97.25
355.491	87.25
355.718	72.25
355.945	87.25
356.172	82.25
356.399	94.25
356.626	89.25
356.853	93.25
357.08	93.25
357.307	88.25
357.534	94.25
357.761	80.25
357.988	91.25
358.215	81.25
358.441	90.25
358.668	92.25
358.895	91.25
359.122	86.25
359.349	94.25
359.576	85.25
359.802	89.25
360.029	104.25
360.256	113.25
360.483	97.25
360.709	85.25
360.936	84.25
361.163	93.25
361.39	93.25
361.616	77.25
361.843	107.25
362.07	93.25
362.296	72.25
362.523	82.25
362.749	79.25
362.976	95.25
363.203	88.25
363.429	83.25
363.656	89.25
363.882	77.25
364.109	99.25
364.335	80.25
364.562	100.25
364.788	74.25
365.015	78.25
365.241	85.25
365.468	97.25
365.694	89.25
365.92	88.25
366.147	97.25
366.373	90.25
366.599	85.25
366.826	85.25
367.052	97.25
367.278	90.25
367.505	92.25
367.731	93.25
367.957	98.25
368.184	89.25
368.41	98.25
368.636	86.25
368.862	100.25
369.089	102.25
369.315	78.25
369.541	86.25
369.767	91.25
369.993	92.25
370.219	91.25
370.445	77.25
370.672	73.25
370.898	72.25
371.124	86.25
371.35	92.25
371.576	84.25
371.802	87.25
372.028	87.25
372.254	79.25
372.48	86.25
372.706	87.25
372.932	90.25
373.158	93.25
373.384	94.25
373.61	85.25
373.835	83.25
374.061	99.25
374.287	84.25
374.513	95.25
374.739	81.25
374.965	75.25
375.191	90.25
375.416	89.25
375.642	78.25
375.868	86.25
376.094	82.25
376.319	84.25
376.545	80.25
376.771	86.25
376.997	118.25
377.222	79.25
377.448	85.25
377.674	85.25
377.899	85.25
378.125	90.25
378.35	88.25
378.576	96.25
378.802	85.25
379.027	85.25
379.253	77.25
379.478	86.25
379.704	99.25
379.929	89.25
380.155	89.25
380.38	90.25
380.606	81.25
380.831	94.25
381.057	85.25
381.282	80.25
381.507	81.25
381.733	70.25
381.958	91.25
382.184	81.25
382.409	91.25
382.634	95.25
382.86	101.25
383.085	90.25
383.31	97.25
383.535	99.25
383.761	104.25
383.986	97.25
384.211	101.25
384.436	101.25
384.662	89.25
384.887	99.25
385.112	99.25
385.337	99.25
385.562	89.25
385.787	99.25
386.013	102.25
386.238	116.25
386.463	91.25
386.688	100.25
386.913	91.25
387.138	114.25
387.363	101.25
387.588	114.25
387.813	98.25
388.038	104.25
388.263	114.25
388.488	99.25
388.713	99.25
388.938	99.25
389.163	95.25
389.387	92.25
389.612	96.25
389.837	97.25
390.062	96.25
390.287	85.25
390.512	87.25
390.736	84.25
390.961	95.25
391.186	93.25
391.411	87.25
391.636	91.25
391.86	96.25
392.085	84.25
392.31	80.25
392.534	92.25
392.759	86.25
392.984	86.25
393.208	95.25
393.433	93.25
393.658	100.25
393.882	86.25
394.107	77.25
394.331	76.25
394.556	91.25
394.78	87.25
395.005	80.25
395.229	78.25
395.454	86.25
395.678	82.25
395.903	95.25
396.127	93.25
396.352	85.25
396.576	89.25
396.801	87.25
397.025	93.25
397.249	80.25
397.474	85.25
397.698	78.25
397.922	88.25
398.147	83.25
398.371	81.25
398.595	83.25
398.82	81.25
399.044	84.25
399.268	88.25
399.492	78.25
399.717	89.25
399.941	82.25
400.165	86.25
400.389	90.25
400.613	94.25
400.837	84.25
401.062	81.25
401.286	85.25
401.51	104.25
401.734	88.25
401.958	86.25
402.182	111.25
402.406	132.25
402.63	106.25
402.854	99.25
403.078	86.25
403.302	92.25
403.526	89.25
403.75	89.25
403.974	89.25
404.198	84.25
404.422	100.25
404.645	83.25
404.869	73.25
405.093	92.25
405.317	94.25
405.541	102.25
405.765	102.25
405.988	116.25
406.212	134.25
406.436	183.25
406.66	133.25
406.883	105.25
407.107	89.25
407.331	82.25
407.555	91.25
407.778	87.25
408.002	95.25
408.226	73.25
408.449	82.25
408.673	86.25
408.896	90.25
409.12	97.25
409.344	87.25
409.567	88.25
409.791	86.25
410.014	87.25
410.238	91.25
410.461	81.25
410.685	93.25
410.908	90.25
411.132	102.25
411.355	105.25
411.578	92.25
411.802	88.25
412.025	82.25
412.249	105.25
412.472	92.25
412.695	114.25
412.919	92.25
413.142	84.25
413.365	97.25
413.589	81.25
413.812	86.25
414.035	90.25
414.258	100.25
414.482	89.25
414.705	79.25
414.928	93.25
415.151	104.25
415.374	97.25
415.597	82.25
415.821	90.25
416.044	90.25
416.267	82.25
416.49	97.25
416.713	86.25
416.936	85.25
417.159	91.25
417.382	85.25
417.605	86.25
417.828	79.25
418.051	90.25
418.274	86.25
418.497	75.25
418.72	97.25
418.943	79.25
419.166	86.25
419.389	88.25
419.611	79.25
419.834	79.25
420.057	69.25
420.28	89.25
420.503	101.25
420.726	98.25
420.948	85.25
421.171	89.25
421.394	94.25
421.617	89.25
421.839	89.25
422.062	86.25
422.285	85.25
422.507	103.25
422.73	98.25
422.953	92.25
423.175	79.25
423.398	77.25
423.621	92.25
423.843	89.25
424.066	85.25
424.288	91.25
424.511	106.25
424.733	92.25
424.956	96.25
425.178	94.25
425.401	94.25
425.623	99.25
425.846	84.25
426.068	93.25
426.291	83.25
426.513	93.25
426.735	98.25
426.958	101.25
427.18	99.25
427.402	138.25
427.625	157.25
427.847	139.25
428.069	159.25
428.292	106.25
428.514	81.25
428.736	76.25
428.958	81.25
429.181	79.25
429.403	83.25
429.625	87.25
429.847	79.25
430.069	98.25
430.292	98.25
430.514	69.25
430.736	87.25
430.958	90.25
431.18	92.25
431.402	86.25
431.624	86.25
431.846	95.25
432.068	73.25
432.29	89.25
432.512	72.25
432.734	77.25
432.956	93.25
433.178	108.25
433.4	95.25
433.622	98.25
433.844	83.25
434.066	87.25
434.287	88.25
434.509	80.25
434.731	96.25
434.953	100.25
435.175	105.25
435.397	89.25
435.618	85.25
435.84	101.25
436.062	110.25
436.284	122.25
436.505	108.25
436.727	89.25
436.949	99.25
437.17	92.25
437.392	83.25
437.614	94.25
437.835	104.25
438.057	89.25
438.278	109.25
438.5	84.25
438.721	98.25
438.943	82.25
439.165	85.25
439.386	83.25
439.608	91.25
439.829	99.25
440.05	119.25
440.272	135.25
440.493	94.25
440.715	75.25
440.936	93.25
441.158	91.25
441.379	100.25
441.6	104.25
441.822	93.25
442.043	86.25
442.264	104.25
442.486	103.25
442.707	88.25
442.928	95.25
443.149	117.25
443.371	114.25
443.592	94.25
443.813	114.25
444.034	84.25
444.255	89.25
444.476	89.25
444.698	87.25
444.919	90.25
445.14	126.25
445.361	119.25
445.582	101.25
445.803	104.25
446.024	114.25
446.245	111.25
446.466	110.25
446.687	74.25
446.908	94.25
447.129	71.25
447.35	76.25
447.571	79.25
447.792	81.25
448.013	98.25
448.234	93.25
448.455	92.25
448.675	106.25
448.896	95.25
449.117	99.25
449.338	104.25
449.559	126.25
449.779	131.25
450	98.25
450.221	85.25
450.442	83.25
450.662	93.25
450.883	98.25
451.104	95.25
451.324	88.25
451.545	85.25
451.766	81.25
451.986	94.25
452.207	70.25
452.428	77.25
452.648	102.25
452.869	113.25
453.089	102.25
453.31	104.25
453.53	89.25
453.751	85.25
453.971	107.25
454.192	95.25
454.412	103.25
454.633	80.25
454.853	91.25
455.073	78.25
455.294	86.25
455.514	97.25
455.734	88.25
455.955	86.25
456.175	85.25
456.395	72.25
456.616	91.25
456.836	86.25
457.056	67.25
457.276	72.25
457.497	87.25
457.717	92.25
457.937	88.25
458.157	87.25
458.377	92.25
458.598	106.25
458.818	138.25
459.038	137.25
459.258	107.25
459.478	91.25
459.698	92.25
459.918	84.25
460.138	70.25
460.358	91.25
460.578	78.25
460.798	89.25
461.018	86.25
461.238	94.25
461.458	85.25
461.678	75.25
461.898	90.25
462.118	85.25
462.338	89.25
462.558	72.25
462.777	79.25
462.997	61.25
463.217	91.25
463.437	76.25
463.657	92.25
463.876	93.25
464.096	81.25
464.316	92.25
464.536	76.25
464.755	88.25
464.975	78.25
465.195	122.25
465.414	134.25
465.634	93.25
465.854	84.25
466.073	90.25
466.293	91.25
466.512	84.25
466.732	82.25
466.951	87.25
467.171	87.25
467.391	75.25
467.61	90.25
467.829	102.25
468.049	160.25
468.268	195.25
468.488	98.25
468.707	71.25
468.927	82.25
469.146	84.25
469.365	93.25
469.585	88.25
469.804	81.25
470.023	98.25
470.243	87.25
470.462	92.25
470.681	90.25
470.901	90.25
471.12	90.25
471.339	84.25
471.558	98.25
471.777	95.25
471.997	105.25
472.216	249.25
472.435	450.25
472.654	173.25
472.873	103.25
473.092	78.25
473.311	97.25
473.53	73.25
473.749	97.25
473.968	101.25
474.187	90.25
474.406	90.25
474.625	90.25
474.844	82.25
475.063	86.25
475.282	79.25
475.501	85.25
475.72	91.25
475.939	81.25
476.158	93.25
476.377	82.25
476.596	76.25
476.814	88.25
477.033	90.25
477.252	75.25
477.471	74.25
477.69	85.25
477.908	78.25
478.127	86.25
478.346	83.25
478.564	87.25
478.783	91.25
479.002	103.25
479.22	92.25
479.439	98.25
479.658	101.25
479.876	92.25
480.095	82.25
480.313	93.25
480.532	102.25
480.751	114.25
480.969	250.25
481.188	781.25
481.406	504.25
481.624	137.25
481.843	83.25
482.061	89.25
482.28	78.25
482.498	80.25
482.717	94.25
482.935	93.25
483.153	86.25
483.372	81.25
483.59	80.25
483.808	86.25
484.027	89.25
484.245	85.25
484.463	91.25
484.681	88.25
484.9	93.25
485.118	92.25
485.336	91.25
485.554	82.25
485.772	98.25
485.99	94.25
486.209	86.25
486.427	104.25
486.645	105.25
486.863	107.25
487.081	86.25
487.299	86.25
487.517	94.25
487.735	80.25
487.953	109.25
488.171	88.25
488.389	102.25
488.607	106.25
488.825	91.25
489.043	90.25
489.261	94.25
489.479	93.25
489.696	91.25
489.914	89.25
490.132	87.25
490.35	84.25
490.568	86.25
490.786	89.25
491.003	90.25
491.221	90.25
491.439	88.25
491.657	94.25
491.874	94.25
492.092	96.25
492.31	96.25
492.527	87.25
492.745	99.25
492.963	76.25
493.18	89.25
493.398	86.25
493.615	89.25
493.833	89.25
494.05	78.25
494.268	89.25
494.485	91.25
494.703	83.25
494.92	70.25
495.138	94.25
495.355	84.25
495.573	87.25
495.79	85.25
496.008	84.25
496.225	102.25
496.442	100.25
496.66	103.25
496.877	86.25
497.094	84.25
497.312	88.25
497.529	85.25
497.746	90.25
497.963	91.25
498.181	95.25
498.398	92.25
498.615	99.25
498.832	96.25
499.049	90.25
499.267	84.25
499.484	94.25
499.701	93.25
499.918	86.25
500.135	94.25
500.352	95.25
500.569	67.25
500.786	90.25
501.003	94.25
501.22	82.25
501.437	81.25
501.654	94.25
501.871	97.25
502.088	88.25
502.305	90.25
502.522	86.25
502.739	77.25
502.956	86.25
503.172	91.25
503.389	82.25
503.606	102.25
503.823	78.25
504.04	73.25
504.256	97.25
504.473	87.25
504.69	95.25
504.907	89.25
505.123	88.25
505.34	99.25
505.557	98.25
505.773	99.25
505.99	81.25
506.207	88.25
506.423	95.25
506.64	90.25
506.856	82.25
507.073	103.25
507.289	88.25
507.506	97.25
507.722	99.25
507.939	105.25
508.155	88.25
508.372	88.25
508.588	93.25
508.805	76.25
509.021	97.25
509.238	91.25
509.454	90.25
509.67	90.25
509.887	102.25
510.103	115.25
510.319	164.25
510.536	555.25
510.752	1700.25
510.968	511.25
511.184	129.25
511.401	106.25
511.617	92.25
511.833	75.25
512.049	89.25
512.265	99.25
512.481	83.25
512.698	104.25
512.914	82.25
513.13	93.25
513.346	69.25
513.562	88.25
513.778	98.25
513.994	86.25
514.21	79.25
514.426	108.25
514.642	114.25
514.858	105.25
515.074	136.25
515.29	337.25
515.506	1038.25
515.721	442.25
515.937	140.25
516.153	102.25
516.369	97.25
516.585	81.25
516.801	76.25
517.016	87.25
