Data from Circ_2010_H10_HRD10591_00039.txt Node
Date: Wed Jan 03 10:09:49 EST 2024
User: Yrep
Spectrometer: HR+D1059
Trigger mode: 1
Integration Time (sec): 1.000000E-1
Scans to average: 1
Electric dark correction enabled: true
Nonlinearity correction enabled: false
Boxcar width: 0
XAxis mode: Wavelengths
Number of Pixels in Spectrum: 2048
>>>>>Begin Spectral Data<<<<<
223.165	-21.56
223.4	-21.56
223.635	-21.56
223.869	-30.56
224.104	-8.56
224.338	-21.56
224.573	-6.56
224.808	-7.56
225.042	-9.56
225.277	-2.56
225.511	-1.56
225.746	-2.56
225.98	19.44
226.215	1.44
226.449	3.44
226.683	21.44
226.918	35.44
227.152	31.44
227.387	33.44
227.621	34.44
227.856	43.44
228.09	57.44
228.324	51.44
228.559	47.44
228.793	67.44
229.027	75.44
229.262	46.44
229.496	62.44
229.73	68.44
229.964	74.44
230.199	66.44
230.433	71.44
230.667	74.44
230.901	84.44
231.136	76.44
231.37	80.44
231.604	75.44
231.838	84.44
232.072	78.44
232.306	79.44
232.541	80.44
232.775	75.44
233.009	75.44
233.243	86.44
233.477	81.44
233.711	75.44
233.945	80.44
234.179	86.44
234.413	80.44
234.647	86.44
234.881	79.44
235.115	63.44
235.349	90.44
235.583	67.44
235.817	83.44
236.051	72.44
236.285	77.44
236.519	74.44
236.753	80.44
236.987	78.44
237.221	63.44
237.455	78.44
237.689	84.44
237.922	74.44
238.156	70.44
238.39	75.44
238.624	90.44
238.858	71.44
239.091	64.44
239.325	75.44
239.559	74.44
239.793	67.44
240.027	69.44
240.26	76.44
240.494	87.44
240.728	69.44
240.961	85.44
241.195	77.44
241.429	88.44
241.662	81.44
241.896	88.44
242.13	75.44
242.363	82.44
242.597	82.44
242.83	71.44
243.064	84.44
243.298	70.44
243.531	63.44
243.765	70.44
243.998	59.44
244.232	75.44
244.465	85.44
244.699	73.44
244.932	70.44
245.166	79.44
245.399	56.44
245.633	70.44
245.866	74.44
246.099	92.44
246.333	71.44
246.566	80.44
246.8	77.44
247.033	64.44
247.266	74.44
247.5	73.44
247.733	75.44
247.966	85.44
248.2	90.44
248.433	80.44
248.666	70.44
248.899	87.44
249.133	87.44
249.366	89.44
249.599	87.44
249.832	84.44
250.066	94.44
250.299	79.44
250.532	84.44
250.765	88.44
250.998	90.44
251.231	83.44
251.465	86.44
251.698	86.44
251.931	88.44
252.164	68.44
252.397	86.44
252.63	77.44
252.863	67.44
253.096	82.44
253.329	58.44
253.562	70.44
253.795	89.44
254.028	75.44
254.261	78.44
254.494	87.44
254.727	98.44
254.96	79.44
255.193	86.44
255.426	58.44
255.659	65.44
255.892	79.44
256.124	57.44
256.357	79.44
256.59	81.44
256.823	71.44
257.056	81.44
257.289	71.44
257.521	71.44
257.754	84.44
257.987	71.44
258.22	80.44
258.452	76.44
258.685	86.44
258.918	79.44
259.151	76.44
259.383	67.44
259.616	79.44
259.849	80.44
260.081	65.44
260.314	87.44
260.547	86.44
260.779	84.44
261.012	90.44
261.244	90.44
261.477	95.44
261.71	102.44
261.942	112.44
262.175	106.44
262.407	79.44
262.64	75.44
262.872	77.44
263.105	71.44
263.337	100.44
263.57	79.44
263.802	80.44
264.035	70.44
264.267	96.44
264.499	80.44
264.732	83.44
264.964	68.44
265.197	68.44
265.429	89.44
265.661	97.44
265.894	83.44
266.126	88.44
266.358	83.44
266.591	88.44
266.823	67.44
267.055	79.44
267.287	75.44
267.52	88.44
267.752	83.44
267.984	92.44
268.216	85.44
268.448	74.44
268.681	79.44
268.913	100.44
269.145	77.44
269.377	80.44
269.609	83.44
269.841	81.44
270.073	79.44
270.306	72.44
270.538	86.44
270.77	79.44
271.002	97.44
271.234	88.44
271.466	82.44
271.698	80.44
271.93	67.44
272.162	78.44
272.394	78.44
272.626	79.44
272.858	93.44
273.09	88.44
273.322	91.44
273.553	78.44
273.785	86.44
274.017	76.44
274.249	84.44
274.481	91.44
274.713	77.44
274.945	86.44
275.176	79.44
275.408	92.44
275.64	88.44
275.872	74.44
276.104	83.44
276.335	96.44
276.567	96.44
276.799	100.44
277.031	95.44
277.262	90.44
277.494	73.44
277.726	86.44
277.957	77.44
278.189	94.44
278.421	92.44
278.652	94.44
278.884	84.44
279.115	86.44
279.347	78.44
279.579	82.44
279.81	87.44
280.042	89.44
280.273	96.44
280.505	88.44
280.736	60.44
280.968	94.44
281.199	88.44
281.431	97.44
281.662	79.44
281.894	80.44
282.125	89.44
282.356	100.44
282.588	133.44
282.819	95.44
283.051	85.44
283.282	79.44
283.513	93.44
283.745	79.44
283.976	92.44
284.207	70.44
284.439	86.44
284.67	88.44
284.901	94.44
285.132	77.44
285.364	85.44
285.595	93.44
285.826	90.44
286.057	83.44
286.288	76.44
286.52	86.44
286.751	90.44
286.982	95.44
287.213	90.44
287.444	87.44
287.675	70.44
287.906	76.44
288.138	73.44
288.369	91.44
288.6	77.44
288.831	90.44
289.062	75.44
289.293	81.44
289.524	76.44
289.755	91.44
289.986	80.44
290.217	78.44
290.448	75.44
290.679	98.44
290.91	97.44
291.141	85.44
291.371	79.44
291.602	102.44
291.833	82.44
292.064	88.44
292.295	87.44
292.526	98.44
292.757	96.44
292.987	85.44
293.218	76.44
293.449	82.44
293.68	79.44
293.91	85.44
294.141	93.44
294.372	86.44
294.603	72.44
294.833	86.44
295.064	86.44
295.295	74.44
295.525	78.44
295.756	99.44
295.987	106.44
296.217	114.44
296.448	112.44
296.679	96.44
296.909	99.44
297.14	81.44
297.37	80.44
297.601	90.44
297.831	88.44
298.062	89.44
298.292	83.44
298.523	78.44
298.753	81.44
298.984	79.44
299.214	83.44
299.445	99.44
299.675	79.44
299.905	103.44
300.136	85.44
300.366	103.44
300.597	80.44
300.827	90.44
301.057	90.44
301.288	81.44
301.518	80.44
301.748	79.44
301.979	98.44
302.209	94.44
302.439	87.44
302.669	93.44
302.9	91.44
303.13	98.44
303.36	78.44
303.59	102.44
303.82	90.44
304.051	89.44
304.281	87.44
304.511	89.44
304.741	87.44
304.971	76.44
305.201	80.44
305.431	89.44
305.661	79.44
305.891	91.44
306.121	91.44
306.352	88.44
306.582	96.44
306.812	95.44
307.042	93.44
307.272	87.44
307.502	86.44
307.731	97.44
307.961	92.44
308.191	77.44
308.421	89.44
308.651	100.44
308.881	96.44
309.111	91.44
309.341	92.44
309.571	90.44
309.8	80.44
310.03	84.44
310.26	92.44
310.49	93.44
310.72	84.44
310.949	102.44
311.179	89.44
311.409	86.44
311.639	101.44
311.868	103.44
312.098	91.44
312.328	95.44
312.557	89.44
312.787	83.44
313.017	88.44
313.246	96.44
313.476	95.44
313.706	88.44
313.935	94.44
314.165	87.44
314.394	93.44
314.624	96.44
314.853	99.44
315.083	86.44
315.312	84.44
315.542	106.44
315.771	80.44
316.001	87.44
316.23	94.44
316.46	79.44
316.689	97.44
316.919	90.44
317.148	100.44
317.377	90.44
317.607	78.44
317.836	92.44
318.065	82.44
318.295	96.44
318.524	80.44
318.753	102.44
318.983	98.44
319.212	105.44
319.441	89.44
319.67	83.44
319.9	90.44
320.129	93.44
320.358	90.44
320.587	91.44
320.816	98.44
321.046	96.44
321.275	94.44
321.504	85.44
321.733	81.44
321.962	99.44
322.191	95.44
322.42	98.44
322.649	93.44
322.878	104.44
323.108	97.44
323.337	115.44
323.566	127.44
323.795	135.44
324.024	188.44
324.253	344.44
324.482	674.44
324.71	1386.44
324.939	1796.44
325.168	671.44
325.397	208.44
325.626	145.44
325.855	106.44
326.084	122.44
326.313	134.44
326.542	135.44
326.77	196.44
326.999	386.44
327.228	771.44
327.457	1396.44
327.686	1122.44
327.914	335.44
328.143	176.44
328.372	171.44
328.6	129.44
328.829	128.44
329.058	121.44
329.287	110.44
329.515	103.44
329.744	107.44
329.972	121.44
330.201	163.44
330.43	196.44
330.658	145.44
330.887	124.44
331.115	106.44
331.344	101.44
331.572	102.44
331.801	106.44
332.03	101.44
332.258	103.44
332.486	85.44
332.715	85.44
332.943	99.44
333.172	91.44
333.4	97.44
333.629	102.44
333.857	119.44
334.085	138.44
334.314	166.44
334.542	225.44
334.771	219.44
334.999	134.44
335.227	118.44
335.455	96.44
335.684	98.44
335.912	93.44
336.14	84.44
336.369	88.44
336.597	100.44
336.825	86.44
337.053	96.44
337.281	91.44
337.51	98.44
337.738	92.44
337.966	93.44
338.194	107.44
338.422	85.44
338.65	99.44
338.878	95.44
339.106	81.44
339.334	90.44
339.562	90.44
339.79	91.44
340.018	80.44
340.246	87.44
340.474	89.44
340.702	96.44
340.93	86.44
341.158	70.44
341.386	90.44
341.614	100.44
341.842	85.44
342.07	90.44
342.298	87.44
342.526	83.44
342.754	79.44
342.981	89.44
343.209	87.44
343.437	104.44
343.665	95.44
343.893	85.44
344.12	87.44
344.348	91.44
344.576	82.44
344.804	80.44
345.031	102.44
345.259	93.44
345.487	78.44
345.714	79.44
345.942	99.44
346.17	99.44
346.397	88.44
346.625	80.44
346.853	89.44
347.08	89.44
347.308	103.44
347.535	110.44
347.763	85.44
347.99	93.44
348.218	86.44
348.445	91.44
348.673	99.44
348.9	80.44
349.128	98.44
349.355	89.44
349.583	98.44
349.81	100.44
350.037	103.44
350.265	93.44
350.492	94.44
350.72	83.44
350.947	105.44
351.174	114.44
351.402	115.44
351.629	100.44
351.856	86.44
352.083	102.44
352.311	101.44
352.538	87.44
352.765	91.44
352.992	99.44
353.22	99.44
353.447	99.44
353.674	101.44
353.901	85.44
354.128	85.44
354.355	107.44
354.583	97.44
354.81	85.44
355.037	97.44
355.264	110.44
355.491	84.44
355.718	79.44
355.945	90.44
356.172	102.44
356.399	82.44
356.626	83.44
356.853	91.44
357.08	89.44
357.307	108.44
357.534	84.44
357.761	95.44
357.988	93.44
358.215	93.44
358.441	90.44
358.668	90.44
358.895	89.44
359.122	85.44
359.349	85.44
359.576	99.44
359.802	91.44
360.029	92.44
360.256	89.44
360.483	84.44
360.709	78.44
360.936	98.44
361.163	101.44
361.39	101.44
361.616	83.44
361.843	95.44
362.07	82.44
362.296	89.44
362.523	101.44
362.749	88.44
362.976	91.44
363.203	90.44
363.429	101.44
363.656	82.44
363.882	91.44
364.109	89.44
364.335	80.44
364.562	85.44
364.788	86.44
365.015	91.44
365.241	93.44
365.468	109.44
365.694	92.44
365.92	86.44
366.147	91.44
366.373	99.44
366.599	93.44
366.826	89.44
367.052	100.44
367.278	97.44
367.505	90.44
367.731	95.44
367.957	99.44
368.184	87.44
368.41	103.44
368.636	104.44
368.862	116.44
369.089	82.44
369.315	105.44
369.541	73.44
369.767	91.44
369.993	78.44
370.219	100.44
370.445	84.44
370.672	80.44
370.898	77.44
371.124	98.44
371.35	78.44
371.576	79.44
371.802	89.44
372.028	86.44
372.254	75.44
372.48	65.44
372.706	93.44
372.932	80.44
373.158	90.44
373.384	73.44
373.61	91.44
373.835	85.44
374.061	75.44
374.287	94.44
374.513	85.44
374.739	77.44
374.965	75.44
375.191	85.44
375.416	77.44
375.642	84.44
375.868	90.44
376.094	101.44
376.319	102.44
376.545	82.44
376.771	82.44
376.997	83.44
377.222	93.44
377.448	91.44
377.674	94.44
377.899	90.44
378.125	84.44
378.35	94.44
378.576	86.44
378.802	93.44
379.027	84.44
379.253	86.44
379.478	90.44
379.704	77.44
379.929	100.44
380.155	95.44
380.38	92.44
380.606	89.44
380.831	100.44
381.057	93.44
381.282	102.44
381.507	96.44
381.733	71.44
381.958	93.44
382.184	85.44
382.409	93.44
382.634	94.44
382.86	100.44
383.085	87.44
383.31	94.44
383.535	92.44
383.761	110.44
383.986	101.44
384.211	63.44
384.436	96.44
384.662	111.44
384.887	103.44
385.112	98.44
385.337	101.44
385.562	111.44
385.787	91.44
386.013	101.44
386.238	108.44
386.463	119.44
386.688	114.44
386.913	100.44
387.138	102.44
387.363	103.44
387.588	90.44
387.813	95.44
388.038	92.44
388.263	98.44
388.488	110.44
388.713	93.44
388.938	98.44
389.163	98.44
389.387	70.44
389.612	94.44
389.837	94.44
390.062	96.44
390.287	91.44
390.512	96.44
390.736	87.44
390.961	100.44
391.186	88.44
391.411	75.44
391.636	87.44
391.86	75.44
392.085	91.44
392.31	88.44
392.534	81.44
392.759	95.44
392.984	87.44
393.208	92.44
393.433	88.44
393.658	97.44
393.882	98.44
394.107	92.44
394.331	98.44
394.556	87.44
394.78	98.44
395.005	88.44
395.229	104.44
395.454	92.44
395.678	94.44
395.903	100.44
396.127	91.44
396.352	89.44
396.576	88.44
396.801	93.44
397.025	81.44
397.249	88.44
397.474	96.44
397.698	75.44
397.922	87.44
398.147	95.44
398.371	89.44
398.595	95.44
398.82	81.44
399.044	79.44
399.268	87.44
399.492	99.44
399.717	81.44
399.941	92.44
400.165	92.44
400.389	84.44
400.613	87.44
400.837	82.44
401.062	86.44
401.286	94.44
401.51	97.44
401.734	99.44
401.958	106.44
402.182	120.44
402.406	132.44
402.63	107.44
402.854	72.44
403.078	82.44
403.302	95.44
403.526	77.44
403.75	75.44
403.974	83.44
404.198	96.44
404.422	70.44
404.645	82.44
404.869	91.44
405.093	101.44
405.317	100.44
405.541	98.44
405.765	85.44
405.988	103.44
406.212	144.44
406.436	186.44
406.66	133.44
406.883	101.44
407.107	79.44
407.331	87.44
407.555	91.44
407.778	92.44
408.002	83.44
408.226	86.44
408.449	88.44
408.673	77.44
408.896	95.44
409.12	91.44
409.344	91.44
409.567	102.44
409.791	75.44
410.014	90.44
410.238	85.44
410.461	98.44
410.685	101.44
410.908	95.44
411.132	88.44
411.355	94.44
411.578	80.44
411.802	87.44
412.025	90.44
412.249	74.44
412.472	91.44
412.695	95.44
412.919	89.44
413.142	90.44
413.365	69.44
413.589	85.44
413.812	92.44
414.035	89.44
414.258	96.44
414.482	86.44
414.705	77.44
414.928	108.44
415.151	102.44
415.374	102.44
415.597	104.44
415.821	99.44
416.044	95.44
416.267	80.44
416.49	89.44
416.713	79.44
416.936	91.44
417.159	92.44
417.382	93.44
417.605	91.44
417.828	86.44
418.051	89.44
418.274	88.44
418.497	81.44
418.72	86.44
418.943	87.44
419.166	80.44
419.389	90.44
419.611	93.44
419.834	91.44
420.057	106.44
420.28	79.44
420.503	82.44
420.726	76.44
420.948	90.44
421.171	94.44
421.394	96.44
421.617	83.44
421.839	80.44
422.062	91.44
422.285	91.44
422.507	101.44
422.73	104.44
422.953	97.44
423.175	98.44
423.398	99.44
423.621	88.44
423.843	86.44
424.066	78.44
424.288	84.44
424.511	94.44
424.733	85.44
424.956	92.44
425.178	103.44
425.401	100.44
425.623	84.44
425.846	83.44
426.068	89.44
426.291	81.44
426.513	100.44
426.735	83.44
426.958	95.44
427.18	94.44
427.402	110.44
427.625	151.44
427.847	114.44
428.069	127.44
428.292	88.44
428.514	90.44
428.736	96.44
428.958	88.44
429.181	92.44
429.403	89.44
429.625	92.44
429.847	76.44
430.069	92.44
430.292	90.44
430.514	84.44
430.736	77.44
430.958	92.44
431.18	73.44
431.402	87.44
431.624	71.44
431.846	90.44
432.068	87.44
432.29	106.44
432.512	74.44
432.734	77.44
432.956	87.44
433.178	84.44
433.4	97.44
433.622	90.44
433.844	93.44
434.066	89.44
434.287	85.44
434.509	77.44
434.731	92.44
434.953	86.44
435.175	78.44
435.397	92.44
435.618	88.44
435.84	93.44
436.062	105.44
436.284	97.44
436.505	110.44
436.727	101.44
436.949	97.44
437.17	71.44
437.392	84.44
437.614	80.44
437.835	95.44
438.057	99.44
438.278	103.44
438.5	91.44
438.721	89.44
438.943	91.44
439.165	100.44
439.386	71.44
439.608	102.44
439.829	93.44
440.05	117.44
440.272	125.44
440.493	87.44
440.715	92.44
440.936	97.44
441.158	92.44
441.379	88.44
441.6	85.44
441.822	91.44
442.043	98.44
442.264	106.44
442.486	95.44
442.707	97.44
442.928	96.44
443.149	120.44
443.371	126.44
443.592	119.44
443.813	111.44
444.034	109.44
444.255	99.44
444.476	93.44
444.698	95.44
444.919	99.44
445.14	138.44
445.361	121.44
445.582	110.44
445.803	121.44
446.024	114.44
446.245	115.44
446.466	101.44
446.687	66.44
446.908	95.44
447.129	86.44
447.35	77.44
447.571	101.44
447.792	80.44
448.013	96.44
448.234	104.44
448.455	95.44
448.675	106.44
448.896	114.44
449.117	104.44
449.338	91.44
449.559	119.44
449.779	122.44
450	84.44
450.221	91.44
450.442	81.44
450.662	93.44
450.883	106.44
451.104	103.44
451.324	83.44
451.545	86.44
451.766	95.44
451.986	90.44
452.207	81.44
452.428	84.44
452.648	94.44
452.869	95.44
453.089	114.44
453.31	106.44
453.53	96.44
453.751	94.44
453.971	106.44
454.192	86.44
454.412	95.44
454.633	92.44
454.853	87.44
455.073	91.44
455.294	98.44
455.514	93.44
455.734	75.44
455.955	75.44
456.175	91.44
456.395	87.44
456.616	83.44
456.836	79.44
457.056	94.44
457.276	76.44
457.497	83.44
457.717	85.44
457.937	86.44
458.157	84.44
458.377	93.44
458.598	101.44
458.818	146.44
459.038	148.44
459.258	101.44
459.478	98.44
459.698	74.44
459.918	92.44
460.138	78.44
460.358	72.44
460.578	85.44
460.798	91.44
461.018	71.44
461.238	88.44
461.458	83.44
461.678	81.44
461.898	94.44
462.118	85.44
462.338	95.44
462.558	93.44
462.777	89.44
462.997	80.44
463.217	90.44
463.437	93.44
463.657	87.44
463.876	74.44
464.096	108.44
464.316	89.44
464.536	88.44
464.755	102.44
464.975	95.44
465.195	148.44
465.414	140.44
465.634	87.44
465.854	83.44
466.073	87.44
466.293	90.44
466.512	85.44
466.732	77.44
466.951	88.44
467.171	90.44
467.391	80.44
467.61	118.44
467.829	86.44
468.049	127.44
468.268	154.44
468.488	103.44
468.707	94.44
468.927	94.44
469.146	100.44
469.365	90.44
469.585	101.44
469.804	77.44
470.023	77.44
470.243	93.44
470.462	90.44
470.681	90.44
470.901	84.44
471.12	90.44
471.339	92.44
471.558	94.44
471.777	94.44
471.997	111.44
472.216	170.44
472.435	295.44
472.654	122.44
472.873	82.44
473.092	95.44
473.311	78.44
473.53	91.44
473.749	98.44
473.968	103.44
474.187	111.44
474.406	100.44
474.625	89.44
474.844	88.44
475.063	89.44
475.282	80.44
475.501	87.44
475.72	86.44
475.939	83.44
476.158	83.44
476.377	91.44
476.596	96.44
476.814	72.44
477.033	92.44
477.252	88.44
477.471	91.44
477.69	80.44
477.908	91.44
478.127	93.44
478.346	91.44
478.564	93.44
478.783	90.44
479.002	78.44
479.22	99.44
479.439	104.44
479.658	115.44
479.876	111.44
480.095	94.44
480.313	85.44
480.532	102.44
480.751	111.44
480.969	194.44
481.188	466.44
481.406	309.44
481.624	108.44
481.843	87.44
482.061	94.44
482.28	96.44
482.498	84.44
482.717	92.44
482.935	84.44
483.153	78.44
483.372	100.44
483.59	84.44
483.808	88.44
484.027	92.44
484.245	89.44
484.463	86.44
484.681	98.44
484.9	100.44
485.118	95.44
485.336	94.44
485.554	89.44
485.772	102.44
485.99	106.44
486.209	98.44
486.427	100.44
486.645	102.44
486.863	103.44
487.081	94.44
487.299	88.44
487.517	110.44
487.735	86.44
487.953	93.44
488.171	80.44
488.389	119.44
488.607	96.44
488.825	95.44
489.043	100.44
489.261	105.44
489.479	83.44
489.696	87.44
489.914	97.44
490.132	76.44
490.35	86.44
490.568	88.44
490.786	77.44
491.003	87.44
491.221	89.44
491.439	89.44
491.657	91.44
491.874	101.44
492.092	84.44
492.31	91.44
492.527	79.44
492.745	94.44
492.963	94.44
493.18	104.44
493.398	97.44
493.615	93.44
493.833	79.44
494.05	77.44
494.268	92.44
494.485	99.44
494.703	97.44
494.92	98.44
495.138	88.44
495.355	94.44
495.573	89.44
495.79	79.44
496.008	81.44
496.225	98.44
496.442	92.44
496.66	88.44
496.877	89.44
497.094	92.44
497.312	100.44
497.529	90.44
497.746	90.44
497.963	92.44
498.181	87.44
498.398	89.44
498.615	104.44
498.832	102.44
499.049	85.44
499.267	99.44
499.484	86.44
499.701	90.44
499.918	101.44
500.135	80.44
500.352	92.44
500.569	103.44
500.786	104.44
501.003	87.44
501.22	75.44
501.437	96.44
501.654	92.44
501.871	96.44
502.088	89.44
502.305	84.44
502.522	81.44
502.739	87.44
502.956	90.44
503.172	82.44
503.389	95.44
503.606	103.44
503.823	100.44
504.04	74.44
504.256	88.44
504.473	85.44
504.69	93.44
504.907	94.44
505.123	90.44
505.34	82.44
505.557	79.44
505.773	82.44
505.99	89.44
506.207	98.44
506.423	89.44
506.64	81.44
506.856	86.44
507.073	96.44
507.289	75.44
507.506	92.44
507.722	110.44
507.939	106.44
508.155	102.44
508.372	94.44
508.588	93.44
508.805	102.44
509.021	95.44
509.238	87.44
509.454	100.44
509.67	100.44
509.887	112.44
510.103	119.44
510.319	178.44
510.536	629.44
510.752	1908.44
510.968	570.44
511.184	148.44
511.401	109.44
511.617	98.44
511.833	89.44
512.049	92.44
512.265	84.44
512.481	92.44
512.698	97.44
512.914	96.44
513.13	80.44
513.346	93.44
513.562	84.44
513.778	100.44
513.994	91.44
514.21	102.44
514.426	117.44
514.642	117.44
514.858	119.44
515.074	138.44
515.29	354.44
515.506	1170.44
515.721	466.44
515.937	122.44
516.153	107.44
516.369	96.44
