Data from Circ_2010_H10_HRD10591_00048.txt Node
Date: Wed Jan 03 10:09:50 EST 2024
User: Yrep
Spectrometer: HR+D1059
Trigger mode: 1
Integration Time (sec): 1.000000E-1
Scans to average: 1
Electric dark correction enabled: true
Nonlinearity correction enabled: false
Boxcar width: 0
XAxis mode: Wavelengths
Number of Pixels in Spectrum: 2048
>>>>>Begin Spectral Data<<<<<
223.165	-12.19
223.4	-12.19
223.635	-12.19
223.869	-32.19
224.104	-24.19
224.338	-13.19
224.573	-13.19
224.808	-1.19
225.042	-8.19
225.277	-6.19
225.511	2.81
225.746	1.81
225.98	-9.19
226.215	6.81
226.449	25.81
226.683	9.81
226.918	29.81
227.152	42.81
227.387	27.81
227.621	33.81
227.856	40.81
228.09	45.81
228.324	47.81
228.559	60.81
228.793	47.81
229.027	55.81
229.262	70.81
229.496	77.81
229.73	66.81
229.964	68.81
230.199	69.81
230.433	74.81
230.667	72.81
230.901	66.81
231.136	92.81
231.37	83.81
231.604	83.81
231.838	91.81
232.072	73.81
232.306	79.81
232.541	76.81
232.775	83.81
233.009	78.81
233.243	82.81
233.477	83.81
233.711	85.81
233.945	93.81
234.179	68.81
234.413	79.81
234.647	83.81
234.881	76.81
235.115	82.81
235.349	94.81
235.583	85.81
235.817	77.81
236.051	90.81
236.285	66.81
236.519	71.81
236.753	79.81
236.987	80.81
237.221	69.81
237.455	100.81
237.689	76.81
237.922	78.81
238.156	65.81
238.39	63.81
238.624	85.81
238.858	93.81
239.091	72.81
239.325	90.81
239.559	88.81
239.793	75.81
240.027	87.81
240.26	84.81
240.494	80.81
240.728	65.81
240.961	80.81
241.195	76.81
241.429	66.81
241.662	104.81
241.896	66.81
242.13	73.81
242.363	86.81
242.597	81.81
242.83	82.81
243.064	80.81
243.298	75.81
243.531	82.81
243.765	79.81
243.998	83.81
244.232	82.81
244.465	80.81
244.699	89.81
244.932	71.81
245.166	77.81
245.399	75.81
245.633	76.81
245.866	77.81
246.099	88.81
246.333	73.81
246.566	69.81
246.8	84.81
247.033	69.81
247.266	77.81
247.5	87.81
247.733	80.81
247.966	69.81
248.2	82.81
248.433	75.81
248.666	77.81
248.899	83.81
249.133	85.81
249.366	97.81
249.599	94.81
249.832	73.81
250.066	76.81
250.299	77.81
250.532	74.81
250.765	91.81
250.998	84.81
251.231	65.81
251.465	87.81
251.698	86.81
251.931	82.81
252.164	87.81
252.397	80.81
252.63	85.81
252.863	99.81
253.096	78.81
253.329	89.81
253.562	81.81
253.795	97.81
254.028	85.81
254.261	87.81
254.494	66.81
254.727	77.81
254.96	88.81
255.193	84.81
255.426	81.81
255.659	81.81
255.892	107.81
256.124	73.81
256.357	75.81
256.59	76.81
256.823	95.81
257.056	91.81
257.289	97.81
257.521	86.81
257.754	82.81
257.987	90.81
258.22	86.81
258.452	87.81
258.685	89.81
258.918	98.81
259.151	77.81
259.383	89.81
259.616	75.81
259.849	80.81
260.081	93.81
260.314	98.81
260.547	84.81
260.779	78.81
261.012	80.81
261.244	72.81
261.477	87.81
261.71	104.81
261.942	109.81
262.175	105.81
262.407	84.81
262.64	72.81
262.872	76.81
263.105	80.81
263.337	90.81
263.57	77.81
263.802	87.81
264.035	92.81
264.267	93.81
264.499	83.81
264.732	74.81
264.964	94.81
265.197	83.81
265.429	99.81
265.661	84.81
265.894	85.81
266.126	85.81
266.358	79.81
266.591	96.81
266.823	90.81
267.055	79.81
267.287	78.81
267.52	74.81
267.752	74.81
267.984	88.81
268.216	91.81
268.448	78.81
268.681	78.81
268.913	78.81
269.145	102.81
269.377	87.81
269.609	75.81
269.841	76.81
270.073	95.81
270.306	93.81
270.538	82.81
270.77	90.81
271.002	90.81
271.234	93.81
271.466	77.81
271.698	93.81
271.93	81.81
272.162	75.81
272.394	83.81
272.626	91.81
272.858	92.81
273.09	83.81
273.322	85.81
273.553	81.81
273.785	78.81
274.017	74.81
274.249	86.81
274.481	79.81
274.713	91.81
274.945	87.81
275.176	71.81
275.408	90.81
275.64	76.81
275.872	91.81
276.104	88.81
276.335	92.81
276.567	103.81
276.799	108.81
277.031	98.81
277.262	87.81
277.494	90.81
277.726	105.81
277.957	94.81
278.189	85.81
278.421	98.81
278.652	95.81
278.884	79.81
279.115	95.81
279.347	101.81
279.579	93.81
279.81	95.81
280.042	101.81
280.273	88.81
280.505	84.81
280.736	99.81
280.968	100.81
281.199	103.81
281.431	97.81
281.662	81.81
281.894	82.81
282.125	90.81
282.356	103.81
282.588	120.81
282.819	111.81
283.051	87.81
283.282	77.81
283.513	83.81
283.745	80.81
283.976	89.81
284.207	83.81
284.439	91.81
284.67	94.81
284.901	94.81
285.132	85.81
285.364	96.81
285.595	102.81
285.826	86.81
286.057	86.81
286.288	80.81
286.52	103.81
286.751	88.81
286.982	76.81
287.213	94.81
287.444	88.81
287.675	84.81
287.906	98.81
288.138	91.81
288.369	89.81
288.6	96.81
288.831	87.81
289.062	105.81
289.293	90.81
289.524	97.81
289.755	102.81
289.986	77.81
290.217	79.81
290.448	81.81
290.679	105.81
290.91	88.81
291.141	74.81
291.371	91.81
291.602	80.81
291.833	84.81
292.064	101.81
292.295	90.81
292.526	90.81
292.757	82.81
292.987	91.81
293.218	92.81
293.449	93.81
293.68	86.81
293.91	87.81
294.141	97.81
294.372	90.81
294.603	84.81
294.833	90.81
295.064	90.81
295.295	95.81
295.525	86.81
295.756	96.81
295.987	109.81
296.217	122.81
296.448	95.81
296.679	92.81
296.909	94.81
297.14	96.81
297.37	98.81
297.601	89.81
297.831	94.81
298.062	86.81
298.292	93.81
298.523	101.81
298.753	87.81
298.984	94.81
299.214	93.81
299.445	88.81
299.675	102.81
299.905	100.81
300.136	96.81
300.366	81.81
300.597	94.81
300.827	95.81
301.057	93.81
301.288	104.81
301.518	94.81
301.748	94.81
301.979	102.81
302.209	101.81
302.439	92.81
302.669	79.81
302.9	90.81
303.13	97.81
303.36	92.81
303.59	96.81
303.82	90.81
304.051	89.81
304.281	99.81
304.511	106.81
304.741	90.81
304.971	87.81
305.201	79.81
305.431	84.81
305.661	100.81
305.891	87.81
306.121	101.81
306.352	102.81
306.582	102.81
306.812	93.81
307.042	83.81
307.272	96.81
307.502	101.81
307.731	105.81
307.961	96.81
308.191	81.81
308.421	92.81
308.651	113.81
308.881	84.81
309.111	93.81
309.341	102.81
309.571	98.81
309.8	89.81
310.03	87.81
310.26	102.81
310.49	93.81
310.72	97.81
310.949	105.81
311.179	103.81
311.409	106.81
311.639	103.81
311.868	106.81
312.098	82.81
312.328	83.81
312.557	84.81
312.787	105.81
313.017	78.81
313.246	96.81
313.476	94.81
313.706	96.81
313.935	94.81
314.165	105.81
314.394	104.81
314.624	98.81
314.853	82.81
315.083	86.81
315.312	107.81
315.542	87.81
315.771	96.81
316.001	82.81
316.23	88.81
316.46	85.81
316.689	93.81
316.919	83.81
317.148	97.81
317.377	103.81
317.607	117.81
317.836	95.81
318.065	96.81
318.295	89.81
318.524	89.81
318.753	97.81
318.983	105.81
319.212	102.81
319.441	97.81
319.67	97.81
319.9	92.81
320.129	75.81
320.358	94.81
320.587	99.81
320.816	100.81
321.046	100.81
321.275	90.81
321.504	90.81
321.733	94.81
321.962	97.81
322.191	92.81
322.42	101.81
322.649	102.81
322.878	113.81
323.108	112.81
323.337	103.81
323.566	120.81
323.795	147.81
324.024	185.81
324.253	339.81
324.482	704.81
324.71	1447.81
324.939	1897.81
325.168	721.81
325.397	229.81
325.626	159.81
325.855	136.81
326.084	122.81
326.313	137.81
326.542	158.81
326.77	225.81
326.999	430.81
327.228	854.81
327.457	1536.81
327.686	1211.81
327.914	343.81
328.143	196.81
328.372	179.81
328.6	128.81
328.829	113.81
329.058	119.81
329.287	127.81
329.515	100.81
329.744	116.81
329.972	154.81
330.201	199.81
330.43	237.81
330.658	165.81
330.887	133.81
331.115	128.81
331.344	90.81
331.572	104.81
331.801	105.81
332.03	102.81
332.258	101.81
332.486	106.81
332.715	97.81
332.943	97.81
333.172	102.81
333.4	95.81
333.629	107.81
333.857	133.81
334.085	157.81
334.314	222.81
334.542	337.81
334.771	299.81
334.999	143.81
335.227	103.81
335.455	100.81
335.684	104.81
335.912	108.81
336.14	110.81
336.369	106.81
336.597	91.81
336.825	98.81
337.053	89.81
337.281	103.81
337.51	85.81
337.738	87.81
337.966	101.81
338.194	89.81
338.422	97.81
338.65	97.81
338.878	97.81
339.106	92.81
339.334	95.81
339.562	74.81
339.79	80.81
340.018	92.81
340.246	85.81
340.474	104.81
340.702	90.81
340.93	100.81
341.158	91.81
341.386	100.81
341.614	98.81
341.842	85.81
342.07	85.81
342.298	93.81
342.526	91.81
342.754	86.81
342.981	90.81
343.209	91.81
343.437	100.81
343.665	95.81
343.893	88.81
344.12	86.81
344.348	86.81
344.576	90.81
344.804	87.81
345.031	106.81
345.259	95.81
345.487	78.81
345.714	107.81
345.942	102.81
346.17	97.81
346.397	101.81
346.625	99.81
346.853	82.81
347.08	109.81
347.308	97.81
347.535	91.81
347.763	94.81
347.99	83.81
348.218	107.81
348.445	107.81
348.673	98.81
348.9	93.81
349.128	101.81
349.355	99.81
349.583	98.81
349.81	97.81
350.037	102.81
350.265	88.81
350.492	107.81
350.72	90.81
350.947	99.81
351.174	97.81
351.402	104.81
351.629	104.81
351.856	110.81
352.083	95.81
352.311	107.81
352.538	100.81
352.765	103.81
352.992	109.81
353.22	119.81
353.447	112.81
353.674	98.81
353.901	96.81
354.128	92.81
354.355	104.81
354.583	108.81
354.81	98.81
355.037	89.81
355.264	96.81
355.491	105.81
355.718	95.81
355.945	106.81
356.172	92.81
356.399	97.81
356.626	88.81
356.853	88.81
357.08	89.81
357.307	96.81
357.534	98.81
357.761	88.81
357.988	112.81
358.215	93.81
358.441	101.81
358.668	94.81
358.895	101.81
359.122	86.81
359.349	81.81
359.576	91.81
359.802	85.81
360.029	114.81
360.256	97.81
360.483	98.81
360.709	86.81
360.936	94.81
361.163	101.81
361.39	97.81
361.616	101.81
361.843	95.81
362.07	98.81
362.296	95.81
362.523	103.81
362.749	97.81
362.976	90.81
363.203	93.81
363.429	87.81
363.656	121.81
363.882	95.81
364.109	95.81
364.335	91.81
364.562	95.81
364.788	86.81
365.015	90.81
365.241	92.81
365.468	110.81
365.694	99.81
365.92	97.81
366.147	82.81
366.373	72.81
366.599	85.81
366.826	86.81
367.052	83.81
367.278	89.81
367.505	81.81
367.731	89.81
367.957	91.81
368.184	70.81
368.41	107.81
368.636	97.81
368.862	114.81
369.089	104.81
369.315	113.81
369.541	82.81
369.767	88.81
369.993	97.81
370.219	94.81
370.445	98.81
370.672	91.81
370.898	87.81
371.124	89.81
371.35	76.81
371.576	85.81
371.802	104.81
372.028	81.81
372.254	90.81
372.48	97.81
372.706	77.81
372.932	96.81
373.158	76.81
373.384	106.81
373.61	111.81
373.835	98.81
374.061	96.81
374.287	88.81
374.513	96.81
374.739	82.81
374.965	95.81
375.191	78.81
375.416	102.81
375.642	89.81
375.868	97.81
376.094	98.81
376.319	89.81
376.545	91.81
376.771	94.81
376.997	81.81
377.222	93.81
377.448	97.81
377.674	96.81
377.899	105.81
378.125	94.81
378.35	83.81
378.576	99.81
378.802	97.81
379.027	88.81
379.253	75.81
379.478	85.81
379.704	97.81
379.929	92.81
380.155	98.81
380.38	99.81
380.606	89.81
380.831	101.81
381.057	86.81
381.282	92.81
381.507	91.81
381.733	107.81
381.958	90.81
382.184	107.81
382.409	94.81
382.634	98.81
382.86	92.81
383.085	95.81
383.31	98.81
383.535	90.81
383.761	109.81
383.986	89.81
384.211	96.81
384.436	85.81
384.662	96.81
384.887	85.81
385.112	114.81
385.337	93.81
385.562	101.81
385.787	100.81
386.013	112.81
386.238	106.81
386.463	125.81
386.688	117.81
386.913	99.81
387.138	101.81
387.363	110.81
387.588	100.81
387.813	95.81
388.038	108.81
388.263	118.81
388.488	94.81
388.713	103.81
388.938	92.81
389.163	100.81
389.387	108.81
389.612	87.81
389.837	99.81
390.062	97.81
390.287	73.81
390.512	91.81
390.736	97.81
390.961	95.81
391.186	87.81
391.411	90.81
391.636	93.81
391.86	83.81
392.085	82.81
392.31	93.81
392.534	90.81
392.759	88.81
392.984	88.81
393.208	88.81
393.433	101.81
393.658	95.81
393.882	82.81
394.107	80.81
394.331	85.81
394.556	87.81
394.78	96.81
395.005	97.81
395.229	67.81
395.454	82.81
395.678	90.81
395.903	91.81
396.127	88.81
396.352	75.81
396.576	85.81
396.801	92.81
397.025	88.81
397.249	99.81
397.474	92.81
397.698	104.81
397.922	96.81
398.147	83.81
398.371	84.81
398.595	88.81
398.82	94.81
399.044	87.81
399.268	110.81
399.492	81.81
399.717	83.81
399.941	89.81
400.165	80.81
400.389	96.81
400.613	87.81
400.837	78.81
401.062	94.81
401.286	87.81
401.51	88.81
401.734	96.81
401.958	118.81
402.182	116.81
402.406	147.81
402.63	123.81
402.854	90.81
403.078	87.81
403.302	92.81
403.526	89.81
403.75	93.81
403.974	96.81
404.198	85.81
404.422	91.81
404.645	83.81
404.869	97.81
405.093	93.81
405.317	118.81
405.541	105.81
405.765	106.81
405.988	112.81
406.212	156.81
406.436	185.81
406.66	132.81
406.883	97.81
407.107	95.81
407.331	96.81
407.555	97.81
407.778	92.81
408.002	81.81
408.226	74.81
408.449	91.81
408.673	86.81
408.896	90.81
409.12	97.81
409.344	89.81
409.567	86.81
409.791	89.81
410.014	105.81
410.238	99.81
410.461	87.81
410.685	106.81
410.908	114.81
411.132	98.81
411.355	88.81
411.578	114.81
411.802	83.81
412.025	103.81
412.249	90.81
412.472	106.81
412.695	110.81
412.919	101.81
413.142	97.81
413.365	92.81
413.589	85.81
413.812	90.81
414.035	99.81
414.258	101.81
414.482	107.81
414.705	95.81
414.928	93.81
415.151	98.81
415.374	105.81
415.597	91.81
415.821	92.81
416.044	93.81
416.267	90.81
416.49	86.81
416.713	83.81
416.936	84.81
417.159	85.81
417.382	72.81
417.605	89.81
417.828	94.81
418.051	104.81
418.274	91.81
418.497	96.81
418.72	91.81
418.943	93.81
419.166	88.81
419.389	89.81
419.611	92.81
419.834	83.81
420.057	101.81
420.28	82.81
420.503	82.81
420.726	85.81
420.948	94.81
421.171	103.81
421.394	97.81
421.617	94.81
421.839	94.81
422.062	84.81
422.285	101.81
422.507	104.81
422.73	107.81
422.953	91.81
423.175	96.81
423.398	80.81
423.621	84.81
423.843	90.81
424.066	90.81
424.288	96.81
424.511	86.81
424.733	94.81
424.956	104.81
425.178	95.81
425.401	106.81
425.623	93.81
425.846	80.81
426.068	91.81
426.291	96.81
426.513	94.81
426.735	86.81
426.958	88.81
427.18	110.81
427.402	146.81
427.625	168.81
427.847	153.81
428.069	126.81
428.292	110.81
428.514	88.81
428.736	87.81
428.958	83.81
429.181	98.81
429.403	91.81
429.625	87.81
429.847	98.81
430.069	109.81
430.292	102.81
430.514	87.81
430.736	98.81
430.958	85.81
431.18	81.81
431.402	83.81
431.624	96.81
431.846	88.81
432.068	95.81
432.29	87.81
432.512	89.81
432.734	89.81
432.956	93.81
433.178	89.81
433.4	104.81
433.622	90.81
433.844	90.81
434.066	102.81
434.287	92.81
434.509	90.81
434.731	87.81
434.953	79.81
435.175	76.81
435.397	90.81
435.618	87.81
435.84	97.81
436.062	117.81
436.284	110.81
436.505	93.81
436.727	90.81
436.949	99.81
437.17	91.81
437.392	83.81
437.614	99.81
437.835	95.81
438.057	110.81
438.278	121.81
438.5	97.81
438.721	129.81
438.943	95.81
439.165	84.81
439.386	89.81
439.608	99.81
439.829	101.81
440.05	112.81
440.272	140.81
440.493	95.81
440.715	87.81
440.936	87.81
441.158	92.81
441.379	104.81
441.6	98.81
441.822	98.81
442.043	103.81
442.264	97.81
442.486	95.81
442.707	93.81
442.928	105.81
443.149	108.81
443.371	115.81
443.592	105.81
443.813	113.81
444.034	105.81
444.255	89.81
444.476	82.81
444.698	69.81
444.919	97.81
445.14	133.81
445.361	98.81
445.582	106.81
445.803	131.81
446.024	133.81
446.245	117.81
446.466	100.81
446.687	88.81
446.908	88.81
447.129	81.81
447.35	77.81
447.571	95.81
447.792	94.81
448.013	95.81
448.234	92.81
448.455	86.81
448.675	107.81
448.896	112.81
449.117	101.81
449.338	89.81
449.559	112.81
449.779	135.81
450	110.81
450.221	87.81
450.442	98.81
450.662	90.81
450.883	97.81
451.104	102.81
451.324	103.81
451.545	88.81
451.766	87.81
451.986	89.81
452.207	91.81
452.428	88.81
452.648	86.81
452.869	103.81
453.089	109.81
453.31	108.81
453.53	94.81
453.751	85.81
453.971	100.81
454.192	105.81
454.412	83.81
454.633	86.81
454.853	94.81
455.073	83.81
455.294	87.81
455.514	101.81
455.734	90.81
455.955	88.81
456.175	78.81
456.395	87.81
456.616	82.81
456.836	90.81
457.056	83.81
457.276	78.81
457.497	78.81
457.717	76.81
457.937	91.81
458.157	89.81
458.377	82.81
458.598	103.81
458.818	120.81
459.038	141.81
459.258	106.81
459.478	95.81
459.698	84.81
459.918	89.81
460.138	90.81
460.358	85.81
460.578	81.81
460.798	92.81
461.018	88.81
461.238	96.81
461.458	84.81
461.678	67.81
461.898	92.81
462.118	88.81
462.338	102.81
462.558	85.81
462.777	90.81
462.997	98.81
463.217	93.81
463.437	89.81
463.657	84.81
463.876	94.81
464.096	90.81
464.316	86.81
464.536	73.81
464.755	91.81
464.975	98.81
465.195	146.81
465.414	136.81
465.634	93.81
465.854	88.81
466.073	97.81
466.293	83.81
466.512	91.81
466.732	83.81
466.951	86.81
467.171	104.81
467.391	91.81
467.61	101.81
467.829	108.81
468.049	149.81
468.268	165.81
468.488	108.81
468.707	93.81
468.927	79.81
469.146	80.81
469.365	88.81
469.585	94.81
469.804	90.81
470.023	97.81
470.243	100.81
470.462	83.81
470.681	105.81
470.901	104.81
471.12	92.81
471.339	90.81
471.558	100.81
471.777	104.81
471.997	129.81
472.216	226.81
472.435	405.81
472.654	141.81
472.873	92.81
473.092	81.81
473.311	80.81
473.53	84.81
473.749	94.81
473.968	94.81
474.187	94.81
474.406	88.81
474.625	87.81
474.844	93.81
475.063	86.81
475.282	88.81
475.501	83.81
475.72	78.81
475.939	79.81
476.158	68.81
476.377	82.81
476.596	85.81
476.814	70.81
477.033	98.81
477.252	71.81
477.471	79.81
477.69	81.81
477.908	82.81
478.127	88.81
478.346	94.81
478.564	83.81
478.783	93.81
479.002	107.81
479.22	109.81
479.439	109.81
479.658	101.81
479.876	88.81
480.095	94.81
480.313	86.81
480.532	105.81
480.751	110.81
480.969	241.81
481.188	666.81
481.406	416.81
481.624	132.81
481.843	81.81
482.061	89.81
482.28	82.81
482.498	81.81
482.717	103.81
482.935	97.81
483.153	97.81
483.372	81.81
483.59	98.81
483.808	83.81
484.027	95.81
484.245	94.81
484.463	90.81
484.681	98.81
484.9	96.81
485.118	89.81
485.336	91.81
485.554	86.81
485.772	109.81
485.99	98.81
486.209	93.81
486.427	90.81
486.645	101.81
486.863	102.81
487.081	104.81
487.299	87.81
487.517	91.81
487.735	97.81
487.953	96.81
488.171	108.81
488.389	93.81
488.607	94.81
488.825	103.81
489.043	83.81
489.261	95.81
489.479	85.81
489.696	85.81
489.914	105.81
490.132	82.81
490.35	104.81
490.568	83.81
490.786	93.81
491.003	90.81
491.221	85.81
491.439	94.81
491.657	89.81
491.874	98.81
492.092	83.81
492.31	99.81
492.527	108.81
492.745	93.81
492.963	99.81
493.18	77.81
493.398	81.81
493.615	101.81
493.833	93.81
494.05	95.81
494.268	98.81
494.485	104.81
494.703	98.81
494.92	90.81
495.138	80.81
495.355	98.81
495.573	98.81
495.79	96.81
496.008	94.81
496.225	98.81
496.442	111.81
496.66	104.81
496.877	98.81
497.094	109.81
497.312	74.81
497.529	95.81
497.746	97.81
497.963	91.81
498.181	83.81
498.398	86.81
498.615	94.81
498.832	101.81
499.049	81.81
499.267	108.81
499.484	87.81
499.701	93.81
499.918	87.81
500.135	104.81
500.352	99.81
500.569	94.81
500.786	96.81
501.003	91.81
501.22	97.81
501.437	95.81
501.654	98.81
501.871	100.81
502.088	93.81
502.305	93.81
502.522	85.81
502.739	94.81
502.956	89.81
503.172	105.81
503.389	90.81
503.606	103.81
503.823	80.81
504.04	87.81
504.256	83.81
504.473	101.81
504.69	75.81
504.907	91.81
505.123	80.81
505.34	83.81
505.557	93.81
505.773	102.81
505.99	87.81
506.207	91.81
506.423	79.81
506.64	95.81
506.856	93.81
507.073	81.81
507.289	93.81
507.506	97.81
507.722	109.81
507.939	108.81
508.155	93.81
508.372	94.81
508.588	95.81
508.805	95.81
509.021	94.81
509.238	92.81
509.454	102.81
509.67	90.81
509.887	117.81
510.103	124.81
510.319	164.81
510.536	549.81
510.752	1709.81
510.968	523.81
511.184	140.81
511.401	100.81
511.617	108.81
511.833	87.81
512.049	87.81
512.265	99.81
512.481	81.81
512.698	88.81
512.914	103.81
513.13	96.81
513.346	81.81
513.562	95.81
513.778	77.81
513.994	89.81
514.21	91.81
514.426	105.81
514.642	131.81
514.858	122.81
515.074	162.81
515.29	333.81
