Data from Circ_2010_H10_HRD10591_00031.txt Node
Date: Wed Jan 03 10:09:47 EST 2024
User: Yrep
Spectrometer: HR+D1059
Trigger mode: 1
Integration Time (sec): 1.000000E-1
Scans to average: 1
Electric dark correction enabled: true
Nonlinearity correction enabled: false
Boxcar width: 0
XAxis mode: Wavelengths
Number of Pixels in Spectrum: 2048
>>>>>Begin Spectral Data<<<<<
223.165	-29.62
223.4	-29.62
223.635	-29.62
223.869	-2.62
224.104	-26.62
224.338	-14.62
224.573	-12.62
224.808	-23.62
225.042	-8.62
225.277	-4.62
225.511	7.38
225.746	3.38
225.98	3.38
226.215	13.38
226.449	15.38
226.683	24.38
226.918	18.38
227.152	37.38
227.387	30.38
227.621	48.38
227.856	47.38
228.09	48.38
228.324	62.38
228.559	54.38
228.793	60.38
229.027	59.38
229.262	74.38
229.496	68.38
229.73	73.38
229.964	77.38
230.199	81.38
230.433	80.38
230.667	80.38
230.901	72.38
231.136	70.38
231.37	70.38
231.604	78.38
231.838	79.38
232.072	85.38
232.306	76.38
232.541	85.38
232.775	85.38
233.009	63.38
233.243	86.38
233.477	83.38
233.711	76.38
233.945	83.38
234.179	87.38
234.413	78.38
234.647	89.38
234.881	86.38
235.115	78.38
235.349	89.38
235.583	67.38
235.817	75.38
236.051	75.38
236.285	65.38
236.519	90.38
236.753	78.38
236.987	87.38
237.221	83.38
237.455	89.38
237.689	79.38
237.922	75.38
238.156	77.38
238.39	82.38
238.624	79.38
238.858	71.38
239.091	82.38
239.325	71.38
239.559	84.38
239.793	66.38
240.027	83.38
240.26	81.38
240.494	76.38
240.728	88.38
240.961	80.38
241.195	70.38
241.429	80.38
241.662	106.38
241.896	71.38
242.13	67.38
242.363	70.38
242.597	71.38
242.83	72.38
243.064	68.38
243.298	80.38
243.531	74.38
243.765	79.38
243.998	84.38
244.232	77.38
244.465	80.38
244.699	84.38
244.932	61.38
245.166	79.38
245.399	86.38
245.633	69.38
245.866	83.38
246.099	80.38
246.333	80.38
246.566	77.38
246.8	87.38
247.033	80.38
247.266	79.38
247.5	83.38
247.733	77.38
247.966	71.38
248.2	70.38
248.433	71.38
248.666	71.38
248.899	87.38
249.133	86.38
249.366	97.38
249.599	102.38
249.832	76.38
250.066	74.38
250.299	91.38
250.532	83.38
250.765	74.38
250.998	77.38
251.231	79.38
251.465	78.38
251.698	75.38
251.931	79.38
252.164	79.38
252.397	83.38
252.63	73.38
252.863	78.38
253.096	89.38
253.329	89.38
253.562	68.38
253.795	84.38
254.028	85.38
254.261	73.38
254.494	76.38
254.727	80.38
254.96	92.38
255.193	95.38
255.426	87.38
255.659	91.38
255.892	89.38
256.124	74.38
256.357	74.38
256.59	86.38
256.823	75.38
257.056	72.38
257.289	72.38
257.521	84.38
257.754	80.38
257.987	70.38
258.22	88.38
258.452	73.38
258.685	82.38
258.918	83.38
259.151	86.38
259.383	88.38
259.616	80.38
259.849	71.38
260.081	75.38
260.314	78.38
260.547	80.38
260.779	79.38
261.012	78.38
261.244	78.38
261.477	82.38
261.71	79.38
261.942	93.38
262.175	102.38
262.407	91.38
262.64	83.38
262.872	89.38
263.105	69.38
263.337	82.38
263.57	78.38
263.802	85.38
264.035	81.38
264.267	74.38
264.499	84.38
264.732	85.38
264.964	87.38
265.197	75.38
265.429	87.38
265.661	90.38
265.894	83.38
266.126	100.38
266.358	69.38
266.591	86.38
266.823	82.38
267.055	75.38
267.287	84.38
267.52	82.38
267.752	91.38
267.984	85.38
268.216	89.38
268.448	86.38
268.681	89.38
268.913	90.38
269.145	88.38
269.377	84.38
269.609	95.38
269.841	103.38
270.073	80.38
270.306	86.38
270.538	78.38
270.77	73.38
271.002	83.38
271.234	82.38
271.466	85.38
271.698	83.38
271.93	83.38
272.162	86.38
272.394	94.38
272.626	93.38
272.858	88.38
273.09	83.38
273.322	91.38
273.553	89.38
273.785	79.38
274.017	100.38
274.249	78.38
274.481	79.38
274.713	87.38
274.945	83.38
275.176	84.38
275.408	93.38
275.64	89.38
275.872	74.38
276.104	89.38
276.335	93.38
276.567	83.38
276.799	103.38
277.031	100.38
277.262	97.38
277.494	87.38
277.726	79.38
277.957	85.38
278.189	88.38
278.421	83.38
278.652	91.38
278.884	103.38
279.115	83.38
279.347	93.38
279.579	74.38
279.81	104.38
280.042	97.38
280.273	92.38
280.505	91.38
280.736	98.38
280.968	85.38
281.199	82.38
281.431	86.38
281.662	81.38
281.894	97.38
282.125	93.38
282.356	95.38
282.588	131.38
282.819	106.38
283.051	83.38
283.282	80.38
283.513	85.38
283.745	79.38
283.976	92.38
284.207	89.38
284.439	94.38
284.67	95.38
284.901	82.38
285.132	88.38
285.364	107.38
285.595	91.38
285.826	85.38
286.057	89.38
286.288	96.38
286.52	84.38
286.751	85.38
286.982	97.38
287.213	91.38
287.444	86.38
287.675	84.38
287.906	79.38
288.138	91.38
288.369	96.38
288.6	93.38
288.831	91.38
289.062	85.38
289.293	85.38
289.524	92.38
289.755	80.38
289.986	89.38
290.217	79.38
290.448	91.38
290.679	76.38
290.91	88.38
291.141	84.38
291.371	76.38
291.602	82.38
291.833	87.38
292.064	90.38
292.295	85.38
292.526	84.38
292.757	93.38
292.987	90.38
293.218	82.38
293.449	88.38
293.68	82.38
293.91	85.38
294.141	87.38
294.372	81.38
294.603	98.38
294.833	90.38
295.064	90.38
295.295	86.38
295.525	93.38
295.756	85.38
295.987	117.38
296.217	111.38
296.448	107.38
296.679	87.38
296.909	75.38
297.14	84.38
297.37	96.38
297.601	85.38
297.831	80.38
298.062	96.38
298.292	79.38
298.523	88.38
298.753	83.38
298.984	88.38
299.214	79.38
299.445	76.38
299.675	105.38
299.905	96.38
300.136	91.38
300.366	72.38
300.597	82.38
300.827	99.38
301.057	96.38
301.288	78.38
301.518	105.38
301.748	84.38
301.979	99.38
302.209	93.38
302.439	96.38
302.669	82.38
302.9	87.38
303.13	85.38
303.36	90.38
303.59	100.38
303.82	110.38
304.051	83.38
304.281	95.38
304.511	87.38
304.741	87.38
304.971	92.38
305.201	101.38
305.431	94.38
305.661	91.38
305.891	89.38
306.121	88.38
306.352	87.38
306.582	81.38
306.812	100.38
307.042	94.38
307.272	92.38
307.502	95.38
307.731	104.38
307.961	99.38
308.191	88.38
308.421	89.38
308.651	86.38
308.881	93.38
309.111	105.38
309.341	102.38
309.571	102.38
309.8	81.38
310.03	91.38
310.26	94.38
310.49	95.38
310.72	92.38
310.949	99.38
311.179	109.38
311.409	103.38
311.639	91.38
311.868	80.38
312.098	103.38
312.328	94.38
312.557	93.38
312.787	93.38
313.017	102.38
313.246	94.38
313.476	92.38
313.706	102.38
313.935	100.38
314.165	101.38
314.394	101.38
314.624	95.38
314.853	86.38
315.083	100.38
315.312	87.38
315.542	84.38
315.771	92.38
316.001	77.38
316.23	104.38
316.46	100.38
316.689	84.38
316.919	93.38
317.148	104.38
317.377	96.38
317.607	103.38
317.836	101.38
318.065	95.38
318.295	96.38
318.524	93.38
318.753	100.38
318.983	85.38
319.212	94.38
319.441	98.38
319.67	96.38
319.9	93.38
320.129	92.38
320.358	86.38
320.587	100.38
320.816	105.38
321.046	97.38
321.275	104.38
321.504	81.38
321.733	83.38
321.962	103.38
322.191	108.38
322.42	99.38
322.649	107.38
322.878	103.38
323.108	96.38
323.337	124.38
323.566	104.38
323.795	125.38
324.024	176.38
324.253	312.38
324.482	653.38
324.71	1295.38
324.939	1701.38
325.168	638.38
325.397	219.38
325.626	140.38
325.855	107.38
326.084	115.38
326.313	128.38
326.542	154.38
326.77	192.38
326.999	384.38
327.228	773.38
327.457	1373.38
327.686	1088.38
327.914	311.38
328.143	185.38
328.372	165.38
328.6	105.38
328.829	113.38
329.058	129.38
329.287	111.38
329.515	120.38
329.744	116.38
329.972	121.38
330.201	146.38
330.43	189.38
330.658	129.38
330.887	123.38
331.115	120.38
331.344	99.38
331.572	100.38
331.801	86.38
332.03	94.38
332.258	93.38
332.486	89.38
332.715	99.38
332.943	93.38
333.172	100.38
333.4	102.38
333.629	89.38
333.857	103.38
334.085	131.38
334.314	161.38
334.542	202.38
334.771	207.38
334.999	129.38
335.227	83.38
335.455	85.38
335.684	94.38
335.912	101.38
336.14	89.38
336.369	112.38
336.597	92.38
336.825	95.38
337.053	96.38
337.281	89.38
337.51	95.38
337.738	90.38
337.966	94.38
338.194	104.38
338.422	82.38
338.65	94.38
338.878	85.38
339.106	88.38
339.334	81.38
339.562	98.38
339.79	88.38
340.018	100.38
340.246	100.38
340.474	86.38
340.702	88.38
340.93	86.38
341.158	93.38
341.386	84.38
341.614	100.38
341.842	95.38
342.07	95.38
342.298	103.38
342.526	87.38
342.754	90.38
342.981	94.38
343.209	89.38
343.437	94.38
343.665	91.38
343.893	86.38
344.12	87.38
344.348	112.38
344.576	78.38
344.804	91.38
345.031	90.38
345.259	103.38
345.487	98.38
345.714	88.38
345.942	99.38
346.17	93.38
346.397	86.38
346.625	101.38
346.853	92.38
347.08	85.38
347.308	100.38
347.535	97.38
347.763	89.38
347.99	89.38
348.218	105.38
348.445	96.38
348.673	103.38
348.9	95.38
349.128	87.38
349.355	111.38
349.583	84.38
349.81	90.38
350.037	100.38
350.265	97.38
350.492	102.38
350.72	105.38
350.947	84.38
351.174	102.38
351.402	102.38
351.629	96.38
351.856	104.38
352.083	107.38
352.311	88.38
352.538	118.38
352.765	99.38
352.992	111.38
353.22	111.38
353.447	102.38
353.674	97.38
353.901	96.38
354.128	100.38
354.355	108.38
354.583	95.38
354.81	99.38
355.037	107.38
355.264	93.38
355.491	75.38
355.718	96.38
355.945	102.38
356.172	87.38
356.399	95.38
356.626	91.38
356.853	118.38
357.08	90.38
357.307	92.38
357.534	76.38
357.761	73.38
357.988	105.38
358.215	93.38
358.441	92.38
358.668	95.38
358.895	92.38
359.122	94.38
359.349	95.38
359.576	101.38
359.802	93.38
360.029	99.38
360.256	107.38
360.483	100.38
360.709	84.38
360.936	109.38
361.163	103.38
361.39	90.38
361.616	95.38
361.843	98.38
362.07	101.38
362.296	102.38
362.523	80.38
362.749	96.38
362.976	65.38
363.203	80.38
363.429	74.38
363.656	97.38
363.882	94.38
364.109	87.38
364.335	90.38
364.562	90.38
364.788	85.38
365.015	78.38
365.241	93.38
365.468	107.38
365.694	92.38
365.92	96.38
366.147	94.38
366.373	100.38
366.599	94.38
366.826	90.38
367.052	88.38
367.278	96.38
367.505	96.38
367.731	89.38
367.957	97.38
368.184	84.38
368.41	86.38
368.636	95.38
368.862	116.38
369.089	105.38
369.315	95.38
369.541	88.38
369.767	81.38
369.993	93.38
370.219	92.38
370.445	78.38
370.672	79.38
370.898	79.38
371.124	88.38
371.35	85.38
371.576	77.38
371.802	87.38
372.028	106.38
372.254	89.38
372.48	88.38
372.706	84.38
372.932	87.38
373.158	88.38
373.384	91.38
373.61	102.38
373.835	94.38
374.061	81.38
374.287	90.38
374.513	83.38
374.739	91.38
374.965	87.38
375.191	87.38
375.416	85.38
375.642	99.38
375.868	81.38
376.094	87.38
376.319	100.38
376.545	84.38
376.771	86.38
376.997	87.38
377.222	105.38
377.448	96.38
377.674	88.38
377.899	89.38
378.125	78.38
378.35	107.38
378.576	81.38
378.802	87.38
379.027	91.38
379.253	89.38
379.478	102.38
379.704	87.38
379.929	94.38
380.155	105.38
380.38	103.38
380.606	93.38
380.831	83.38
381.057	85.38
381.282	94.38
381.507	107.38
381.733	81.38
381.958	94.38
382.184	94.38
382.409	82.38
382.634	90.38
382.86	99.38
383.085	83.38
383.31	106.38
383.535	92.38
383.761	105.38
383.986	98.38
384.211	97.38
384.436	97.38
384.662	98.38
384.887	102.38
385.112	109.38
385.337	109.38
385.562	90.38
385.787	97.38
386.013	110.38
386.238	109.38
386.463	102.38
386.688	118.38
386.913	94.38
387.138	93.38
387.363	101.38
387.588	102.38
387.813	101.38
388.038	116.38
388.263	120.38
388.488	109.38
388.713	101.38
388.938	103.38
389.163	95.38
389.387	104.38
389.612	90.38
389.837	85.38
390.062	90.38
390.287	87.38
390.512	95.38
390.736	93.38
390.961	99.38
391.186	87.38
391.411	96.38
391.636	86.38
391.86	72.38
392.085	78.38
392.31	92.38
392.534	86.38
392.759	79.38
392.984	85.38
393.208	104.38
393.433	96.38
393.658	101.38
393.882	85.38
394.107	78.38
394.331	79.38
394.556	89.38
394.78	93.38
395.005	79.38
395.229	88.38
395.454	89.38
395.678	91.38
395.903	89.38
396.127	85.38
396.352	94.38
396.576	91.38
396.801	104.38
397.025	93.38
397.249	103.38
397.474	92.38
397.698	96.38
397.922	90.38
398.147	88.38
398.371	91.38
398.595	76.38
398.82	70.38
399.044	73.38
399.268	84.38
399.492	75.38
399.717	79.38
399.941	92.38
400.165	91.38
400.389	90.38
400.613	74.38
400.837	91.38
401.062	94.38
401.286	84.38
401.51	87.38
401.734	79.38
401.958	99.38
402.182	116.38
402.406	131.38
402.63	99.38
402.854	100.38
403.078	88.38
403.302	94.38
403.526	84.38
403.75	77.38
403.974	76.38
404.198	83.38
404.422	96.38
404.645	82.38
404.869	92.38
405.093	91.38
405.317	95.38
405.541	101.38
405.765	98.38
405.988	112.38
406.212	149.38
406.436	161.38
406.66	119.38
406.883	91.38
407.107	95.38
407.331	81.38
407.555	80.38
407.778	93.38
408.002	87.38
408.226	95.38
408.449	76.38
408.673	80.38
408.896	93.38
409.12	86.38
409.344	93.38
409.567	97.38
409.791	92.38
410.014	92.38
410.238	115.38
410.461	91.38
410.685	88.38
410.908	77.38
411.132	101.38
411.355	83.38
411.578	104.38
411.802	87.38
412.025	79.38
412.249	79.38
412.472	92.38
412.695	98.38
412.919	101.38
413.142	87.38
413.365	91.38
413.589	92.38
413.812	75.38
414.035	101.38
414.258	91.38
414.482	81.38
414.705	74.38
414.928	82.38
415.151	89.38
415.374	97.38
415.597	81.38
415.821	104.38
416.044	91.38
416.267	81.38
416.49	97.38
416.713	87.38
416.936	72.38
417.159	95.38
417.382	79.38
417.605	96.38
417.828	91.38
418.051	100.38
418.274	82.38
418.497	95.38
418.72	89.38
418.943	89.38
419.166	92.38
419.389	98.38
419.611	97.38
419.834	75.38
420.057	75.38
420.28	93.38
420.503	85.38
420.726	87.38
420.948	77.38
421.171	93.38
421.394	88.38
421.617	90.38
421.839	98.38
422.062	99.38
422.285	90.38
422.507	108.38
422.73	96.38
422.953	105.38
423.175	101.38
423.398	95.38
423.621	83.38
423.843	75.38
424.066	87.38
424.288	94.38
424.511	89.38
424.733	85.38
424.956	96.38
425.178	108.38
425.401	102.38
425.623	89.38
425.846	92.38
426.068	104.38
426.291	78.38
426.513	69.38
426.735	88.38
426.958	89.38
427.18	95.38
427.402	117.38
427.625	159.38
427.847	135.38
428.069	107.38
428.292	92.38
428.514	91.38
428.736	79.38
428.958	90.38
429.181	84.38
429.403	90.38
429.625	90.38
429.847	78.38
430.069	86.38
430.292	99.38
430.514	69.38
430.736	85.38
430.958	92.38
431.18	81.38
431.402	76.38
431.624	77.38
431.846	75.38
432.068	76.38
432.29	90.38
432.512	83.38
432.734	110.38
432.956	91.38
433.178	80.38
433.4	110.38
433.622	90.38
433.844	83.38
434.066	87.38
434.287	102.38
434.509	94.38
434.731	92.38
434.953	86.38
435.175	88.38
435.397	83.38
435.618	112.38
435.84	99.38
436.062	111.38
436.284	106.38
436.505	87.38
436.727	89.38
436.949	91.38
437.17	89.38
437.392	91.38
437.614	94.38
437.835	103.38
438.057	109.38
438.278	104.38
438.5	115.38
438.721	129.38
438.943	78.38
439.165	93.38
439.386	83.38
439.608	94.38
439.829	87.38
440.05	90.38
440.272	115.38
440.493	85.38
440.715	81.38
440.936	90.38
441.158	106.38
441.379	73.38
441.6	88.38
441.822	83.38
442.043	68.38
442.264	85.38
442.486	97.38
442.707	81.38
442.928	99.38
443.149	115.38
443.371	108.38
443.592	94.38
443.813	112.38
444.034	93.38
444.255	87.38
444.476	78.38
444.698	85.38
444.919	85.38
445.14	115.38
445.361	125.38
445.582	117.38
445.803	123.38
446.024	127.38
446.245	128.38
446.466	100.38
446.687	87.38
446.908	90.38
447.129	93.38
447.35	72.38
447.571	84.38
447.792	83.38
448.013	100.38
448.234	98.38
448.455	100.38
448.675	117.38
448.896	94.38
449.117	78.38
449.338	104.38
449.559	109.38
449.779	115.38
450	97.38
450.221	94.38
450.442	91.38
450.662	96.38
450.883	94.38
451.104	101.38
451.324	92.38
451.545	78.38
451.766	82.38
451.986	97.38
452.207	68.38
452.428	109.38
452.648	96.38
452.869	97.38
453.089	86.38
453.31	107.38
453.53	85.38
453.751	90.38
453.971	90.38
454.192	93.38
454.412	87.38
454.633	86.38
454.853	76.38
455.073	79.38
455.294	82.38
455.514	97.38
455.734	75.38
455.955	93.38
456.175	87.38
456.395	86.38
456.616	61.38
456.836	77.38
457.056	78.38
457.276	90.38
457.497	85.38
457.717	85.38
457.937	76.38
458.157	69.38
458.377	89.38
458.598	88.38
458.818	129.38
459.038	121.38
459.258	101.38
459.478	79.38
459.698	84.38
459.918	95.38
460.138	91.38
460.358	78.38
460.578	78.38
460.798	84.38
461.018	77.38
461.238	88.38
461.458	89.38
461.678	81.38
461.898	85.38
462.118	86.38
462.338	89.38
462.558	72.38
462.777	75.38
462.997	77.38
463.217	105.38
463.437	82.38
463.657	79.38
463.876	91.38
464.096	97.38
464.316	89.38
464.536	91.38
464.755	85.38
464.975	94.38
465.195	121.38
465.414	141.38
465.634	112.38
465.854	80.38
466.073	96.38
466.293	92.38
466.512	78.38
466.732	91.38
466.951	78.38
467.171	89.38
467.391	96.38
467.61	97.38
467.829	93.38
468.049	118.38
468.268	120.38
468.488	97.38
468.707	90.38
468.927	83.38
469.146	90.38
469.365	96.38
469.585	91.38
469.804	84.38
470.023	98.38
470.243	95.38
470.462	95.38
470.681	89.38
470.901	82.38
471.12	87.38
471.339	86.38
471.558	79.38
471.777	82.38
471.997	98.38
472.216	180.38
472.435	281.38
472.654	133.38
472.873	78.38
473.092	79.38
473.311	100.38
473.53	79.38
473.749	69.38
473.968	80.38
474.187	103.38
474.406	99.38
474.625	82.38
474.844	78.38
475.063	87.38
475.282	73.38
475.501	99.38
475.72	85.38
475.939	93.38
476.158	87.38
476.377	88.38
476.596	77.38
476.814	91.38
477.033	87.38
477.252	91.38
477.471	84.38
477.69	79.38
477.908	76.38
478.127	84.38
478.346	76.38
478.564	82.38
478.783	101.38
479.002	107.38
479.22	85.38
479.439	88.38
479.658	90.38
479.876	85.38
480.095	98.38
480.313	108.38
480.532	92.38
480.751	107.38
480.969	163.38
481.188	399.38
481.406	272.38
481.624	105.38
481.843	83.38
482.061	85.38
482.28	90.38
482.498	101.38
482.717	87.38
482.935	91.38
483.153	89.38
483.372	88.38
483.59	79.38
483.808	91.38
484.027	95.38
484.245	93.38
484.463	90.38
484.681	92.38
484.9	91.38
485.118	89.38
485.336	89.38
485.554	90.38
485.772	89.38
485.99	99.38
486.209	104.38
486.427	99.38
486.645	108.38
486.863	104.38
487.081	95.38
487.299	81.38
487.517	94.38
487.735	96.38
487.953	87.38
488.171	90.38
488.389	102.38
488.607	109.38
488.825	86.38
489.043	80.38
489.261	90.38
489.479	90.38
489.696	95.38
489.914	87.38
490.132	88.38
490.35	80.38
490.568	79.38
490.786	80.38
491.003	89.38
491.221	86.38
491.439	103.38
491.657	93.38
491.874	94.38
492.092	88.38
492.31	107.38
492.527	88.38
492.745	79.38
492.963	76.38
493.18	89.38
493.398	99.38
493.615	102.38
493.833	98.38
494.05	94.38
494.268	98.38
494.485	93.38
494.703	84.38
494.92	85.38
495.138	101.38
495.355	92.38
495.573	91.38
495.79	81.38
496.008	90.38
496.225	86.38
496.442	85.38
496.66	86.38
496.877	82.38
497.094	98.38
497.312	72.38
497.529	82.38
497.746	92.38
497.963	96.38
498.181	86.38
498.398	96.38
498.615	103.38
498.832	100.38
499.049	88.38
499.267	89.38
499.484	82.38
499.701	86.38
499.918	97.38
500.135	88.38
500.352	86.38
500.569	83.38
500.786	103.38
501.003	82.38
501.22	95.38
501.437	105.38
501.654	98.38
501.871	88.38
502.088	84.38
502.305	95.38
502.522	91.38
502.739	84.38
502.956	103.38
503.172	97.38
503.389	84.38
503.606	97.38
503.823	88.38
504.04	78.38
504.256	88.38
504.473	81.38
504.69	84.38
504.907	89.38
505.123	93.38
505.34	94.38
505.557	85.38
505.773	86.38
505.99	87.38
506.207	77.38
506.423	79.38
506.64	115.38
506.856	92.38
507.073	101.38
507.289	82.38
507.506	89.38
507.722	99.38
507.939	104.38
508.155	88.38
508.372	87.38
508.588	90.38
508.805	88.38
509.021	92.38
509.238	81.38
509.454	101.38
509.67	102.38
509.887	131.38
510.103	123.38
510.319	168.38
510.536	543.38
510.752	1737.38
510.968	519.38
511.184	131.38
511.401	100.38
511.617	95.38
511.833	83.38
512.049	94.38
512.265	90.38
512.481	100.38
512.698	92.38
512.914	89.38
513.13	86.38
513.346	95.38
513.562	94.38
513.778	99.38
513.994	90.38
514.21	103.38
514.426	110.38
514.642	120.38
514.858	115.38
515.074	134.38
515.29	343.38
515.506	1075.38
515.721	404.38
515.937	136.38
516.153	110.38
