Data from Circ_2010_H10_HRD10591_00074.txt Node
Date: Wed Jan 03 10:09:56 EST 2024
User: Yrep
Spectrometer: HR+D1059
Trigger mode: 1
Integration Time (sec): 1.000000E-1
Scans to average: 1
Electric dark correction enabled: true
Nonlinearity correction enabled: false
Boxcar width: 0
XAxis mode: Wavelengths
Number of Pixels in Spectrum: 2048
>>>>>Begin Spectral Data<<<<<
223.165	-26.88
223.4	-26.88
223.635	-26.88
223.869	-23.88
224.104	-17.88
224.338	-2.88
224.573	-15.88
224.808	-4.88
225.042	7.12
225.277	-15.88
225.511	-5.88
225.746	-1.88
225.98	-2.88
226.215	9.12
226.449	29.12
226.683	23.12
226.918	18.12
227.152	32.12
227.387	41.12
227.621	41.12
227.856	50.12
228.09	58.12
228.324	50.12
228.559	59.12
228.793	66.12
229.027	75.12
229.262	65.12
229.496	67.12
229.73	83.12
229.964	97.12
230.199	89.12
230.433	82.12
230.667	69.12
230.901	84.12
231.136	87.12
231.37	83.12
231.604	75.12
231.838	86.12
232.072	77.12
232.306	83.12
232.541	91.12
232.775	87.12
233.009	85.12
233.243	84.12
233.477	73.12
233.711	84.12
233.945	90.12
234.179	83.12
234.413	85.12
234.647	81.12
234.881	78.12
235.115	92.12
235.349	85.12
235.583	91.12
235.817	82.12
236.051	74.12
236.285	75.12
236.519	93.12
236.753	79.12
236.987	88.12
237.221	98.12
237.455	78.12
237.689	88.12
237.922	71.12
238.156	75.12
238.39	86.12
238.624	66.12
238.858	82.12
239.091	81.12
239.325	89.12
239.559	74.12
239.793	81.12
240.027	77.12
240.26	74.12
240.494	79.12
240.728	75.12
240.961	67.12
241.195	73.12
241.429	71.12
241.662	69.12
241.896	72.12
242.13	76.12
242.363	78.12
242.597	82.12
242.83	95.12
243.064	78.12
243.298	73.12
243.531	77.12
243.765	77.12
243.998	77.12
244.232	83.12
244.465	96.12
244.699	88.12
244.932	74.12
245.166	85.12
245.399	80.12
245.633	73.12
245.866	76.12
246.099	77.12
246.333	78.12
246.566	89.12
246.8	85.12
247.033	97.12
247.266	63.12
247.5	81.12
247.733	71.12
247.966	77.12
248.2	84.12
248.433	83.12
248.666	82.12
248.899	88.12
249.133	86.12
249.366	109.12
249.599	87.12
249.832	91.12
250.066	82.12
250.299	73.12
250.532	100.12
250.765	82.12
250.998	84.12
251.231	82.12
251.465	78.12
251.698	54.12
251.931	74.12
252.164	80.12
252.397	77.12
252.63	92.12
252.863	75.12
253.096	83.12
253.329	79.12
253.562	85.12
253.795	89.12
254.028	78.12
254.261	79.12
254.494	76.12
254.727	75.12
254.96	93.12
255.193	82.12
255.426	81.12
255.659	91.12
255.892	87.12
256.124	75.12
256.357	88.12
256.59	78.12
256.823	97.12
257.056	87.12
257.289	85.12
257.521	74.12
257.754	71.12
257.987	85.12
258.22	78.12
258.452	78.12
258.685	84.12
258.918	71.12
259.151	82.12
259.383	85.12
259.616	69.12
259.849	76.12
260.081	95.12
260.314	69.12
260.547	80.12
260.779	82.12
261.012	85.12
261.244	86.12
261.477	90.12
261.71	85.12
261.942	106.12
262.175	107.12
262.407	95.12
262.64	98.12
262.872	89.12
263.105	81.12
263.337	99.12
263.57	87.12
263.802	83.12
264.035	89.12
264.267	78.12
264.499	77.12
264.732	83.12
264.964	73.12
265.197	96.12
265.429	85.12
265.661	88.12
265.894	84.12
266.126	95.12
266.358	84.12
266.591	86.12
266.823	78.12
267.055	87.12
267.287	87.12
267.52	81.12
267.752	83.12
267.984	93.12
268.216	86.12
268.448	72.12
268.681	85.12
268.913	93.12
269.145	80.12
269.377	88.12
269.609	90.12
269.841	104.12
270.073	94.12
270.306	96.12
270.538	77.12
270.77	84.12
271.002	85.12
271.234	94.12
271.466	81.12
271.698	76.12
271.93	93.12
272.162	84.12
272.394	85.12
272.626	77.12
272.858	93.12
273.09	97.12
273.322	73.12
273.553	87.12
273.785	94.12
274.017	77.12
274.249	89.12
274.481	81.12
274.713	84.12
274.945	90.12
275.176	84.12
275.408	97.12
275.64	96.12
275.872	103.12
276.104	100.12
276.335	94.12
276.567	99.12
276.799	102.12
277.031	114.12
277.262	107.12
277.494	99.12
277.726	105.12
277.957	95.12
278.189	85.12
278.421	83.12
278.652	77.12
278.884	92.12
279.115	97.12
279.347	98.12
279.579	83.12
279.81	102.12
280.042	115.12
280.273	106.12
280.505	109.12
280.736	85.12
280.968	89.12
281.199	110.12
281.431	86.12
281.662	83.12
281.894	92.12
282.125	92.12
282.356	123.12
282.588	142.12
282.819	119.12
283.051	90.12
283.282	87.12
283.513	86.12
283.745	87.12
283.976	89.12
284.207	83.12
284.439	88.12
284.67	84.12
284.901	96.12
285.132	91.12
285.364	67.12
285.595	82.12
285.826	83.12
286.057	89.12
286.288	97.12
286.52	98.12
286.751	88.12
286.982	88.12
287.213	89.12
287.444	90.12
287.675	88.12
287.906	84.12
288.138	89.12
288.369	100.12
288.6	88.12
288.831	89.12
289.062	77.12
289.293	90.12
289.524	83.12
289.755	99.12
289.986	87.12
290.217	88.12
290.448	79.12
290.679	94.12
290.91	85.12
291.141	90.12
291.371	73.12
291.602	75.12
291.833	81.12
292.064	77.12
292.295	93.12
292.526	86.12
292.757	95.12
292.987	94.12
293.218	89.12
293.449	84.12
293.68	99.12
293.91	96.12
294.141	88.12
294.372	86.12
294.603	89.12
294.833	86.12
295.064	81.12
295.295	92.12
295.525	102.12
295.756	103.12
295.987	119.12
296.217	127.12
296.448	126.12
296.679	101.12
296.909	92.12
297.14	98.12
297.37	98.12
297.601	85.12
297.831	75.12
298.062	95.12
298.292	78.12
298.523	88.12
298.753	68.12
298.984	92.12
299.214	90.12
299.445	98.12
299.675	95.12
299.905	93.12
300.136	79.12
300.366	82.12
300.597	101.12
300.827	91.12
301.057	85.12
301.288	91.12
301.518	82.12
301.748	103.12
301.979	119.12
302.209	98.12
302.439	95.12
302.669	98.12
302.9	90.12
303.13	97.12
303.36	98.12
303.59	100.12
303.82	103.12
304.051	102.12
304.281	95.12
304.511	106.12
304.741	91.12
304.971	84.12
305.201	87.12
305.431	103.12
305.661	98.12
305.891	97.12
306.121	90.12
306.352	99.12
306.582	95.12
306.812	104.12
307.042	89.12
307.272	108.12
307.502	113.12
307.731	95.12
307.961	98.12
308.191	85.12
308.421	91.12
308.651	89.12
308.881	104.12
309.111	89.12
309.341	80.12
309.571	79.12
309.8	106.12
310.03	106.12
310.26	95.12
310.49	98.12
310.72	109.12
310.949	105.12
311.179	82.12
311.409	97.12
311.639	93.12
311.868	103.12
312.098	100.12
312.328	101.12
312.557	115.12
312.787	93.12
313.017	112.12
313.246	93.12
313.476	95.12
313.706	91.12
313.935	94.12
314.165	95.12
314.394	109.12
314.624	104.12
314.853	106.12
315.083	89.12
315.312	98.12
315.542	92.12
315.771	94.12
316.001	90.12
316.23	95.12
316.46	91.12
316.689	95.12
316.919	78.12
317.148	98.12
317.377	76.12
317.607	95.12
317.836	104.12
318.065	96.12
318.295	98.12
318.524	104.12
318.753	93.12
318.983	88.12
319.212	91.12
319.441	103.12
319.67	92.12
319.9	111.12
320.129	90.12
320.358	101.12
320.587	101.12
320.816	98.12
321.046	100.12
321.275	93.12
321.504	88.12
321.733	102.12
321.962	96.12
322.191	97.12
322.42	102.12
322.649	109.12
322.878	122.12
323.108	110.12
323.337	135.12
323.566	121.12
323.795	154.12
324.024	215.12
324.253	389.12
324.482	828.12
324.71	1743.12
324.939	2234.12
325.168	841.12
325.397	257.12
325.626	153.12
325.855	121.12
326.084	109.12
326.313	129.12
326.542	159.12
326.77	251.12
326.999	479.12
327.228	975.12
327.457	1803.12
327.686	1406.12
327.914	419.12
328.143	267.12
328.372	272.12
328.6	188.12
328.829	121.12
329.058	141.12
329.287	149.12
329.515	121.12
329.744	157.12
329.972	213.12
330.201	332.12
330.43	439.12
330.658	262.12
330.887	164.12
331.115	133.12
331.344	103.12
331.572	103.12
331.801	106.12
332.03	102.12
332.258	101.12
332.486	92.12
332.715	100.12
332.943	98.12
333.172	102.12
333.4	106.12
333.629	135.12
333.857	137.12
334.085	208.12
334.314	333.12
334.542	573.12
334.771	540.12
334.999	182.12
335.227	113.12
335.455	94.12
335.684	97.12
335.912	92.12
336.14	89.12
336.369	88.12
336.597	98.12
336.825	103.12
337.053	80.12
337.281	93.12
337.51	95.12
337.738	96.12
337.966	82.12
338.194	97.12
338.422	99.12
338.65	102.12
338.878	100.12
339.106	87.12
339.334	90.12
339.562	82.12
339.79	84.12
340.018	103.12
340.246	107.12
340.474	96.12
340.702	92.12
340.93	92.12
341.158	90.12
341.386	88.12
341.614	109.12
341.842	86.12
342.07	96.12
342.298	83.12
342.526	101.12
342.754	78.12
342.981	88.12
343.209	93.12
343.437	95.12
343.665	86.12
343.893	95.12
344.12	91.12
344.348	90.12
344.576	94.12
344.804	104.12
345.031	95.12
345.259	99.12
345.487	87.12
345.714	90.12
345.942	77.12
346.17	86.12
346.397	89.12
346.625	86.12
346.853	93.12
347.08	88.12
347.308	103.12
347.535	103.12
347.763	102.12
347.99	85.12
348.218	97.12
348.445	94.12
348.673	107.12
348.9	102.12
349.128	81.12
349.355	78.12
349.583	99.12
349.81	99.12
350.037	96.12
350.265	89.12
350.492	88.12
350.72	97.12
350.947	87.12
351.174	110.12
351.402	108.12
351.629	117.12
351.856	109.12
352.083	117.12
352.311	102.12
352.538	113.12
352.765	112.12
352.992	125.12
353.22	105.12
353.447	95.12
353.674	79.12
353.901	89.12
354.128	93.12
354.355	97.12
354.583	93.12
354.81	100.12
355.037	101.12
355.264	95.12
355.491	77.12
355.718	95.12
355.945	98.12
356.172	98.12
356.399	89.12
356.626	90.12
356.853	81.12
357.08	104.12
357.307	101.12
357.534	86.12
357.761	105.12
357.988	99.12
358.215	94.12
358.441	93.12
358.668	92.12
358.895	87.12
359.122	81.12
359.349	95.12
359.576	97.12
359.802	109.12
360.029	115.12
360.256	108.12
360.483	81.12
360.709	94.12
360.936	87.12
361.163	96.12
361.39	105.12
361.616	83.12
361.843	88.12
362.07	100.12
362.296	93.12
362.523	77.12
362.749	100.12
362.976	93.12
363.203	83.12
363.429	95.12
363.656	103.12
363.882	85.12
364.109	101.12
364.335	97.12
364.562	84.12
364.788	91.12
365.015	82.12
365.241	105.12
365.468	106.12
365.694	90.12
365.92	111.12
366.147	86.12
366.373	92.12
366.599	85.12
366.826	91.12
367.052	84.12
367.278	99.12
367.505	75.12
367.731	103.12
367.957	89.12
368.184	99.12
368.41	97.12
368.636	107.12
368.862	118.12
369.089	102.12
369.315	90.12
369.541	87.12
369.767	91.12
369.993	98.12
370.219	87.12
370.445	79.12
370.672	93.12
370.898	83.12
371.124	106.12
371.35	83.12
371.576	103.12
371.802	100.12
372.028	98.12
372.254	93.12
372.48	97.12
372.706	91.12
372.932	94.12
373.158	88.12
373.384	91.12
373.61	88.12
373.835	98.12
374.061	101.12
374.287	93.12
374.513	91.12
374.739	109.12
374.965	78.12
375.191	87.12
375.416	97.12
375.642	93.12
375.868	95.12
376.094	83.12
376.319	96.12
376.545	86.12
376.771	86.12
376.997	103.12
377.222	85.12
377.448	88.12
377.674	90.12
377.899	90.12
378.125	92.12
378.35	97.12
378.576	91.12
378.802	86.12
379.027	78.12
379.253	97.12
379.478	89.12
379.704	98.12
379.929	81.12
380.155	100.12
380.38	87.12
380.606	95.12
380.831	89.12
381.057	106.12
381.282	104.12
381.507	107.12
381.733	97.12
381.958	82.12
382.184	102.12
382.409	104.12
382.634	104.12
382.86	105.12
383.085	90.12
383.31	105.12
383.535	97.12
383.761	106.12
383.986	96.12
384.211	101.12
384.436	112.12
384.662	97.12
384.887	112.12
385.112	111.12
385.337	85.12
385.562	86.12
385.787	104.12
386.013	87.12
386.238	121.12
386.463	111.12
386.688	117.12
386.913	105.12
387.138	104.12
387.363	101.12
387.588	101.12
387.813	103.12
388.038	104.12
388.263	101.12
388.488	97.12
388.713	96.12
388.938	109.12
389.163	87.12
389.387	89.12
389.612	83.12
389.837	88.12
390.062	85.12
390.287	95.12
390.512	96.12
390.736	91.12
390.961	100.12
391.186	104.12
391.411	94.12
391.636	98.12
391.86	76.12
392.085	81.12
392.31	80.12
392.534	86.12
392.759	80.12
392.984	87.12
393.208	86.12
393.433	91.12
393.658	99.12
393.882	97.12
394.107	102.12
394.331	88.12
394.556	96.12
394.78	83.12
395.005	94.12
395.229	81.12
395.454	78.12
395.678	82.12
395.903	88.12
396.127	110.12
396.352	85.12
396.576	90.12
396.801	99.12
397.025	84.12
397.249	84.12
397.474	89.12
397.698	83.12
397.922	92.12
398.147	84.12
398.371	103.12
398.595	88.12
398.82	94.12
399.044	80.12
399.268	71.12
399.492	98.12
399.717	97.12
399.941	87.12
400.165	109.12
400.389	84.12
400.613	84.12
400.837	94.12
401.062	90.12
401.286	102.12
401.51	101.12
401.734	96.12
401.958	99.12
402.182	112.12
402.406	154.12
402.63	114.12
402.854	93.12
403.078	80.12
403.302	96.12
403.526	76.12
403.75	83.12
403.974	92.12
404.198	92.12
404.422	98.12
404.645	98.12
404.869	90.12
405.093	82.12
405.317	110.12
405.541	122.12
405.765	99.12
405.988	109.12
406.212	156.12
406.436	207.12
406.66	145.12
406.883	110.12
407.107	110.12
407.331	105.12
407.555	104.12
407.778	103.12
408.002	77.12
408.226	89.12
408.449	89.12
408.673	93.12
408.896	92.12
409.12	96.12
409.344	80.12
409.567	101.12
409.791	99.12
410.014	104.12
410.238	84.12
410.461	86.12
410.685	100.12
410.908	104.12
411.132	120.12
411.355	104.12
411.578	82.12
411.802	88.12
412.025	95.12
412.249	96.12
412.472	110.12
412.695	123.12
412.919	100.12
413.142	101.12
413.365	89.12
413.589	95.12
413.812	75.12
414.035	77.12
414.258	98.12
414.482	97.12
414.705	104.12
414.928	104.12
415.151	86.12
415.374	93.12
415.597	102.12
415.821	90.12
416.044	103.12
416.267	86.12
416.49	80.12
416.713	95.12
416.936	85.12
417.159	95.12
417.382	98.12
417.605	107.12
417.828	98.12
418.051	89.12
418.274	89.12
418.497	92.12
418.72	102.12
418.943	86.12
419.166	108.12
419.389	94.12
419.611	93.12
419.834	103.12
420.057	99.12
420.28	95.12
420.503	85.12
420.726	94.12
420.948	98.12
421.171	104.12
421.394	102.12
421.617	96.12
421.839	96.12
422.062	99.12
422.285	106.12
422.507	89.12
422.73	114.12
422.953	99.12
423.175	76.12
423.398	86.12
423.621	94.12
423.843	91.12
424.066	74.12
424.288	89.12
424.511	95.12
424.733	102.12
424.956	103.12
425.178	109.12
425.401	107.12
425.623	99.12
425.846	83.12
426.068	94.12
426.291	95.12
426.513	102.12
426.735	80.12
426.958	101.12
427.18	122.12
427.402	155.12
427.625	178.12
427.847	168.12
428.069	147.12
428.292	103.12
428.514	87.12
428.736	98.12
428.958	90.12
429.181	91.12
429.403	92.12
429.625	86.12
429.847	92.12
430.069	104.12
430.292	95.12
430.514	98.12
430.736	81.12
430.958	88.12
431.18	89.12
431.402	95.12
431.624	98.12
431.846	81.12
432.068	88.12
432.29	89.12
432.512	86.12
432.734	93.12
432.956	89.12
433.178	100.12
433.4	101.12
433.622	86.12
433.844	87.12
434.066	86.12
434.287	87.12
434.509	96.12
434.731	93.12
434.953	92.12
435.175	95.12
435.397	85.12
435.618	89.12
435.84	92.12
436.062	144.12
436.284	121.12
436.505	110.12
436.727	93.12
436.949	95.12
437.17	90.12
437.392	100.12
437.614	94.12
437.835	111.12
438.057	122.12
438.278	125.12
438.5	121.12
438.721	137.12
438.943	111.12
439.165	98.12
439.386	91.12
439.608	107.12
439.829	102.12
440.05	140.12
440.272	151.12
440.493	109.12
440.715	86.12
440.936	95.12
441.158	82.12
441.379	83.12
441.6	81.12
441.822	96.12
442.043	103.12
442.264	113.12
442.486	116.12
442.707	95.12
442.928	106.12
443.149	149.12
443.371	137.12
443.592	123.12
443.813	98.12
444.034	109.12
444.255	80.12
444.476	80.12
444.698	100.12
444.919	95.12
445.14	140.12
445.361	133.12
445.582	137.12
445.803	147.12
446.024	138.12
446.245	130.12
446.466	134.12
446.687	73.12
446.908	79.12
447.129	86.12
447.35	89.12
447.571	87.12
447.792	84.12
448.013	97.12
448.234	110.12
448.455	98.12
448.675	117.12
448.896	110.12
449.117	97.12
449.338	135.12
449.559	148.12
449.779	144.12
450	104.12
450.221	87.12
450.442	92.12
450.662	102.12
450.883	109.12
451.104	101.12
451.324	106.12
451.545	95.12
451.766	86.12
451.986	83.12
452.207	91.12
452.428	98.12
452.648	96.12
452.869	112.12
453.089	113.12
453.31	117.12
453.53	98.12
453.751	95.12
453.971	106.12
454.192	117.12
454.412	97.12
454.633	94.12
454.853	90.12
455.073	96.12
455.294	96.12
455.514	102.12
455.734	90.12
455.955	93.12
456.175	79.12
456.395	92.12
456.616	96.12
456.836	76.12
457.056	91.12
457.276	83.12
457.497	91.12
457.717	75.12
457.937	86.12
458.157	86.12
458.377	90.12
458.598	113.12
458.818	162.12
459.038	162.12
459.258	117.12
459.478	98.12
459.698	80.12
459.918	88.12
460.138	80.12
460.358	97.12
460.578	74.12
460.798	96.12
461.018	94.12
461.238	70.12
461.458	94.12
461.678	87.12
461.898	74.12
462.118	75.12
462.338	98.12
462.558	89.12
462.777	75.12
462.997	86.12
463.217	78.12
463.437	91.12
463.657	92.12
463.876	78.12
464.096	88.12
464.316	95.12
464.536	94.12
464.755	89.12
464.975	97.12
465.195	154.12
465.414	162.12
465.634	102.12
465.854	92.12
466.073	89.12
466.293	92.12
466.512	87.12
466.732	95.12
466.951	89.12
467.171	97.12
467.391	94.12
467.61	111.12
467.829	111.12
468.049	216.12
468.268	262.12
468.488	131.12
468.707	87.12
468.927	98.12
469.146	92.12
469.365	100.12
469.585	90.12
469.804	110.12
470.023	99.12
470.243	112.12
470.462	118.12
470.681	127.12
470.901	102.12
471.12	77.12
471.339	91.12
471.558	75.12
471.777	98.12
471.997	149.12
472.216	355.12
472.435	697.12
472.654	242.12
472.873	120.12
473.092	94.12
473.311	97.12
473.53	96.12
473.749	82.12
473.968	102.12
474.187	109.12
474.406	94.12
474.625	101.12
474.844	101.12
475.063	79.12
475.282	104.12
475.501	85.12
475.72	82.12
475.939	86.12
476.158	80.12
476.377	89.12
476.596	99.12
476.814	91.12
477.033	93.12
477.252	94.12
477.471	97.12
477.69	93.12
477.908	82.12
478.127	91.12
478.346	111.12
478.564	98.12
478.783	96.12
479.002	105.12
479.22	95.12
479.439	121.12
479.658	113.12
479.876	94.12
480.095	88.12
480.313	103.12
480.532	120.12
480.751	161.12
480.969	345.12
481.188	1169.12
481.406	744.12
481.624	162.12
481.843	91.12
482.061	96.12
482.28	87.12
482.498	99.12
482.717	95.12
482.935	104.12
483.153	89.12
483.372	82.12
483.59	90.12
483.808	94.12
484.027	90.12
484.245	106.12
484.463	93.12
484.681	91.12
484.9	104.12
485.118	110.12
485.336	93.12
485.554	94.12
485.772	104.12
485.99	104.12
486.209	104.12
486.427	110.12
486.645	116.12
486.863	117.12
487.081	98.12
487.299	92.12
487.517	97.12
487.735	92.12
487.953	95.12
488.171	102.12
488.389	98.12
488.607	108.12
488.825	85.12
489.043	94.12
489.261	85.12
489.479	95.12
489.696	96.12
489.914	89.12
490.132	86.12
490.35	81.12
490.568	91.12
490.786	102.12
491.003	91.12
491.221	88.12
491.439	102.12
491.657	94.12
491.874	106.12
492.092	97.12
492.31	79.12
492.527	81.12
492.745	94.12
492.963	84.12
493.18	98.12
493.398	99.12
493.615	100.12
493.833	96.12
494.05	101.12
494.268	89.12
494.485	91.12
494.703	96.12
494.92	101.12
495.138	91.12
495.355	99.12
495.573	80.12
495.79	92.12
496.008	106.12
496.225	96.12
496.442	96.12
496.66	95.12
496.877	103.12
497.094	73.12
497.312	96.12
497.529	84.12
497.746	89.12
497.963	87.12
498.181	89.12
498.398	90.12
498.615	109.12
498.832	112.12
499.049	109.12
499.267	101.12
499.484	83.12
499.701	83.12
499.918	87.12
500.135	88.12
500.352	88.12
500.569	88.12
500.786	110.12
501.003	90.12
501.22	78.12
501.437	86.12
501.654	88.12
501.871	105.12
502.088	97.12
502.305	92.12
502.522	99.12
502.739	94.12
502.956	97.12
503.172	70.12
503.389	100.12
503.606	104.12
503.823	98.12
504.04	103.12
504.256	94.12
504.473	96.12
504.69	96.12
504.907	111.12
505.123	83.12
505.34	81.12
505.557	75.12
505.773	95.12
505.99	90.12
506.207	83.12
506.423	95.12
506.64	89.12
506.856	93.12
507.073	98.12
507.289	89.12
507.506	95.12
507.722	122.12
507.939	112.12
508.155	99.12
508.372	95.12
508.588	111.12
508.805	100.12
509.021	81.12
509.238	96.12
509.454	81.12
509.67	93.12
509.887	110.12
510.103	112.12
510.319	178.12
510.536	638.12
510.752	1975.12
510.968	575.12
511.184	145.12
511.401	112.12
511.617	105.12
511.833	85.12
512.049	93.12
512.265	94.12
512.481	96.12
512.698	99.12
512.914	87.12
513.13	83.12
513.346	103.12
513.562	92.12
513.778	99.12
513.994	104.12
514.21	106.12
514.426	122.12
514.642	138.12
