Data from Circ_2010_H10_HRD10591_00003.txt Node
Date: Wed Jan 03 10:09:41 EST 2024
User: Yrep
Spectrometer: HR+D1059
Trigger mode: 1
Integration Time (sec): 1.000000E-1
Scans to average: 1
Electric dark correction enabled: true
Nonlinearity correction enabled: false
Boxcar width: 0
XAxis mode: Wavelengths
Number of Pixels in Spectrum: 2048
>>>>>Begin Spectral Data<<<<<
223.165	-26.25
223.4	-26.25
223.635	-26.25
223.869	-14.25
224.104	-15.25
224.338	-19.25
224.573	-21.25
224.808	-8.25
225.042	-10.25
225.277	-2.25
225.511	1.75
225.746	9.75
225.98	9.75
226.215	7.75
226.449	6.75
226.683	19.75
226.918	33.75
227.152	27.75
227.387	25.75
227.621	39.75
227.856	40.75
228.09	43.75
228.324	61.75
228.559	53.75
228.793	65.75
229.027	70.75
229.262	63.75
229.496	66.75
229.73	86.75
229.964	65.75
230.199	64.75
230.433	60.75
230.667	76.75
230.901	78.75
231.136	80.75
231.37	81.75
231.604	84.75
231.838	74.75
232.072	85.75
232.306	85.75
232.541	78.75
232.775	81.75
233.009	68.75
233.243	77.75
233.477	72.75
233.711	68.75
233.945	81.75
234.179	75.75
234.413	86.75
234.647	71.75
234.881	68.75
235.115	83.75
235.349	75.75
235.583	81.75
235.817	81.75
236.051	78.75
236.285	59.75
236.519	65.75
236.753	93.75
236.987	74.75
237.221	66.75
237.455	71.75
237.689	79.75
237.922	70.75
238.156	69.75
238.39	58.75
238.624	71.75
238.858	74.75
239.091	69.75
239.325	82.75
239.559	95.75
239.793	85.75
240.027	60.75
240.26	74.75
240.494	80.75
240.728	77.75
240.961	63.75
241.195	65.75
241.429	69.75
241.662	77.75
241.896	65.75
242.13	59.75
242.363	83.75
242.597	60.75
242.83	83.75
243.064	70.75
243.298	69.75
243.531	76.75
243.765	65.75
243.998	79.75
244.232	70.75
244.465	79.75
244.699	83.75
244.932	64.75
245.166	74.75
245.399	82.75
245.633	71.75
245.866	74.75
246.099	65.75
246.333	90.75
246.566	76.75
246.8	78.75
247.033	74.75
247.266	98.75
247.5	87.75
247.733	82.75
247.966	75.75
248.2	74.75
248.433	83.75
248.666	80.75
248.899	79.75
249.133	80.75
249.366	103.75
249.599	90.75
249.832	84.75
250.066	78.75
250.299	74.75
250.532	72.75
250.765	78.75
250.998	83.75
251.231	74.75
251.465	76.75
251.698	88.75
251.931	77.75
252.164	67.75
252.397	67.75
252.63	85.75
252.863	83.75
253.096	73.75
253.329	72.75
253.562	68.75
253.795	74.75
254.028	86.75
254.261	76.75
254.494	87.75
254.727	79.75
254.96	78.75
255.193	71.75
255.426	83.75
255.659	83.75
255.892	82.75
256.124	77.75
256.357	87.75
256.59	67.75
256.823	77.75
257.056	81.75
257.289	77.75
257.521	77.75
257.754	89.75
257.987	74.75
258.22	74.75
258.452	61.75
258.685	81.75
258.918	83.75
259.151	84.75
259.383	75.75
259.616	75.75
259.849	87.75
260.081	82.75
260.314	74.75
260.547	81.75
260.779	78.75
261.012	79.75
261.244	83.75
261.477	94.75
261.71	82.75
261.942	116.75
262.175	101.75
262.407	89.75
262.64	73.75
262.872	69.75
263.105	82.75
263.337	87.75
263.57	86.75
263.802	71.75
264.035	89.75
264.267	78.75
264.499	76.75
264.732	83.75
264.964	101.75
265.197	81.75
265.429	65.75
265.661	72.75
265.894	87.75
266.126	78.75
266.358	82.75
266.591	96.75
266.823	78.75
267.055	86.75
267.287	77.75
267.52	68.75
267.752	80.75
267.984	73.75
268.216	86.75
268.448	94.75
268.681	87.75
268.913	79.75
269.145	73.75
269.377	82.75
269.609	79.75
269.841	76.75
270.073	90.75
270.306	76.75
270.538	71.75
270.77	82.75
271.002	68.75
271.234	85.75
271.466	87.75
271.698	77.75
271.93	89.75
272.162	77.75
272.394	89.75
272.626	81.75
272.858	82.75
273.09	99.75
273.322	70.75
273.553	75.75
273.785	75.75
274.017	72.75
274.249	85.75
274.481	92.75
274.713	71.75
274.945	78.75
275.176	77.75
275.408	66.75
275.64	93.75
275.872	100.75
276.104	87.75
276.335	87.75
276.567	98.75
276.799	103.75
277.031	104.75
277.262	82.75
277.494	76.75
277.726	88.75
277.957	78.75
278.189	73.75
278.421	87.75
278.652	79.75
278.884	81.75
279.115	86.75
279.347	95.75
279.579	82.75
279.81	86.75
280.042	117.75
280.273	80.75
280.505	92.75
280.736	100.75
280.968	79.75
281.199	77.75
281.431	84.75
281.662	86.75
281.894	80.75
282.125	89.75
282.356	108.75
282.588	120.75
282.819	104.75
283.051	83.75
283.282	84.75
283.513	97.75
283.745	83.75
283.976	89.75
284.207	75.75
284.439	83.75
284.67	85.75
284.901	94.75
285.132	83.75
285.364	83.75
285.595	104.75
285.826	86.75
286.057	92.75
286.288	77.75
286.52	85.75
286.751	83.75
286.982	81.75
287.213	83.75
287.444	78.75
287.675	84.75
287.906	83.75
288.138	75.75
288.369	90.75
288.6	102.75
288.831	85.75
289.062	84.75
289.293	82.75
289.524	80.75
289.755	82.75
289.986	83.75
290.217	85.75
290.448	95.75
290.679	93.75
290.91	77.75
291.141	68.75
291.371	79.75
291.602	91.75
291.833	79.75
292.064	91.75
292.295	85.75
292.526	90.75
292.757	84.75
292.987	82.75
293.218	88.75
293.449	85.75
293.68	87.75
293.91	87.75
294.141	91.75
294.372	77.75
294.603	71.75
294.833	94.75
295.064	85.75
295.295	93.75
295.525	73.75
295.756	98.75
295.987	96.75
296.217	110.75
296.448	114.75
296.679	92.75
296.909	101.75
297.14	86.75
297.37	69.75
297.601	84.75
297.831	87.75
298.062	90.75
298.292	97.75
298.523	83.75
298.753	82.75
298.984	85.75
299.214	83.75
299.445	78.75
299.675	91.75
299.905	80.75
300.136	89.75
300.366	82.75
300.597	92.75
300.827	81.75
301.057	91.75
301.288	107.75
301.518	95.75
301.748	92.75
301.979	96.75
302.209	97.75
302.439	92.75
302.669	92.75
302.9	96.75
303.13	81.75
303.36	81.75
303.59	93.75
303.82	103.75
304.051	77.75
304.281	87.75
304.511	82.75
304.741	81.75
304.971	67.75
305.201	92.75
305.431	80.75
305.661	85.75
305.891	82.75
306.121	88.75
306.352	92.75
306.582	101.75
306.812	96.75
307.042	110.75
307.272	84.75
307.502	79.75
307.731	87.75
307.961	87.75
308.191	93.75
308.421	88.75
308.651	90.75
308.881	75.75
309.111	91.75
309.341	92.75
309.571	109.75
309.8	97.75
310.03	81.75
310.26	86.75
310.49	83.75
310.72	107.75
310.949	105.75
311.179	89.75
311.409	95.75
311.639	84.75
311.868	83.75
312.098	95.75
312.328	77.75
312.557	102.75
312.787	96.75
313.017	88.75
313.246	95.75
313.476	87.75
313.706	98.75
313.935	84.75
314.165	93.75
314.394	85.75
314.624	76.75
314.853	106.75
315.083	86.75
315.312	91.75
315.542	81.75
315.771	90.75
316.001	84.75
316.23	82.75
316.46	89.75
316.689	82.75
316.919	83.75
317.148	74.75
317.377	85.75
317.607	93.75
317.836	92.75
318.065	100.75
318.295	100.75
318.524	82.75
318.753	84.75
318.983	83.75
319.212	97.75
319.441	107.75
319.67	98.75
319.9	95.75
320.129	96.75
320.358	95.75
320.587	101.75
320.816	89.75
321.046	89.75
321.275	86.75
321.504	98.75
321.733	85.75
321.962	116.75
322.191	103.75
322.42	104.75
322.649	107.75
322.878	102.75
323.108	96.75
323.337	104.75
323.566	126.75
323.795	152.75
324.024	190.75
324.253	324.75
324.482	703.75
324.71	1386.75
324.939	1756.75
325.168	651.75
325.397	217.75
325.626	137.75
325.855	116.75
326.084	119.75
326.313	136.75
326.542	144.75
326.77	210.75
326.999	389.75
327.228	784.75
327.457	1379.75
327.686	1089.75
327.914	312.75
328.143	181.75
328.372	143.75
328.6	122.75
328.829	109.75
329.058	113.75
329.287	110.75
329.515	95.75
329.744	99.75
329.972	109.75
330.201	137.75
330.43	145.75
330.658	133.75
330.887	135.75
331.115	103.75
331.344	102.75
331.572	79.75
331.801	101.75
332.03	93.75
332.258	87.75
332.486	86.75
332.715	102.75
332.943	90.75
333.172	87.75
333.4	77.75
333.629	100.75
333.857	111.75
334.085	108.75
334.314	133.75
334.542	174.75
334.771	157.75
334.999	112.75
335.227	78.75
335.455	92.75
335.684	78.75
335.912	95.75
336.14	87.75
336.369	103.75
336.597	106.75
336.825	84.75
337.053	101.75
337.281	88.75
337.51	99.75
337.738	79.75
337.966	92.75
338.194	92.75
338.422	100.75
338.65	87.75
338.878	79.75
339.106	91.75
339.334	93.75
339.562	92.75
339.79	95.75
340.018	94.75
340.246	89.75
340.474	102.75
340.702	102.75
340.93	86.75
341.158	77.75
341.386	91.75
341.614	104.75
341.842	92.75
342.07	88.75
342.298	87.75
342.526	81.75
342.754	79.75
342.981	84.75
343.209	87.75
343.437	91.75
343.665	92.75
343.893	87.75
344.12	96.75
344.348	87.75
344.576	90.75
344.804	99.75
345.031	96.75
345.259	95.75
345.487	91.75
345.714	92.75
345.942	92.75
346.17	89.75
346.397	78.75
346.625	75.75
346.853	92.75
347.08	85.75
347.308	86.75
347.535	87.75
347.763	96.75
347.99	97.75
348.218	104.75
348.445	94.75
348.673	77.75
348.9	98.75
349.128	101.75
349.355	85.75
349.583	75.75
349.81	82.75
350.037	100.75
350.265	83.75
350.492	99.75
350.72	93.75
350.947	108.75
351.174	99.75
351.402	106.75
351.629	93.75
351.856	106.75
352.083	124.75
352.311	93.75
352.538	89.75
352.765	109.75
352.992	120.75
353.22	109.75
353.447	86.75
353.674	91.75
353.901	97.75
354.128	80.75
354.355	79.75
354.583	89.75
354.81	98.75
355.037	102.75
355.264	91.75
355.491	93.75
355.718	84.75
355.945	91.75
356.172	82.75
356.399	85.75
356.626	97.75
356.853	90.75
357.08	92.75
357.307	96.75
357.534	86.75
357.761	88.75
357.988	86.75
358.215	82.75
358.441	109.75
358.668	88.75
358.895	94.75
359.122	85.75
359.349	87.75
359.576	89.75
359.802	86.75
360.029	102.75
360.256	102.75
360.483	86.75
360.709	82.75
360.936	85.75
361.163	91.75
361.39	90.75
361.616	101.75
361.843	78.75
362.07	80.75
362.296	92.75
362.523	84.75
362.749	73.75
362.976	102.75
363.203	78.75
363.429	83.75
363.656	94.75
363.882	81.75
364.109	94.75
364.335	95.75
364.562	86.75
364.788	88.75
365.015	95.75
365.241	107.75
365.468	109.75
365.694	92.75
365.92	82.75
366.147	76.75
366.373	82.75
366.599	91.75
366.826	90.75
367.052	94.75
367.278	94.75
367.505	92.75
367.731	77.75
367.957	78.75
368.184	79.75
368.41	92.75
368.636	107.75
368.862	97.75
369.089	101.75
369.315	107.75
369.541	94.75
369.767	78.75
369.993	84.75
370.219	83.75
370.445	86.75
370.672	77.75
370.898	83.75
371.124	86.75
371.35	90.75
371.576	90.75
371.802	84.75
372.028	88.75
372.254	69.75
372.48	92.75
372.706	79.75
372.932	86.75
373.158	75.75
373.384	90.75
373.61	92.75
373.835	93.75
374.061	66.75
374.287	77.75
374.513	89.75
374.739	82.75
374.965	80.75
375.191	77.75
375.416	77.75
375.642	91.75
375.868	74.75
376.094	86.75
376.319	90.75
376.545	93.75
376.771	93.75
376.997	85.75
377.222	82.75
377.448	88.75
377.674	101.75
377.899	92.75
378.125	88.75
378.35	102.75
378.576	87.75
378.802	86.75
379.027	89.75
379.253	101.75
379.478	88.75
379.704	80.75
379.929	81.75
380.155	91.75
380.38	98.75
380.606	94.75
380.831	98.75
381.057	93.75
381.282	79.75
381.507	86.75
381.733	100.75
381.958	92.75
382.184	96.75
382.409	111.75
382.634	97.75
382.86	95.75
383.085	92.75
383.31	109.75
383.535	97.75
383.761	95.75
383.986	92.75
384.211	96.75
384.436	101.75
384.662	105.75
384.887	125.75
385.112	104.75
385.337	101.75
385.562	95.75
385.787	93.75
386.013	103.75
386.238	100.75
386.463	95.75
386.688	107.75
386.913	121.75
387.138	116.75
387.363	113.75
387.588	102.75
387.813	94.75
388.038	94.75
388.263	117.75
388.488	115.75
388.713	105.75
388.938	82.75
389.163	87.75
389.387	83.75
389.612	93.75
389.837	92.75
390.062	80.75
390.287	94.75
390.512	89.75
390.736	92.75
390.961	77.75
391.186	92.75
391.411	88.75
391.636	88.75
391.86	80.75
392.085	91.75
392.31	76.75
392.534	83.75
392.759	91.75
392.984	99.75
393.208	96.75
393.433	125.75
393.658	114.75
393.882	79.75
394.107	90.75
394.331	103.75
394.556	84.75
394.78	95.75
395.005	85.75
395.229	83.75
395.454	69.75
395.678	84.75
395.903	92.75
396.127	87.75
396.352	82.75
396.576	88.75
396.801	88.75
397.025	100.75
397.249	89.75
397.474	76.75
397.698	76.75
397.922	78.75
398.147	77.75
398.371	85.75
398.595	76.75
398.82	91.75
399.044	90.75
399.268	85.75
399.492	77.75
399.717	83.75
399.941	84.75
400.165	93.75
400.389	87.75
400.613	81.75
400.837	75.75
401.062	91.75
401.286	85.75
401.51	86.75
401.734	80.75
401.958	101.75
402.182	133.75
402.406	133.75
402.63	113.75
402.854	94.75
403.078	87.75
403.302	89.75
403.526	86.75
403.75	79.75
403.974	89.75
404.198	86.75
404.422	95.75
404.645	85.75
404.869	70.75
405.093	85.75
405.317	94.75
405.541	98.75
405.765	98.75
405.988	109.75
406.212	156.75
406.436	194.75
406.66	130.75
406.883	88.75
407.107	87.75
407.331	90.75
407.555	87.75
407.778	87.75
408.002	82.75
408.226	98.75
408.449	79.75
408.673	85.75
408.896	88.75
409.12	81.75
409.344	85.75
409.567	74.75
409.791	78.75
410.014	94.75
410.238	71.75
410.461	90.75
410.685	101.75
410.908	88.75
411.132	94.75
411.355	85.75
411.578	100.75
411.802	77.75
412.025	92.75
412.249	88.75
412.472	97.75
412.695	92.75
412.919	88.75
413.142	82.75
413.365	83.75
413.589	89.75
413.812	86.75
414.035	75.75
414.258	92.75
414.482	82.75
414.705	91.75
414.928	79.75
415.151	79.75
415.374	80.75
415.597	89.75
415.821	78.75
416.044	77.75
416.267	86.75
416.49	78.75
416.713	75.75
416.936	75.75
417.159	90.75
417.382	90.75
417.605	79.75
417.828	97.75
418.051	81.75
418.274	93.75
418.497	91.75
418.72	85.75
418.943	91.75
419.166	89.75
419.389	82.75
419.611	97.75
419.834	83.75
420.057	83.75
420.28	92.75
420.503	74.75
420.726	80.75
420.948	83.75
421.171	101.75
421.394	93.75
421.617	78.75
421.839	93.75
422.062	92.75
422.285	96.75
422.507	108.75
422.73	112.75
422.953	94.75
423.175	88.75
423.398	90.75
423.621	78.75
423.843	84.75
424.066	65.75
424.288	89.75
424.511	100.75
424.733	90.75
424.956	106.75
425.178	104.75
425.401	103.75
425.623	90.75
425.846	95.75
426.068	88.75
426.291	87.75
426.513	77.75
426.735	76.75
426.958	101.75
427.18	104.75
427.402	114.75
427.625	133.75
427.847	104.75
428.069	94.75
428.292	86.75
428.514	91.75
428.736	95.75
428.958	87.75
429.181	83.75
429.403	87.75
429.625	92.75
429.847	76.75
430.069	89.75
430.292	85.75
430.514	84.75
430.736	78.75
430.958	81.75
431.18	83.75
431.402	86.75
431.624	85.75
431.846	72.75
432.068	88.75
432.29	84.75
432.512	75.75
432.734	90.75
432.956	102.75
433.178	93.75
433.4	91.75
433.622	94.75
433.844	90.75
434.066	102.75
434.287	77.75
434.509	86.75
434.731	87.75
434.953	80.75
435.175	85.75
435.397	88.75
435.618	74.75
435.84	83.75
436.062	93.75
436.284	104.75
436.505	82.75
436.727	93.75
436.949	90.75
437.17	82.75
437.392	102.75
437.614	93.75
437.835	103.75
438.057	114.75
438.278	94.75
438.5	101.75
438.721	116.75
438.943	91.75
439.165	87.75
439.386	76.75
439.608	70.75
439.829	85.75
440.05	113.75
440.272	110.75
440.493	88.75
440.715	86.75
440.936	94.75
441.158	80.75
441.379	83.75
441.6	86.75
441.822	86.75
442.043	86.75
442.264	106.75
442.486	94.75
442.707	79.75
442.928	100.75
443.149	89.75
443.371	112.75
443.592	107.75
443.813	102.75
444.034	99.75
444.255	74.75
444.476	91.75
444.698	92.75
444.919	85.75
445.14	134.75
445.361	109.75
445.582	104.75
445.803	138.75
446.024	115.75
446.245	130.75
446.466	94.75
446.687	85.75
446.908	77.75
447.129	81.75
447.35	83.75
447.571	81.75
447.792	97.75
448.013	105.75
448.234	93.75
448.455	98.75
448.675	101.75
448.896	114.75
449.117	103.75
449.338	100.75
449.559	124.75
449.779	134.75
450	102.75
450.221	90.75
450.442	80.75
450.662	92.75
450.883	102.75
451.104	118.75
451.324	90.75
451.545	76.75
451.766	79.75
451.986	79.75
452.207	80.75
452.428	87.75
452.648	71.75
452.869	100.75
453.089	116.75
453.31	117.75
453.53	92.75
453.751	91.75
453.971	85.75
454.192	105.75
454.412	84.75
454.633	81.75
454.853	65.75
455.073	85.75
455.294	92.75
455.514	103.75
455.734	85.75
455.955	99.75
456.175	82.75
456.395	73.75
456.616	87.75
456.836	78.75
457.056	78.75
457.276	78.75
457.497	83.75
457.717	73.75
457.937	86.75
458.157	89.75
458.377	82.75
458.598	102.75
458.818	129.75
459.038	150.75
459.258	98.75
459.478	87.75
459.698	75.75
459.918	83.75
460.138	83.75
460.358	71.75
460.578	86.75
460.798	81.75
461.018	89.75
461.238	92.75
461.458	90.75
461.678	80.75
461.898	84.75
462.118	81.75
462.338	80.75
462.558	80.75
462.777	83.75
462.997	98.75
463.217	97.75
463.437	75.75
463.657	82.75
463.876	92.75
464.096	81.75
464.316	86.75
464.536	90.75
464.755	87.75
464.975	98.75
465.195	151.75
465.414	148.75
465.634	83.75
465.854	86.75
466.073	84.75
466.293	77.75
466.512	88.75
466.732	89.75
466.951	73.75
467.171	90.75
467.391	88.75
467.61	102.75
467.829	91.75
468.049	100.75
468.268	88.75
468.488	98.75
468.707	78.75
468.927	82.75
469.146	81.75
469.365	81.75
469.585	81.75
469.804	86.75
470.023	85.75
470.243	90.75
470.462	82.75
470.681	98.75
470.901	85.75
471.12	87.75
471.339	99.75
471.558	77.75
471.777	86.75
471.997	80.75
472.216	115.75
472.435	182.75
472.654	96.75
472.873	87.75
473.092	92.75
473.311	65.75
473.53	98.75
473.749	86.75
473.968	110.75
474.187	115.75
474.406	66.75
474.625	89.75
474.844	83.75
475.063	82.75
475.282	84.75
475.501	75.75
475.72	89.75
475.939	82.75
476.158	94.75
476.377	69.75
476.596	79.75
476.814	80.75
477.033	81.75
477.252	85.75
477.471	70.75
477.69	90.75
477.908	102.75
478.127	85.75
478.346	74.75
478.564	67.75
478.783	108.75
479.002	87.75
479.22	81.75
479.439	75.75
479.658	99.75
479.876	98.75
480.095	88.75
480.313	79.75
480.532	86.75
480.751	100.75
480.969	115.75
481.188	263.75
481.406	194.75
481.624	99.75
481.843	90.75
482.061	96.75
482.28	82.75
482.498	93.75
482.717	77.75
482.935	88.75
483.153	87.75
483.372	97.75
483.59	87.75
483.808	77.75
484.027	75.75
484.245	104.75
484.463	97.75
484.681	94.75
484.9	84.75
485.118	90.75
485.336	87.75
485.554	96.75
485.772	105.75
485.99	90.75
486.209	86.75
486.427	94.75
486.645	109.75
486.863	106.75
487.081	107.75
487.299	94.75
487.517	98.75
487.735	85.75
487.953	85.75
488.171	89.75
488.389	86.75
488.607	94.75
488.825	79.75
489.043	88.75
489.261	101.75
489.479	83.75
489.696	85.75
489.914	84.75
490.132	91.75
490.35	78.75
490.568	86.75
490.786	92.75
491.003	87.75
491.221	77.75
491.439	92.75
491.657	101.75
491.874	97.75
492.092	74.75
492.31	88.75
492.527	84.75
492.745	76.75
492.963	91.75
493.18	87.75
493.398	102.75
493.615	107.75
493.833	89.75
494.05	74.75
494.268	91.75
494.485	79.75
494.703	89.75
494.92	102.75
495.138	80.75
495.355	99.75
495.573	99.75
495.79	80.75
496.008	96.75
496.225	88.75
496.442	91.75
496.66	91.75
496.877	91.75
497.094	98.75
497.312	91.75
497.529	79.75
497.746	88.75
497.963	92.75
498.181	88.75
498.398	91.75
498.615	86.75
498.832	95.75
499.049	91.75
499.267	83.75
499.484	82.75
499.701	80.75
499.918	93.75
500.135	91.75
500.352	93.75
500.569	91.75
500.786	93.75
501.003	84.75
501.22	83.75
501.437	90.75
501.654	86.75
501.871	107.75
502.088	93.75
502.305	83.75
502.522	91.75
502.739	78.75
502.956	83.75
503.172	83.75
503.389	97.75
503.606	89.75
503.823	91.75
504.04	98.75
504.256	89.75
504.473	96.75
504.69	96.75
504.907	93.75
505.123	82.75
505.34	90.75
505.557	92.75
505.773	87.75
505.99	78.75
506.207	82.75
506.423	82.75
506.64	93.75
506.856	91.75
507.073	89.75
507.289	77.75
507.506	97.75
507.722	105.75
507.939	90.75
508.155	69.75
508.372	90.75
508.588	98.75
508.805	93.75
509.021	95.75
509.238	102.75
509.454	81.75
509.67	94.75
509.887	106.75
510.103	120.75
510.319	185.75
510.536	620.75
510.752	1995.75
510.968	598.75
511.184	154.75
511.401	115.75
511.617	101.75
511.833	93.75
512.049	86.75
512.265	83.75
512.481	88.75
512.698	89.75
512.914	79.75
513.13	95.75
513.346	82.75
513.562	98.75
513.778	86.75
513.994	97.75
514.21	95.75
514.426	95.75
514.642	113.75
514.858	102.75
515.074	148.75
515.29	363.75
515.506	1173.75
515.721	467.75
515.937	129.75
516.153	92.75
516.369	87.75
516.585	80.75
516.801	107.75
