Data from Circ_2010_H10_HRD10591_00008.txt Node
Date: Wed Jan 03 10:09:42 EST 2024
User: Yrep
Spectrometer: HR+D1059
Trigger mode: 1
Integration Time (sec): 1.000000E-1
Scans to average: 1
Electric dark correction enabled: true
Nonlinearity correction enabled: false
Boxcar width: 0
XAxis mode: Wavelengths
Number of Pixels in Spectrum: 2048
>>>>>Begin Spectral Data<<<<<
223.165	-20.31
223.4	-20.31
223.635	-20.31
223.869	-14.31
224.104	-31.31
224.338	-9.31
224.573	-19.31
224.808	-6.31
225.042	-11.31
225.277	-11.31
225.511	7.69
225.746	14.69
225.98	2.69
226.215	6.69
226.449	6.69
226.683	14.69
226.918	32.69
227.152	37.69
227.387	33.69
227.621	31.69
227.856	53.69
228.09	49.69
228.324	42.69
228.559	53.69
228.793	65.69
229.027	58.69
229.262	58.69
229.496	77.69
229.73	74.69
229.964	94.69
230.199	80.69
230.433	62.69
230.667	90.69
230.901	71.69
231.136	83.69
231.37	91.69
231.604	88.69
231.838	73.69
232.072	70.69
232.306	73.69
232.541	75.69
232.775	91.69
233.009	85.69
233.243	82.69
233.477	54.69
233.711	67.69
233.945	76.69
234.179	74.69
234.413	69.69
234.647	78.69
234.881	80.69
235.115	71.69
235.349	75.69
235.583	89.69
235.817	88.69
236.051	83.69
236.285	79.69
236.519	82.69
236.753	94.69
236.987	95.69
237.221	76.69
237.455	93.69
237.689	78.69
237.922	99.69
238.156	77.69
238.39	75.69
238.624	68.69
238.858	70.69
239.091	70.69
239.325	77.69
239.559	75.69
239.793	71.69
240.027	70.69
240.26	81.69
240.494	69.69
240.728	73.69
240.961	76.69
241.195	82.69
241.429	88.69
241.662	75.69
241.896	92.69
242.13	70.69
242.363	91.69
242.597	75.69
242.83	82.69
243.064	76.69
243.298	72.69
243.531	62.69
243.765	83.69
243.998	82.69
244.232	80.69
244.465	76.69
244.699	74.69
244.932	89.69
245.166	80.69
245.399	75.69
245.633	71.69
245.866	78.69
246.099	69.69
246.333	72.69
246.566	86.69
246.8	89.69
247.033	76.69
247.266	86.69
247.5	77.69
247.733	71.69
247.966	96.69
248.2	82.69
248.433	73.69
248.666	79.69
248.899	66.69
249.133	82.69
249.366	94.69
249.599	94.69
249.832	75.69
250.066	89.69
250.299	85.69
250.532	81.69
250.765	76.69
250.998	79.69
251.231	80.69
251.465	79.69
251.698	77.69
251.931	67.69
252.164	88.69
252.397	75.69
252.63	68.69
252.863	77.69
253.096	90.69
253.329	77.69
253.562	70.69
253.795	87.69
254.028	76.69
254.261	81.69
254.494	74.69
254.727	90.69
254.96	86.69
255.193	71.69
255.426	94.69
255.659	80.69
255.892	86.69
256.124	93.69
256.357	75.69
256.59	85.69
256.823	85.69
257.056	81.69
257.289	79.69
257.521	91.69
257.754	87.69
257.987	90.69
258.22	83.69
258.452	83.69
258.685	80.69
258.918	79.69
259.151	76.69
259.383	80.69
259.616	85.69
259.849	90.69
260.081	76.69
260.314	85.69
260.547	99.69
260.779	66.69
261.012	88.69
261.244	74.69
261.477	92.69
261.71	102.69
261.942	116.69
262.175	98.69
262.407	79.69
262.64	90.69
262.872	80.69
263.105	90.69
263.337	86.69
263.57	98.69
263.802	96.69
264.035	74.69
264.267	93.69
264.499	86.69
264.732	92.69
264.964	88.69
265.197	77.69
265.429	71.69
265.661	81.69
265.894	69.69
266.126	92.69
266.358	78.69
266.591	76.69
266.823	81.69
267.055	74.69
267.287	96.69
267.52	82.69
267.752	82.69
267.984	85.69
268.216	85.69
268.448	84.69
268.681	79.69
268.913	86.69
269.145	88.69
269.377	89.69
269.609	68.69
269.841	90.69
270.073	83.69
270.306	89.69
270.538	81.69
270.77	97.69
271.002	87.69
271.234	89.69
271.466	88.69
271.698	77.69
271.93	89.69
272.162	81.69
272.394	97.69
272.626	95.69
272.858	88.69
273.09	91.69
273.322	84.69
273.553	83.69
273.785	78.69
274.017	81.69
274.249	85.69
274.481	92.69
274.713	75.69
274.945	84.69
275.176	89.69
275.408	72.69
275.64	72.69
275.872	92.69
276.104	94.69
276.335	94.69
276.567	112.69
276.799	105.69
277.031	97.69
277.262	104.69
277.494	71.69
277.726	72.69
277.957	85.69
278.189	80.69
278.421	95.69
278.652	84.69
278.884	96.69
279.115	93.69
279.347	97.69
279.579	82.69
279.81	89.69
280.042	88.69
280.273	88.69
280.505	91.69
280.736	101.69
280.968	86.69
281.199	83.69
281.431	86.69
281.662	83.69
281.894	84.69
282.125	97.69
282.356	101.69
282.588	121.69
282.819	105.69
283.051	77.69
283.282	93.69
283.513	92.69
283.745	88.69
283.976	81.69
284.207	96.69
284.439	90.69
284.67	97.69
284.901	85.69
285.132	91.69
285.364	97.69
285.595	88.69
285.826	70.69
286.057	80.69
286.288	79.69
286.52	74.69
286.751	86.69
286.982	102.69
287.213	91.69
287.444	86.69
287.675	94.69
287.906	104.69
288.138	97.69
288.369	89.69
288.6	95.69
288.831	95.69
289.062	80.69
289.293	86.69
289.524	97.69
289.755	91.69
289.986	86.69
290.217	75.69
290.448	91.69
290.679	77.69
290.91	80.69
291.141	88.69
291.371	92.69
291.602	92.69
291.833	88.69
292.064	95.69
292.295	89.69
292.526	76.69
292.757	89.69
292.987	89.69
293.218	89.69
293.449	75.69
293.68	100.69
293.91	87.69
294.141	90.69
294.372	86.69
294.603	80.69
294.833	91.69
295.064	100.69
295.295	97.69
295.525	92.69
295.756	89.69
295.987	111.69
296.217	131.69
296.448	105.69
296.679	85.69
296.909	85.69
297.14	67.69
297.37	96.69
297.601	87.69
297.831	92.69
298.062	96.69
298.292	84.69
298.523	96.69
298.753	80.69
298.984	87.69
299.214	91.69
299.445	94.69
299.675	81.69
299.905	88.69
300.136	86.69
300.366	87.69
300.597	86.69
300.827	90.69
301.057	81.69
301.288	101.69
301.518	88.69
301.748	92.69
301.979	102.69
302.209	104.69
302.439	92.69
302.669	75.69
302.9	87.69
303.13	88.69
303.36	82.69
303.59	99.69
303.82	103.69
304.051	94.69
304.281	93.69
304.511	92.69
304.741	89.69
304.971	82.69
305.201	84.69
305.431	82.69
305.661	84.69
305.891	86.69
306.121	92.69
306.352	102.69
306.582	98.69
306.812	97.69
307.042	94.69
307.272	97.69
307.502	109.69
307.731	94.69
307.961	97.69
308.191	90.69
308.421	101.69
308.651	84.69
308.881	99.69
309.111	101.69
309.341	79.69
309.571	96.69
309.8	87.69
310.03	94.69
310.26	89.69
310.49	103.69
310.72	96.69
310.949	100.69
311.179	95.69
311.409	97.69
311.639	96.69
311.868	88.69
312.098	95.69
312.328	82.69
312.557	91.69
312.787	102.69
313.017	92.69
313.246	95.69
313.476	103.69
313.706	80.69
313.935	89.69
314.165	103.69
314.394	106.69
314.624	103.69
314.853	103.69
315.083	86.69
315.312	85.69
315.542	82.69
315.771	87.69
316.001	99.69
316.23	93.69
316.46	93.69
316.689	83.69
316.919	96.69
317.148	77.69
317.377	93.69
317.607	87.69
317.836	89.69
318.065	95.69
318.295	88.69
318.524	91.69
318.753	86.69
318.983	95.69
319.212	108.69
319.441	103.69
319.67	82.69
319.9	97.69
320.129	80.69
320.358	82.69
320.587	96.69
320.816	104.69
321.046	102.69
321.275	99.69
321.504	92.69
321.733	88.69
321.962	95.69
322.191	89.69
322.42	105.69
322.649	109.69
322.878	101.69
323.108	114.69
323.337	119.69
323.566	126.69
323.795	140.69
324.024	195.69
324.253	337.69
324.482	681.69
324.71	1359.69
324.939	1791.69
325.168	679.69
325.397	198.69
325.626	141.69
325.855	130.69
326.084	133.69
326.313	117.69
326.542	149.69
326.77	214.69
326.999	387.69
327.228	765.69
327.457	1348.69
327.686	1078.69
327.914	320.69
328.143	178.69
328.372	132.69
328.6	131.69
328.829	120.69
329.058	112.69
329.287	120.69
329.515	107.69
329.744	100.69
329.972	116.69
330.201	136.69
330.43	162.69
330.658	121.69
330.887	119.69
331.115	105.69
331.344	99.69
331.572	105.69
331.801	99.69
332.03	102.69
332.258	89.69
332.486	91.69
332.715	84.69
332.943	103.69
333.172	107.69
333.4	89.69
333.629	101.69
333.857	101.69
334.085	119.69
334.314	133.69
334.542	170.69
334.771	167.69
334.999	97.69
335.227	109.69
335.455	81.69
335.684	113.69
335.912	87.69
336.14	92.69
336.369	89.69
336.597	96.69
336.825	97.69
337.053	112.69
337.281	93.69
337.51	101.69
337.738	97.69
337.966	92.69
338.194	86.69
338.422	88.69
338.65	96.69
338.878	90.69
339.106	79.69
339.334	96.69
339.562	100.69
339.79	77.69
340.018	98.69
340.246	104.69
340.474	90.69
340.702	97.69
340.93	87.69
341.158	113.69
341.386	107.69
341.614	106.69
341.842	101.69
342.07	107.69
342.298	97.69
342.526	89.69
342.754	98.69
342.981	88.69
343.209	93.69
343.437	87.69
343.665	89.69
343.893	91.69
344.12	96.69
344.348	101.69
344.576	96.69
344.804	107.69
345.031	101.69
345.259	96.69
345.487	98.69
345.714	104.69
345.942	90.69
346.17	99.69
346.397	105.69
346.625	96.69
346.853	98.69
347.08	99.69
347.308	97.69
347.535	79.69
347.763	109.69
347.99	96.69
348.218	97.69
348.445	82.69
348.673	95.69
348.9	93.69
349.128	100.69
349.355	90.69
349.583	91.69
349.81	94.69
350.037	95.69
350.265	82.69
350.492	97.69
350.72	96.69
350.947	105.69
351.174	105.69
351.402	119.69
351.629	112.69
351.856	109.69
352.083	100.69
352.311	114.69
352.538	99.69
352.765	105.69
352.992	97.69
353.22	106.69
353.447	89.69
353.674	104.69
353.901	103.69
354.128	94.69
354.355	88.69
354.583	98.69
354.81	81.69
355.037	99.69
355.264	108.69
355.491	86.69
355.718	97.69
355.945	95.69
356.172	91.69
356.399	107.69
356.626	80.69
356.853	96.69
357.08	95.69
357.307	94.69
357.534	93.69
357.761	89.69
357.988	93.69
358.215	100.69
358.441	92.69
358.668	90.69
358.895	100.69
359.122	84.69
359.349	101.69
359.576	98.69
359.802	106.69
360.029	109.69
360.256	97.69
360.483	111.69
360.709	90.69
360.936	96.69
361.163	96.69
361.39	96.69
361.616	104.69
361.843	87.69
362.07	93.69
362.296	85.69
362.523	105.69
362.749	92.69
362.976	97.69
363.203	95.69
363.429	84.69
363.656	105.69
363.882	88.69
364.109	97.69
364.335	94.69
364.562	79.69
364.788	88.69
365.015	93.69
365.241	103.69
365.468	115.69
365.694	100.69
365.92	90.69
366.147	95.69
366.373	82.69
366.599	97.69
366.826	81.69
367.052	84.69
367.278	97.69
367.505	98.69
367.731	99.69
367.957	92.69
368.184	83.69
368.41	104.69
368.636	92.69
368.862	116.69
369.089	107.69
369.315	98.69
369.541	97.69
369.767	85.69
369.993	85.69
370.219	96.69
370.445	98.69
370.672	88.69
370.898	81.69
371.124	82.69
371.35	94.69
371.576	79.69
371.802	91.69
372.028	85.69
372.254	94.69
372.48	100.69
372.706	86.69
372.932	104.69
373.158	96.69
373.384	92.69
373.61	93.69
373.835	97.69
374.061	77.69
374.287	94.69
374.513	92.69
374.739	92.69
374.965	83.69
375.191	96.69
375.416	84.69
375.642	91.69
375.868	90.69
376.094	83.69
376.319	92.69
376.545	90.69
376.771	98.69
376.997	95.69
377.222	94.69
377.448	100.69
377.674	88.69
377.899	101.69
378.125	91.69
378.35	93.69
378.576	88.69
378.802	91.69
379.027	93.69
379.253	103.69
379.478	96.69
379.704	97.69
379.929	98.69
380.155	101.69
380.38	106.69
380.606	97.69
380.831	91.69
381.057	120.69
381.282	119.69
381.507	97.69
381.733	98.69
381.958	91.69
382.184	84.69
382.409	108.69
382.634	105.69
382.86	98.69
383.085	95.69
383.31	115.69
383.535	107.69
383.761	103.69
383.986	106.69
384.211	117.69
384.436	96.69
384.662	101.69
384.887	106.69
385.112	101.69
385.337	111.69
385.562	106.69
385.787	102.69
386.013	106.69
386.238	112.69
386.463	101.69
386.688	100.69
386.913	105.69
387.138	106.69
387.363	109.69
387.588	103.69
387.813	102.69
388.038	119.69
388.263	122.69
388.488	108.69
388.713	95.69
388.938	95.69
389.163	89.69
389.387	102.69
389.612	98.69
389.837	90.69
390.062	96.69
390.287	97.69
390.512	88.69
390.736	90.69
390.961	79.69
391.186	84.69
391.411	101.69
391.636	93.69
391.86	96.69
392.085	91.69
392.31	102.69
392.534	96.69
392.759	94.69
392.984	104.69
393.208	93.69
393.433	130.69
393.658	105.69
393.882	101.69
394.107	93.69
394.331	76.69
394.556	84.69
394.78	86.69
395.005	88.69
395.229	85.69
395.454	91.69
395.678	89.69
395.903	77.69
396.127	81.69
396.352	90.69
396.576	86.69
396.801	110.69
397.025	105.69
397.249	104.69
397.474	106.69
397.698	90.69
397.922	74.69
398.147	85.69
398.371	83.69
398.595	76.69
398.82	90.69
399.044	88.69
399.268	96.69
399.492	90.69
399.717	89.69
399.941	103.69
400.165	83.69
400.389	92.69
400.613	85.69
400.837	77.69
401.062	81.69
401.286	86.69
401.51	91.69
401.734	81.69
401.958	96.69
402.182	125.69
402.406	155.69
402.63	105.69
402.854	93.69
403.078	97.69
403.302	84.69
403.526	85.69
403.75	85.69
403.974	91.69
404.198	86.69
404.422	79.69
404.645	99.69
404.869	98.69
405.093	94.69
405.317	108.69
405.541	93.69
405.765	93.69
405.988	101.69
406.212	138.69
406.436	189.69
406.66	119.69
406.883	105.69
407.107	95.69
407.331	97.69
407.555	93.69
407.778	99.69
408.002	91.69
408.226	84.69
408.449	94.69
408.673	83.69
408.896	82.69
409.12	95.69
409.344	92.69
409.567	105.69
409.791	83.69
410.014	90.69
410.238	78.69
410.461	97.69
410.685	87.69
410.908	110.69
411.132	116.69
411.355	97.69
411.578	88.69
411.802	92.69
412.025	89.69
412.249	92.69
412.472	92.69
412.695	86.69
412.919	79.69
413.142	100.69
413.365	76.69
413.589	98.69
413.812	79.69
414.035	88.69
414.258	87.69
414.482	74.69
414.705	86.69
414.928	89.69
415.151	93.69
415.374	88.69
415.597	86.69
415.821	74.69
416.044	77.69
416.267	91.69
416.49	75.69
416.713	92.69
416.936	101.69
417.159	91.69
417.382	89.69
417.605	94.69
417.828	80.69
418.051	94.69
418.274	89.69
418.497	99.69
418.72	98.69
418.943	86.69
419.166	88.69
419.389	87.69
419.611	87.69
419.834	84.69
420.057	86.69
420.28	91.69
420.503	89.69
420.726	93.69
420.948	78.69
421.171	105.69
421.394	87.69
421.617	80.69
421.839	86.69
422.062	88.69
422.285	97.69
422.507	94.69
422.73	89.69
422.953	85.69
423.175	87.69
423.398	88.69
423.621	86.69
423.843	77.69
424.066	88.69
424.288	92.69
424.511	106.69
424.733	100.69
424.956	97.69
425.178	91.69
425.401	86.69
425.623	100.69
425.846	92.69
426.068	89.69
426.291	77.69
426.513	87.69
426.735	95.69
426.958	94.69
427.18	107.69
427.402	132.69
427.625	144.69
427.847	132.69
428.069	103.69
428.292	95.69
428.514	93.69
428.736	82.69
428.958	103.69
429.181	86.69
429.403	96.69
429.625	90.69
429.847	88.69
430.069	98.69
430.292	88.69
430.514	91.69
430.736	83.69
430.958	69.69
431.18	86.69
431.402	85.69
431.624	82.69
431.846	77.69
432.068	76.69
432.29	79.69
432.512	87.69
432.734	88.69
432.956	92.69
433.178	87.69
433.4	101.69
433.622	97.69
433.844	93.69
434.066	104.69
434.287	84.69
434.509	85.69
434.731	89.69
434.953	77.69
435.175	89.69
435.397	105.69
435.618	80.69
435.84	95.69
436.062	119.69
436.284	110.69
436.505	99.69
436.727	103.69
436.949	108.69
437.17	103.69
437.392	90.69
437.614	106.69
437.835	108.69
438.057	116.69
438.278	98.69
438.5	93.69
438.721	107.69
438.943	97.69
439.165	100.69
439.386	90.69
439.608	86.69
439.829	111.69
440.05	105.69
440.272	132.69
440.493	93.69
440.715	93.69
440.936	78.69
441.158	86.69
441.379	94.69
441.6	92.69
441.822	85.69
442.043	88.69
442.264	107.69
442.486	90.69
442.707	94.69
442.928	97.69
443.149	121.69
443.371	120.69
443.592	102.69
443.813	107.69
444.034	96.69
444.255	94.69
444.476	84.69
444.698	81.69
444.919	89.69
445.14	136.69
445.361	129.69
445.582	111.69
445.803	136.69
446.024	112.69
446.245	115.69
446.466	117.69
446.687	104.69
446.908	95.69
447.129	90.69
447.35	79.69
447.571	90.69
447.792	99.69
448.013	102.69
448.234	111.69
448.455	90.69
448.675	106.69
448.896	104.69
449.117	101.69
449.338	91.69
449.559	102.69
449.779	111.69
450	96.69
450.221	90.69
450.442	88.69
450.662	95.69
450.883	105.69
451.104	105.69
451.324	96.69
451.545	98.69
451.766	88.69
451.986	95.69
452.207	95.69
452.428	108.69
452.648	103.69
452.869	110.69
453.089	124.69
453.31	119.69
453.53	93.69
453.751	87.69
453.971	103.69
454.192	102.69
454.412	91.69
454.633	86.69
454.853	95.69
455.073	83.69
455.294	71.69
455.514	99.69
455.734	92.69
455.955	89.69
456.175	74.69
456.395	86.69
456.616	79.69
456.836	81.69
457.056	94.69
457.276	87.69
457.497	85.69
457.717	83.69
457.937	92.69
458.157	90.69
458.377	112.69
458.598	109.69
458.818	137.69
459.038	137.69
459.258	104.69
459.478	86.69
459.698	79.69
459.918	80.69
460.138	82.69
460.358	90.69
460.578	84.69
460.798	97.69
461.018	87.69
461.238	94.69
461.458	81.69
461.678	82.69
461.898	86.69
462.118	89.69
462.338	71.69
462.558	99.69
462.777	96.69
462.997	96.69
463.217	101.69
463.437	80.69
463.657	95.69
463.876	92.69
464.096	95.69
464.316	82.69
464.536	100.69
464.755	93.69
464.975	93.69
465.195	152.69
465.414	136.69
465.634	100.69
465.854	82.69
466.073	93.69
466.293	85.69
466.512	86.69
466.732	86.69
466.951	82.69
467.171	95.69
467.391	90.69
467.61	112.69
467.829	116.69
468.049	109.69
468.268	116.69
468.488	90.69
468.707	93.69
468.927	76.69
469.146	87.69
469.365	91.69
469.585	97.69
469.804	101.69
470.023	84.69
470.243	89.69
470.462	91.69
470.681	102.69
470.901	87.69
471.12	94.69
471.339	93.69
471.558	93.69
471.777	85.69
471.997	97.69
472.216	143.69
472.435	194.69
472.654	120.69
472.873	93.69
473.092	93.69
473.311	88.69
473.53	91.69
473.749	88.69
473.968	90.69
474.187	100.69
474.406	92.69
474.625	97.69
474.844	92.69
475.063	82.69
475.282	94.69
475.501	90.69
475.72	93.69
475.939	70.69
476.158	79.69
476.377	81.69
476.596	86.69
476.814	91.69
477.033	98.69
477.252	94.69
477.471	99.69
477.69	110.69
477.908	93.69
478.127	93.69
478.346	88.69
478.564	93.69
478.783	85.69
479.002	97.69
479.22	73.69
479.439	93.69
479.658	97.69
479.876	98.69
480.095	97.69
480.313	84.69
480.532	100.69
480.751	108.69
480.969	154.69
481.188	299.69
481.406	216.69
481.624	95.69
481.843	78.69
482.061	96.69
482.28	101.69
482.498	88.69
482.717	98.69
482.935	80.69
483.153	76.69
483.372	83.69
483.59	80.69
483.808	94.69
484.027	91.69
484.245	77.69
484.463	89.69
484.681	87.69
484.9	91.69
485.118	105.69
485.336	97.69
485.554	88.69
485.772	103.69
485.99	102.69
486.209	95.69
486.427	112.69
486.645	116.69
486.863	116.69
487.081	91.69
487.299	89.69
487.517	97.69
487.735	97.69
487.953	95.69
488.171	101.69
488.389	107.69
488.607	108.69
488.825	93.69
489.043	93.69
489.261	90.69
489.479	88.69
489.696	88.69
489.914	90.69
490.132	93.69
490.35	97.69
490.568	94.69
490.786	81.69
491.003	99.69
491.221	73.69
491.439	77.69
491.657	93.69
491.874	97.69
492.092	80.69
492.31	81.69
492.527	82.69
492.745	95.69
492.963	93.69
493.18	88.69
493.398	88.69
493.615	91.69
493.833	74.69
494.05	85.69
494.268	92.69
494.485	93.69
494.703	87.69
494.92	91.69
495.138	87.69
495.355	89.69
495.573	89.69
495.79	83.69
496.008	96.69
496.225	101.69
496.442	74.69
496.66	93.69
496.877	79.69
497.094	91.69
497.312	82.69
497.529	88.69
497.746	99.69
497.963	85.69
498.181	88.69
498.398	104.69
498.615	109.69
498.832	94.69
499.049	104.69
499.267	83.69
499.484	92.69
499.701	93.69
499.918	89.69
500.135	85.69
500.352	85.69
500.569	89.69
500.786	87.69
501.003	90.69
501.22	93.69
501.437	79.69
501.654	89.69
501.871	92.69
502.088	87.69
502.305	89.69
502.522	98.69
502.739	85.69
502.956	95.69
503.172	86.69
503.389	88.69
503.606	97.69
503.823	101.69
504.04	104.69
504.256	96.69
504.473	88.69
504.69	93.69
504.907	99.69
505.123	88.69
505.34	85.69
505.557	89.69
505.773	81.69
505.99	87.69
506.207	92.69
506.423	90.69
506.64	94.69
506.856	90.69
507.073	85.69
507.289	84.69
507.506	114.69
507.722	95.69
507.939	107.69
508.155	97.69
508.372	90.69
508.588	90.69
508.805	91.69
509.021	83.69
509.238	107.69
509.454	91.69
509.67	99.69
509.887	101.69
510.103	121.69
510.319	191.69
510.536	616.69
510.752	1972.69
510.968	589.69
511.184	144.69
511.401	95.69
511.617	93.69
511.833	85.69
512.049	90.69
512.265	82.69
512.481	91.69
512.698	82.69
512.914	87.69
513.13	86.69
513.346	88.69
513.562	76.69
513.778	91.69
513.994	97.69
514.21	97.69
514.426	96.69
514.642	115.69
514.858	125.69
515.074	138.69
515.29	372.69
515.506	1217.69
515.721	476.69
