Data from Circ_2010_H10_HRD10591_00097.txt Node
Date: Wed Jan 03 10:10:00 EST 2024
User: Yrep
Spectrometer: HR+D1059
Trigger mode: 1
Integration Time (sec): 1.000000E-1
Scans to average: 1
Electric dark correction enabled: true
Nonlinearity correction enabled: false
Boxcar width: 0
XAxis mode: Wavelengths
Number of Pixels in Spectrum: 2048
>>>>>Begin Spectral Data<<<<<
223.165	-16.19
223.4	-16.19
223.635	-16.19
223.869	-28.19
224.104	-16.19
224.338	-6.19
224.573	-6.19
224.808	-9.19
225.042	-12.19
225.277	-10.19
225.511	-11.19
225.746	11.81
225.98	15.81
226.215	1.81
226.449	11.81
226.683	26.81
226.918	21.81
227.152	25.81
227.387	44.81
227.621	42.81
227.856	53.81
228.09	24.81
228.324	40.81
228.559	39.81
228.793	55.81
229.027	57.81
229.262	66.81
229.496	68.81
229.73	76.81
229.964	75.81
230.199	62.81
230.433	81.81
230.667	74.81
230.901	72.81
231.136	73.81
231.37	76.81
231.604	88.81
231.838	73.81
232.072	76.81
232.306	79.81
232.541	72.81
232.775	75.81
233.009	78.81
233.243	84.81
233.477	89.81
233.711	76.81
233.945	84.81
234.179	96.81
234.413	90.81
234.647	69.81
234.881	82.81
235.115	88.81
235.349	70.81
235.583	80.81
235.817	86.81
236.051	88.81
236.285	85.81
236.519	85.81
236.753	63.81
236.987	83.81
237.221	87.81
237.455	91.81
237.689	87.81
237.922	79.81
238.156	80.81
238.39	75.81
238.624	80.81
238.858	72.81
239.091	82.81
239.325	74.81
239.559	70.81
239.793	74.81
240.027	79.81
240.26	76.81
240.494	75.81
240.728	89.81
240.961	72.81
241.195	71.81
241.429	87.81
241.662	73.81
241.896	73.81
242.13	69.81
242.363	72.81
242.597	63.81
242.83	86.81
243.064	82.81
243.298	77.81
243.531	83.81
243.765	82.81
243.998	77.81
244.232	66.81
244.465	85.81
244.699	80.81
244.932	81.81
245.166	76.81
245.399	70.81
245.633	79.81
245.866	97.81
246.099	80.81
246.333	91.81
246.566	86.81
246.8	82.81
247.033	85.81
247.266	74.81
247.5	72.81
247.733	80.81
247.966	80.81
248.2	66.81
248.433	68.81
248.666	84.81
248.899	101.81
249.133	92.81
249.366	95.81
249.599	101.81
249.832	85.81
250.066	81.81
250.299	83.81
250.532	80.81
250.765	86.81
250.998	86.81
251.231	77.81
251.465	90.81
251.698	72.81
251.931	72.81
252.164	72.81
252.397	80.81
252.63	74.81
252.863	85.81
253.096	83.81
253.329	86.81
253.562	83.81
253.795	81.81
254.028	81.81
254.261	84.81
254.494	75.81
254.727	88.81
254.96	89.81
255.193	68.81
255.426	76.81
255.659	91.81
255.892	87.81
256.124	92.81
256.357	80.81
256.59	83.81
256.823	65.81
257.056	86.81
257.289	92.81
257.521	80.81
257.754	90.81
257.987	85.81
258.22	68.81
258.452	82.81
258.685	77.81
258.918	92.81
259.151	84.81
259.383	75.81
259.616	78.81
259.849	81.81
260.081	88.81
260.314	85.81
260.547	82.81
260.779	76.81
261.012	96.81
261.244	85.81
261.477	90.81
261.71	86.81
261.942	91.81
262.175	98.81
262.407	93.81
262.64	84.81
262.872	74.81
263.105	88.81
263.337	75.81
263.57	80.81
263.802	80.81
264.035	68.81
264.267	76.81
264.499	91.81
264.732	83.81
264.964	85.81
265.197	71.81
265.429	75.81
265.661	88.81
265.894	84.81
266.126	80.81
266.358	88.81
266.591	85.81
266.823	75.81
267.055	74.81
267.287	93.81
267.52	96.81
267.752	68.81
267.984	80.81
268.216	71.81
268.448	66.81
268.681	85.81
268.913	92.81
269.145	93.81
269.377	92.81
269.609	88.81
269.841	86.81
270.073	73.81
270.306	93.81
270.538	68.81
270.77	64.81
271.002	97.81
271.234	91.81
271.466	74.81
271.698	90.81
271.93	77.81
272.162	91.81
272.394	88.81
272.626	88.81
272.858	84.81
273.09	91.81
273.322	72.81
273.553	78.81
273.785	78.81
274.017	68.81
274.249	78.81
274.481	76.81
274.713	78.81
274.945	88.81
275.176	86.81
275.408	79.81
275.64	84.81
275.872	85.81
276.104	86.81
276.335	92.81
276.567	92.81
276.799	100.81
277.031	104.81
277.262	111.81
277.494	93.81
277.726	82.81
277.957	89.81
278.189	77.81
278.421	84.81
278.652	78.81
278.884	86.81
279.115	89.81
279.347	92.81
279.579	77.81
279.81	94.81
280.042	97.81
280.273	111.81
280.505	86.81
280.736	84.81
280.968	80.81
281.199	74.81
281.431	87.81
281.662	93.81
281.894	81.81
282.125	104.81
282.356	105.81
282.588	119.81
282.819	97.81
283.051	84.81
283.282	92.81
283.513	86.81
283.745	82.81
283.976	82.81
284.207	92.81
284.439	82.81
284.67	90.81
284.901	91.81
285.132	79.81
285.364	82.81
285.595	79.81
285.826	76.81
286.057	91.81
286.288	83.81
286.52	89.81
286.751	88.81
286.982	71.81
287.213	76.81
287.444	92.81
287.675	97.81
287.906	80.81
288.138	90.81
288.369	93.81
288.6	87.81
288.831	73.81
289.062	85.81
289.293	74.81
289.524	91.81
289.755	91.81
289.986	78.81
290.217	78.81
290.448	81.81
290.679	93.81
290.91	88.81
291.141	65.81
291.371	101.81
291.602	88.81
291.833	69.81
292.064	88.81
292.295	96.81
292.526	85.81
292.757	75.81
292.987	96.81
293.218	96.81
293.449	86.81
293.68	93.81
293.91	94.81
294.141	82.81
294.372	73.81
294.603	98.81
294.833	94.81
295.064	96.81
295.295	108.81
295.525	85.81
295.756	104.81
295.987	89.81
296.217	106.81
296.448	99.81
296.679	85.81
296.909	82.81
297.14	86.81
297.37	67.81
297.601	86.81
297.831	79.81
298.062	79.81
298.292	84.81
298.523	78.81
298.753	85.81
298.984	84.81
299.214	80.81
299.445	95.81
299.675	104.81
299.905	90.81
300.136	83.81
300.366	87.81
300.597	100.81
300.827	93.81
301.057	101.81
301.288	87.81
301.518	91.81
301.748	89.81
301.979	97.81
302.209	96.81
302.439	85.81
302.669	86.81
302.9	74.81
303.13	104.81
303.36	96.81
303.59	84.81
303.82	86.81
304.051	96.81
304.281	85.81
304.511	90.81
304.741	88.81
304.971	80.81
305.201	81.81
305.431	89.81
305.661	98.81
305.891	82.81
306.121	68.81
306.352	96.81
306.582	93.81
306.812	92.81
307.042	100.81
307.272	103.81
307.502	110.81
307.731	91.81
307.961	79.81
308.191	83.81
308.421	81.81
308.651	94.81
308.881	91.81
309.111	73.81
309.341	92.81
309.571	89.81
309.8	97.81
310.03	115.81
310.26	94.81
310.49	94.81
310.72	102.81
310.949	91.81
311.179	99.81
311.409	90.81
311.639	91.81
311.868	95.81
312.098	92.81
312.328	95.81
312.557	105.81
312.787	104.81
313.017	104.81
313.246	104.81
313.476	84.81
313.706	92.81
313.935	88.81
314.165	88.81
314.394	99.81
314.624	94.81
314.853	84.81
315.083	95.81
315.312	94.81
315.542	95.81
315.771	88.81
316.001	79.81
316.23	87.81
316.46	88.81
316.689	79.81
316.919	93.81
317.148	89.81
317.377	86.81
317.607	102.81
317.836	78.81
318.065	88.81
318.295	98.81
318.524	86.81
318.753	93.81
318.983	96.81
319.212	82.81
319.441	90.81
319.67	88.81
319.9	87.81
320.129	97.81
320.358	101.81
320.587	90.81
320.816	93.81
321.046	105.81
321.275	97.81
321.504	96.81
321.733	101.81
321.962	89.81
322.191	95.81
322.42	94.81
322.649	108.81
322.878	105.81
323.108	120.81
323.337	109.81
323.566	121.81
323.795	139.81
324.024	199.81
324.253	369.81
324.482	733.81
324.71	1454.81
324.939	1928.81
325.168	698.81
325.397	228.81
325.626	134.81
325.855	117.81
326.084	119.81
326.313	139.81
326.542	164.81
326.77	208.81
326.999	428.81
327.228	864.81
327.457	1509.81
327.686	1170.81
327.914	332.81
328.143	216.81
328.372	207.81
328.6	154.81
328.829	119.81
329.058	109.81
329.287	122.81
329.515	106.81
329.744	121.81
329.972	158.81
330.201	251.81
330.43	308.81
330.658	175.81
330.887	134.81
331.115	128.81
331.344	100.81
331.572	109.81
331.801	112.81
332.03	95.81
332.258	92.81
332.486	81.81
332.715	103.81
332.943	96.81
333.172	104.81
333.4	93.81
333.629	106.81
333.857	132.81
334.085	163.81
334.314	260.81
334.542	400.81
334.771	346.81
334.999	159.81
335.227	100.81
335.455	94.81
335.684	96.81
335.912	93.81
336.14	85.81
336.369	84.81
336.597	95.81
336.825	91.81
337.053	91.81
337.281	96.81
337.51	77.81
337.738	99.81
337.966	81.81
338.194	112.81
338.422	86.81
338.65	83.81
338.878	96.81
339.106	81.81
339.334	78.81
339.562	92.81
339.79	100.81
340.018	96.81
340.246	89.81
340.474	98.81
340.702	116.81
340.93	90.81
341.158	86.81
341.386	93.81
341.614	104.81
341.842	89.81
342.07	96.81
342.298	82.81
342.526	82.81
342.754	103.81
342.981	91.81
343.209	67.81
343.437	97.81
343.665	89.81
343.893	96.81
344.12	88.81
344.348	90.81
344.576	89.81
344.804	100.81
345.031	98.81
345.259	96.81
345.487	91.81
345.714	84.81
345.942	94.81
346.17	90.81
346.397	82.81
346.625	89.81
346.853	93.81
347.08	84.81
347.308	91.81
347.535	89.81
347.763	101.81
347.99	103.81
348.218	97.81
348.445	109.81
348.673	99.81
348.9	97.81
349.128	90.81
349.355	93.81
349.583	89.81
349.81	92.81
350.037	96.81
350.265	95.81
350.492	97.81
350.72	106.81
350.947	81.81
351.174	107.81
351.402	117.81
351.629	105.81
351.856	108.81
352.083	88.81
352.311	99.81
352.538	103.81
352.765	107.81
352.992	106.81
353.22	104.81
353.447	99.81
353.674	92.81
353.901	89.81
354.128	96.81
354.355	87.81
354.583	88.81
354.81	97.81
355.037	97.81
355.264	110.81
355.491	87.81
355.718	94.81
355.945	82.81
356.172	98.81
356.399	88.81
356.626	92.81
356.853	92.81
357.08	85.81
357.307	82.81
357.534	100.81
357.761	107.81
357.988	91.81
358.215	94.81
358.441	94.81
358.668	96.81
358.895	80.81
359.122	97.81
359.349	82.81
359.576	94.81
359.802	98.81
360.029	112.81
360.256	113.81
360.483	100.81
360.709	96.81
360.936	94.81
361.163	81.81
361.39	97.81
361.616	88.81
361.843	93.81
362.07	95.81
362.296	104.81
362.523	84.81
362.749	87.81
362.976	93.81
363.203	86.81
363.429	93.81
363.656	86.81
363.882	85.81
364.109	103.81
364.335	95.81
364.562	88.81
364.788	82.81
365.015	94.81
365.241	87.81
365.468	116.81
365.694	106.81
365.92	104.81
366.147	85.81
366.373	96.81
366.599	92.81
366.826	81.81
367.052	95.81
367.278	91.81
367.505	87.81
367.731	93.81
367.957	107.81
368.184	94.81
368.41	95.81
368.636	98.81
368.862	116.81
369.089	88.81
369.315	100.81
369.541	81.81
369.767	87.81
369.993	94.81
370.219	92.81
370.445	81.81
370.672	97.81
370.898	87.81
371.124	89.81
371.35	89.81
371.576	79.81
371.802	99.81
372.028	88.81
372.254	102.81
372.48	81.81
372.706	97.81
372.932	78.81
373.158	97.81
373.384	100.81
373.61	82.81
373.835	98.81
374.061	102.81
374.287	92.81
374.513	82.81
374.739	87.81
374.965	76.81
375.191	84.81
375.416	97.81
375.642	99.81
375.868	100.81
376.094	89.81
376.319	89.81
376.545	90.81
376.771	94.81
376.997	81.81
377.222	76.81
377.448	78.81
377.674	87.81
377.899	93.81
378.125	75.81
378.35	91.81
378.576	84.81
378.802	94.81
379.027	96.81
379.253	107.81
379.478	94.81
379.704	106.81
379.929	105.81
380.155	96.81
380.38	93.81
380.606	94.81
380.831	94.81
381.057	103.81
381.282	89.81
381.507	94.81
381.733	107.81
381.958	94.81
382.184	99.81
382.409	100.81
382.634	99.81
382.86	111.81
383.085	93.81
383.31	109.81
383.535	95.81
383.761	75.81
383.986	94.81
384.211	97.81
384.436	93.81
384.662	111.81
384.887	96.81
385.112	94.81
385.337	104.81
385.562	94.81
385.787	86.81
386.013	102.81
386.238	114.81
386.463	104.81
386.688	100.81
386.913	88.81
387.138	105.81
387.363	103.81
387.588	97.81
387.813	88.81
388.038	96.81
388.263	99.81
388.488	104.81
388.713	101.81
388.938	105.81
389.163	105.81
389.387	114.81
389.612	96.81
389.837	88.81
390.062	97.81
390.287	108.81
390.512	96.81
390.736	96.81
390.961	96.81
391.186	81.81
391.411	97.81
391.636	98.81
391.86	91.81
392.085	78.81
392.31	78.81
392.534	85.81
392.759	85.81
392.984	101.81
393.208	75.81
393.433	95.81
393.658	87.81
393.882	78.81
394.107	86.81
394.331	98.81
394.556	79.81
394.78	82.81
395.005	89.81
395.229	85.81
395.454	88.81
395.678	80.81
395.903	69.81
396.127	95.81
396.352	97.81
396.576	84.81
396.801	80.81
397.025	84.81
397.249	84.81
397.474	73.81
397.698	92.81
397.922	90.81
398.147	77.81
398.371	98.81
398.595	93.81
398.82	86.81
399.044	96.81
399.268	109.81
399.492	66.81
399.717	93.81
399.941	86.81
400.165	87.81
400.389	102.81
400.613	94.81
400.837	112.81
401.062	74.81
401.286	98.81
401.51	75.81
401.734	100.81
401.958	105.81
402.182	100.81
402.406	145.81
402.63	121.81
402.854	89.81
403.078	96.81
403.302	94.81
403.526	78.81
403.75	99.81
403.974	79.81
404.198	76.81
404.422	102.81
404.645	94.81
404.869	103.81
405.093	94.81
405.317	104.81
405.541	101.81
405.765	89.81
405.988	109.81
406.212	144.81
406.436	176.81
406.66	119.81
406.883	96.81
407.107	102.81
407.331	92.81
407.555	82.81
407.778	94.81
408.002	92.81
408.226	98.81
408.449	93.81
408.673	90.81
408.896	76.81
409.12	102.81
409.344	93.81
409.567	91.81
409.791	91.81
410.014	100.81
410.238	88.81
410.461	89.81
410.685	100.81
410.908	98.81
411.132	90.81
411.355	104.81
411.578	102.81
411.802	88.81
412.025	93.81
412.249	89.81
412.472	95.81
412.695	101.81
412.919	97.81
413.142	94.81
413.365	88.81
413.589	92.81
413.812	92.81
414.035	98.81
414.258	79.81
414.482	100.81
414.705	102.81
414.928	95.81
415.151	101.81
415.374	98.81
415.597	84.81
415.821	105.81
416.044	88.81
416.267	82.81
416.49	80.81
416.713	77.81
416.936	81.81
417.159	83.81
417.382	92.81
417.605	93.81
417.828	89.81
418.051	104.81
418.274	90.81
418.497	86.81
418.72	87.81
418.943	101.81
419.166	95.81
419.389	81.81
419.611	76.81
419.834	85.81
420.057	87.81
420.28	87.81
420.503	101.81
420.726	94.81
420.948	95.81
421.171	88.81
421.394	88.81
421.617	89.81
421.839	72.81
422.062	92.81
422.285	99.81
422.507	96.81
422.73	84.81
422.953	88.81
423.175	85.81
423.398	98.81
423.621	92.81
423.843	87.81
424.066	88.81
424.288	83.81
424.511	79.81
424.733	93.81
424.956	106.81
425.178	84.81
425.401	90.81
425.623	99.81
425.846	95.81
426.068	89.81
426.291	89.81
426.513	93.81
426.735	84.81
426.958	93.81
427.18	86.81
427.402	128.81
427.625	161.81
427.847	143.81
428.069	136.81
428.292	105.81
428.514	102.81
428.736	81.81
428.958	81.81
429.181	87.81
429.403	92.81
429.625	82.81
429.847	95.81
430.069	93.81
430.292	85.81
430.514	92.81
430.736	85.81
430.958	85.81
431.18	90.81
431.402	65.81
431.624	84.81
431.846	77.81
432.068	91.81
432.29	89.81
432.512	93.81
432.734	90.81
432.956	87.81
433.178	85.81
433.4	102.81
433.622	93.81
433.844	103.81
434.066	99.81
434.287	73.81
434.509	83.81
434.731	79.81
434.953	91.81
435.175	78.81
435.397	96.81
435.618	94.81
435.84	115.81
436.062	111.81
436.284	112.81
436.505	93.81
436.727	101.81
436.949	101.81
437.17	75.81
437.392	81.81
437.614	101.81
437.835	107.81
438.057	111.81
438.278	100.81
438.5	94.81
438.721	124.81
438.943	96.81
439.165	95.81
439.386	100.81
439.608	80.81
439.829	96.81
440.05	112.81
440.272	134.81
440.493	94.81
440.715	103.81
440.936	89.81
441.158	73.81
441.379	85.81
441.6	99.81
441.822	96.81
442.043	96.81
442.264	109.81
442.486	107.81
442.707	98.81
442.928	97.81
443.149	109.81
443.371	121.81
443.592	88.81
443.813	112.81
444.034	97.81
444.255	93.81
444.476	84.81
444.698	89.81
444.919	95.81
445.14	140.81
445.361	139.81
445.582	112.81
445.803	123.81
446.024	120.81
446.245	113.81
446.466	94.81
446.687	77.81
446.908	96.81
447.129	92.81
447.35	80.81
447.571	76.81
447.792	85.81
448.013	105.81
448.234	86.81
448.455	84.81
448.675	119.81
448.896	107.81
449.117	98.81
449.338	109.81
449.559	137.81
449.779	130.81
450	108.81
450.221	91.81
450.442	85.81
450.662	82.81
450.883	116.81
451.104	107.81
451.324	95.81
451.545	91.81
451.766	91.81
451.986	74.81
452.207	84.81
452.428	87.81
452.648	86.81
452.869	93.81
453.089	90.81
453.31	103.81
453.53	97.81
453.751	85.81
453.971	112.81
454.192	111.81
454.412	78.81
454.633	85.81
454.853	96.81
455.073	99.81
455.294	97.81
455.514	91.81
455.734	83.81
455.955	80.81
456.175	94.81
456.395	77.81
456.616	96.81
456.836	89.81
457.056	79.81
457.276	88.81
457.497	94.81
457.717	105.81
457.937	83.81
458.157	88.81
458.377	95.81
458.598	106.81
458.818	122.81
459.038	141.81
459.258	118.81
459.478	87.81
459.698	84.81
459.918	78.81
460.138	82.81
460.358	75.81
460.578	92.81
460.798	86.81
461.018	86.81
461.238	84.81
461.458	80.81
461.678	79.81
461.898	95.81
462.118	82.81
462.338	102.81
462.558	89.81
462.777	62.81
462.997	90.81
463.217	89.81
463.437	90.81
463.657	86.81
463.876	99.81
464.096	82.81
464.316	100.81
464.536	77.81
464.755	83.81
464.975	93.81
465.195	136.81
465.414	127.81
465.634	98.81
465.854	88.81
466.073	81.81
466.293	84.81
466.512	102.81
466.732	77.81
466.951	95.81
467.171	104.81
467.391	92.81
467.61	114.81
467.829	125.81
468.049	178.81
468.268	209.81
468.488	107.81
468.707	92.81
468.927	84.81
469.146	88.81
469.365	91.81
469.585	78.81
469.804	95.81
470.023	95.81
470.243	84.81
470.462	75.81
470.681	96.81
470.901	89.81
471.12	81.81
471.339	97.81
471.558	105.81
471.777	95.81
471.997	128.81
472.216	275.81
472.435	482.81
472.654	159.81
472.873	103.81
473.092	84.81
473.311	96.81
473.53	93.81
473.749	91.81
473.968	90.81
474.187	93.81
474.406	100.81
474.625	93.81
474.844	81.81
475.063	97.81
475.282	88.81
475.501	85.81
475.72	82.81
475.939	95.81
476.158	86.81
476.377	86.81
476.596	97.81
476.814	97.81
477.033	79.81
477.252	87.81
477.471	92.81
477.69	77.81
477.908	90.81
478.127	101.81
478.346	93.81
478.564	101.81
478.783	96.81
479.002	98.81
479.22	90.81
479.439	104.81
479.658	100.81
479.876	113.81
480.095	87.81
480.313	99.81
480.532	115.81
480.751	137.81
480.969	286.81
481.188	848.81
481.406	508.81
481.624	121.81
481.843	89.81
482.061	87.81
482.28	93.81
482.498	78.81
482.717	87.81
482.935	90.81
483.153	77.81
483.372	84.81
483.59	78.81
483.808	80.81
484.027	84.81
484.245	78.81
484.463	98.81
484.681	96.81
484.9	89.81
485.118	98.81
485.336	92.81
485.554	93.81
485.772	98.81
485.99	110.81
486.209	95.81
486.427	99.81
486.645	98.81
486.863	118.81
487.081	108.81
487.299	98.81
487.517	92.81
487.735	84.81
487.953	94.81
488.171	86.81
488.389	94.81
488.607	97.81
488.825	82.81
489.043	91.81
489.261	86.81
489.479	94.81
489.696	100.81
489.914	84.81
490.132	80.81
490.35	108.81
490.568	102.81
490.786	96.81
491.003	90.81
491.221	85.81
491.439	93.81
491.657	98.81
491.874	90.81
492.092	87.81
492.31	94.81
492.527	101.81
492.745	94.81
492.963	79.81
493.18	90.81
493.398	92.81
493.615	89.81
493.833	90.81
494.05	94.81
494.268	89.81
494.485	76.81
494.703	96.81
494.92	95.81
495.138	84.81
495.355	88.81
495.573	93.81
495.79	93.81
496.008	92.81
496.225	96.81
496.442	72.81
496.66	84.81
496.877	86.81
497.094	88.81
497.312	95.81
497.529	87.81
497.746	80.81
497.963	91.81
498.181	89.81
498.398	92.81
498.615	114.81
498.832	99.81
499.049	90.81
499.267	88.81
499.484	86.81
499.701	91.81
499.918	84.81
500.135	81.81
500.352	78.81
500.569	100.81
500.786	81.81
501.003	86.81
501.22	94.81
501.437	87.81
501.654	96.81
501.871	95.81
502.088	85.81
502.305	96.81
502.522	92.81
502.739	95.81
502.956	100.81
503.172	85.81
503.389	86.81
503.606	79.81
503.823	86.81
504.04	81.81
504.256	82.81
504.473	79.81
504.69	91.81
504.907	89.81
505.123	95.81
505.34	77.81
505.557	79.81
505.773	85.81
505.99	86.81
506.207	90.81
506.423	88.81
506.64	96.81
506.856	94.81
507.073	91.81
507.289	81.81
507.506	98.81
507.722	104.81
507.939	104.81
508.155	98.81
508.372	96.81
508.588	95.81
508.805	104.81
509.021	101.81
509.238	93.81
509.454	83.81
509.67	78.81
509.887	101.81
510.103	117.81
510.319	174.81
510.536	574.81
510.752	1694.81
510.968	496.81
511.184	143.81
511.401	100.81
511.617	82.81
511.833	87.81
512.049	88.81
512.265	89.81
512.481	86.81
512.698	92.81
512.914	95.81
513.13	82.81
513.346	82.81
513.562	91.81
513.778	88.81
513.994	89.81
514.21	103.81
514.426	106.81
514.642	122.81
514.858	116.81
515.074	132.81
515.29	353.81
515.506	1050.81
515.721	417.81
515.937	134.81
516.153	111.81
