Data from Circ_2010_H10_HRD10591_00024.txt Node
Date: Wed Jan 03 10:09:46 EST 2024
User: Yrep
Spectrometer: HR+D1059
Trigger mode: 1
Integration Time (sec): 1.000000E-1
Scans to average: 1
Electric dark correction enabled: true
Nonlinearity correction enabled: false
Boxcar width: 0
XAxis mode: Wavelengths
Number of Pixels in Spectrum: 2048
>>>>>Begin Spectral Data<<<<<
223.165	-9.25
223.4	-9.25
223.635	-9.25
223.869	-19.25
224.104	-13.25
224.338	-3.25
224.573	-14.25
224.808	-38.25
225.042	-9.25
225.277	-10.25
225.511	9.75
225.746	12.75
225.98	0.75
226.215	-0.25
226.449	11.75
226.683	26.75
226.918	22.75
227.152	32.75
227.387	23.75
227.621	44.75
227.856	35.75
228.09	44.75
228.324	69.75
228.559	56.75
228.793	54.75
229.027	68.75
229.262	53.75
229.496	75.75
229.73	78.75
229.964	78.75
230.199	78.75
230.433	70.75
230.667	79.75
230.901	63.75
231.136	80.75
231.37	81.75
231.604	77.75
231.838	84.75
232.072	73.75
232.306	72.75
232.541	84.75
232.775	65.75
233.009	86.75
233.243	80.75
233.477	85.75
233.711	75.75
233.945	71.75
234.179	60.75
234.413	77.75
234.647	87.75
234.881	81.75
235.115	86.75
235.349	85.75
235.583	92.75
235.817	92.75
236.051	90.75
236.285	76.75
236.519	62.75
236.753	84.75
236.987	67.75
237.221	81.75
237.455	81.75
237.689	79.75
237.922	80.75
238.156	84.75
238.39	65.75
238.624	63.75
238.858	78.75
239.091	62.75
239.325	86.75
239.559	78.75
239.793	77.75
240.027	77.75
240.26	73.75
240.494	81.75
240.728	78.75
240.961	89.75
241.195	81.75
241.429	70.75
241.662	70.75
241.896	81.75
242.13	75.75
242.363	82.75
242.597	65.75
242.83	81.75
243.064	82.75
243.298	86.75
243.531	76.75
243.765	72.75
243.998	79.75
244.232	69.75
244.465	82.75
244.699	88.75
244.932	77.75
245.166	79.75
245.399	87.75
245.633	73.75
245.866	85.75
246.099	88.75
246.333	52.75
246.566	72.75
246.8	75.75
247.033	78.75
247.266	77.75
247.5	74.75
247.733	87.75
247.966	80.75
248.2	71.75
248.433	81.75
248.666	87.75
248.899	81.75
249.133	69.75
249.366	70.75
249.599	81.75
249.832	77.75
250.066	81.75
250.299	72.75
250.532	69.75
250.765	92.75
250.998	72.75
251.231	75.75
251.465	82.75
251.698	87.75
251.931	103.75
252.164	78.75
252.397	88.75
252.63	64.75
252.863	74.75
253.096	93.75
253.329	91.75
253.562	77.75
253.795	92.75
254.028	97.75
254.261	80.75
254.494	75.75
254.727	84.75
254.96	82.75
255.193	85.75
255.426	91.75
255.659	85.75
255.892	85.75
256.124	77.75
256.357	81.75
256.59	66.75
256.823	74.75
257.056	83.75
257.289	81.75
257.521	81.75
257.754	86.75
257.987	74.75
258.22	90.75
258.452	88.75
258.685	73.75
258.918	82.75
259.151	61.75
259.383	78.75
259.616	85.75
259.849	81.75
260.081	79.75
260.314	102.75
260.547	81.75
260.779	97.75
261.012	88.75
261.244	96.75
261.477	81.75
261.71	101.75
261.942	96.75
262.175	94.75
262.407	87.75
262.64	82.75
262.872	87.75
263.105	79.75
263.337	90.75
263.57	86.75
263.802	82.75
264.035	81.75
264.267	80.75
264.499	84.75
264.732	72.75
264.964	82.75
265.197	90.75
265.429	80.75
265.661	92.75
265.894	74.75
266.126	81.75
266.358	79.75
266.591	96.75
266.823	73.75
267.055	84.75
267.287	82.75
267.52	86.75
267.752	82.75
267.984	91.75
268.216	81.75
268.448	86.75
268.681	93.75
268.913	91.75
269.145	72.75
269.377	89.75
269.609	93.75
269.841	88.75
270.073	76.75
270.306	85.75
270.538	84.75
270.77	75.75
271.002	86.75
271.234	90.75
271.466	92.75
271.698	89.75
271.93	72.75
272.162	68.75
272.394	89.75
272.626	82.75
272.858	87.75
273.09	88.75
273.322	66.75
273.553	81.75
273.785	80.75
274.017	100.75
274.249	77.75
274.481	90.75
274.713	82.75
274.945	92.75
275.176	80.75
275.408	83.75
275.64	81.75
275.872	103.75
276.104	83.75
276.335	80.75
276.567	79.75
276.799	111.75
277.031	100.75
277.262	90.75
277.494	88.75
277.726	96.75
277.957	90.75
278.189	88.75
278.421	82.75
278.652	93.75
278.884	103.75
279.115	84.75
279.347	106.75
279.579	88.75
279.81	83.75
280.042	95.75
280.273	88.75
280.505	86.75
280.736	88.75
280.968	89.75
281.199	92.75
281.431	85.75
281.662	85.75
281.894	91.75
282.125	90.75
282.356	95.75
282.588	131.75
282.819	120.75
283.051	89.75
283.282	92.75
283.513	91.75
283.745	89.75
283.976	94.75
284.207	95.75
284.439	77.75
284.67	93.75
284.901	83.75
285.132	62.75
285.364	83.75
285.595	78.75
285.826	72.75
286.057	92.75
286.288	95.75
286.52	91.75
286.751	89.75
286.982	84.75
287.213	110.75
287.444	91.75
287.675	81.75
287.906	89.75
288.138	87.75
288.369	89.75
288.6	90.75
288.831	100.75
289.062	80.75
289.293	72.75
289.524	79.75
289.755	93.75
289.986	85.75
290.217	86.75
290.448	94.75
290.679	77.75
290.91	86.75
291.141	85.75
291.371	86.75
291.602	91.75
291.833	74.75
292.064	96.75
292.295	91.75
292.526	101.75
292.757	90.75
292.987	81.75
293.218	97.75
293.449	87.75
293.68	101.75
293.91	101.75
294.141	81.75
294.372	84.75
294.603	95.75
294.833	80.75
295.064	91.75
295.295	98.75
295.525	91.75
295.756	99.75
295.987	95.75
296.217	106.75
296.448	111.75
296.679	104.75
296.909	97.75
297.14	89.75
297.37	88.75
297.601	97.75
297.831	91.75
298.062	80.75
298.292	85.75
298.523	96.75
298.753	85.75
298.984	89.75
299.214	76.75
299.445	92.75
299.675	96.75
299.905	82.75
300.136	93.75
300.366	95.75
300.597	96.75
300.827	85.75
301.057	101.75
301.288	106.75
301.518	79.75
301.748	98.75
301.979	98.75
302.209	90.75
302.439	97.75
302.669	96.75
302.9	84.75
303.13	87.75
303.36	94.75
303.59	92.75
303.82	101.75
304.051	70.75
304.281	87.75
304.511	94.75
304.741	88.75
304.971	92.75
305.201	91.75
305.431	83.75
305.661	93.75
305.891	100.75
306.121	95.75
306.352	96.75
306.582	90.75
306.812	93.75
307.042	81.75
307.272	95.75
307.502	100.75
307.731	97.75
307.961	100.75
308.191	95.75
308.421	95.75
308.651	95.75
308.881	104.75
309.111	95.75
309.341	96.75
309.571	97.75
309.8	103.75
310.03	99.75
310.26	83.75
310.49	105.75
310.72	91.75
310.949	97.75
311.179	89.75
311.409	90.75
311.639	100.75
311.868	81.75
312.098	95.75
312.328	87.75
312.557	95.75
312.787	99.75
313.017	101.75
313.246	97.75
313.476	73.75
313.706	93.75
313.935	80.75
314.165	89.75
314.394	91.75
314.624	98.75
314.853	83.75
315.083	95.75
315.312	98.75
315.542	97.75
315.771	91.75
316.001	87.75
316.23	81.75
316.46	79.75
316.689	88.75
316.919	86.75
317.148	97.75
317.377	101.75
317.607	81.75
317.836	88.75
318.065	95.75
318.295	94.75
318.524	84.75
318.753	79.75
318.983	81.75
319.212	98.75
319.441	100.75
319.67	96.75
319.9	86.75
320.129	92.75
320.358	113.75
320.587	82.75
320.816	105.75
321.046	94.75
321.275	80.75
321.504	95.75
321.733	95.75
321.962	97.75
322.191	84.75
322.42	108.75
322.649	107.75
322.878	115.75
323.108	91.75
323.337	111.75
323.566	120.75
323.795	135.75
324.024	158.75
324.253	308.75
324.482	619.75
324.71	1254.75
324.939	1625.75
325.168	639.75
325.397	207.75
325.626	140.75
325.855	119.75
326.084	124.75
326.313	120.75
326.542	154.75
326.77	186.75
326.999	365.75
327.228	728.75
327.457	1282.75
327.686	1023.75
327.914	308.75
328.143	191.75
328.372	146.75
328.6	120.75
328.829	108.75
329.058	101.75
329.287	125.75
329.515	107.75
329.744	111.75
329.972	121.75
330.201	169.75
330.43	192.75
330.658	140.75
330.887	138.75
331.115	107.75
331.344	109.75
331.572	100.75
331.801	103.75
332.03	100.75
332.258	89.75
332.486	83.75
332.715	101.75
332.943	92.75
333.172	92.75
333.4	100.75
333.629	105.75
333.857	94.75
334.085	119.75
334.314	138.75
334.542	197.75
334.771	192.75
334.999	109.75
335.227	94.75
335.455	88.75
335.684	100.75
335.912	102.75
336.14	98.75
336.369	91.75
336.597	104.75
336.825	94.75
337.053	87.75
337.281	96.75
337.51	91.75
337.738	95.75
337.966	92.75
338.194	98.75
338.422	102.75
338.65	97.75
338.878	87.75
339.106	89.75
339.334	78.75
339.562	99.75
339.79	89.75
340.018	81.75
340.246	95.75
340.474	93.75
340.702	90.75
340.93	77.75
341.158	88.75
341.386	93.75
341.614	105.75
341.842	89.75
342.07	100.75
342.298	84.75
342.526	92.75
342.754	96.75
342.981	82.75
343.209	99.75
343.437	109.75
343.665	105.75
343.893	88.75
344.12	92.75
344.348	98.75
344.576	93.75
344.804	95.75
345.031	88.75
345.259	88.75
345.487	100.75
345.714	92.75
345.942	81.75
346.17	93.75
346.397	94.75
346.625	97.75
346.853	82.75
347.08	92.75
347.308	93.75
347.535	117.75
347.763	98.75
347.99	95.75
348.218	113.75
348.445	102.75
348.673	89.75
348.9	111.75
349.128	81.75
349.355	81.75
349.583	93.75
349.81	89.75
350.037	102.75
350.265	97.75
350.492	87.75
350.72	93.75
350.947	93.75
351.174	98.75
351.402	111.75
351.629	102.75
351.856	89.75
352.083	96.75
352.311	91.75
352.538	106.75
352.765	99.75
352.992	108.75
353.22	100.75
353.447	108.75
353.674	96.75
353.901	95.75
354.128	102.75
354.355	114.75
354.583	97.75
354.81	94.75
355.037	86.75
355.264	90.75
355.491	93.75
355.718	87.75
355.945	90.75
356.172	91.75
356.399	89.75
356.626	108.75
356.853	101.75
357.08	92.75
357.307	103.75
357.534	96.75
357.761	96.75
357.988	95.75
358.215	101.75
358.441	89.75
358.668	94.75
358.895	81.75
359.122	93.75
359.349	77.75
359.576	99.75
359.802	96.75
360.029	95.75
360.256	98.75
360.483	97.75
360.709	79.75
360.936	88.75
361.163	92.75
361.39	90.75
361.616	96.75
361.843	95.75
362.07	95.75
362.296	82.75
362.523	77.75
362.749	86.75
362.976	81.75
363.203	90.75
363.429	95.75
363.656	106.75
363.882	96.75
364.109	88.75
364.335	87.75
364.562	82.75
364.788	92.75
365.015	83.75
365.241	95.75
365.468	96.75
365.694	97.75
365.92	85.75
366.147	93.75
366.373	95.75
366.599	95.75
366.826	84.75
367.052	82.75
367.278	97.75
367.505	95.75
367.731	98.75
367.957	96.75
368.184	93.75
368.41	113.75
368.636	100.75
368.862	109.75
369.089	101.75
369.315	83.75
369.541	87.75
369.767	99.75
369.993	92.75
370.219	92.75
370.445	90.75
370.672	95.75
370.898	89.75
371.124	89.75
371.35	74.75
371.576	97.75
371.802	92.75
372.028	99.75
372.254	78.75
372.48	93.75
372.706	77.75
372.932	79.75
373.158	86.75
373.384	81.75
373.61	100.75
373.835	102.75
374.061	80.75
374.287	91.75
374.513	95.75
374.739	91.75
374.965	96.75
375.191	94.75
375.416	91.75
375.642	91.75
375.868	100.75
376.094	104.75
376.319	86.75
376.545	92.75
376.771	100.75
376.997	85.75
377.222	83.75
377.448	83.75
377.674	87.75
377.899	100.75
378.125	87.75
378.35	80.75
378.576	90.75
378.802	91.75
379.027	88.75
379.253	99.75
379.478	94.75
379.704	85.75
379.929	93.75
380.155	88.75
380.38	93.75
380.606	87.75
380.831	81.75
381.057	84.75
381.282	86.75
381.507	85.75
381.733	90.75
381.958	103.75
382.184	108.75
382.409	103.75
382.634	109.75
382.86	108.75
383.085	110.75
383.31	124.75
383.535	103.75
383.761	88.75
383.986	97.75
384.211	91.75
384.436	97.75
384.662	104.75
384.887	94.75
385.112	107.75
385.337	113.75
385.562	112.75
385.787	105.75
386.013	112.75
386.238	104.75
386.463	102.75
386.688	116.75
386.913	93.75
387.138	110.75
387.363	108.75
387.588	98.75
387.813	93.75
388.038	104.75
388.263	126.75
388.488	119.75
388.713	90.75
388.938	106.75
389.163	99.75
389.387	89.75
389.612	102.75
389.837	87.75
390.062	86.75
390.287	92.75
390.512	99.75
390.736	90.75
390.961	99.75
391.186	94.75
391.411	99.75
391.636	85.75
391.86	90.75
392.085	93.75
392.31	90.75
392.534	91.75
392.759	85.75
392.984	92.75
393.208	91.75
393.433	113.75
393.658	94.75
393.882	75.75
394.107	87.75
394.331	78.75
394.556	85.75
394.78	71.75
395.005	82.75
395.229	79.75
395.454	86.75
395.678	88.75
395.903	78.75
396.127	78.75
396.352	91.75
396.576	87.75
396.801	93.75
397.025	99.75
397.249	91.75
397.474	76.75
397.698	80.75
397.922	88.75
398.147	95.75
398.371	81.75
398.595	96.75
398.82	92.75
399.044	80.75
399.268	78.75
399.492	84.75
399.717	95.75
399.941	100.75
400.165	88.75
400.389	75.75
400.613	92.75
400.837	93.75
401.062	79.75
401.286	88.75
401.51	85.75
401.734	90.75
401.958	99.75
402.182	101.75
402.406	131.75
402.63	110.75
402.854	97.75
403.078	88.75
403.302	91.75
403.526	87.75
403.75	93.75
403.974	94.75
404.198	88.75
404.422	95.75
404.645	84.75
404.869	91.75
405.093	88.75
405.317	76.75
405.541	92.75
405.765	87.75
405.988	103.75
406.212	127.75
406.436	174.75
406.66	135.75
406.883	89.75
407.107	88.75
407.331	84.75
407.555	88.75
407.778	94.75
408.002	88.75
408.226	93.75
408.449	104.75
408.673	94.75
408.896	100.75
409.12	106.75
409.344	76.75
409.567	74.75
409.791	94.75
410.014	91.75
410.238	89.75
410.461	85.75
410.685	93.75
410.908	92.75
411.132	84.75
411.355	97.75
411.578	107.75
411.802	96.75
412.025	95.75
412.249	106.75
412.472	88.75
412.695	86.75
412.919	89.75
413.142	100.75
413.365	76.75
413.589	85.75
413.812	90.75
414.035	100.75
414.258	90.75
414.482	90.75
414.705	105.75
414.928	78.75
415.151	92.75
415.374	96.75
415.597	76.75
415.821	83.75
416.044	84.75
416.267	88.75
416.49	90.75
416.713	84.75
416.936	88.75
417.159	95.75
417.382	79.75
417.605	88.75
417.828	89.75
418.051	90.75
418.274	101.75
418.497	95.75
418.72	97.75
418.943	95.75
419.166	94.75
419.389	86.75
419.611	88.75
419.834	94.75
420.057	95.75
420.28	84.75
420.503	75.75
420.726	78.75
420.948	94.75
421.171	104.75
421.394	96.75
421.617	105.75
421.839	85.75
422.062	94.75
422.285	81.75
422.507	106.75
422.73	97.75
422.953	78.75
423.175	90.75
423.398	89.75
423.621	94.75
423.843	79.75
424.066	80.75
424.288	100.75
424.511	95.75
424.733	89.75
424.956	102.75
425.178	110.75
425.401	106.75
425.623	88.75
425.846	91.75
426.068	91.75
426.291	95.75
426.513	90.75
426.735	87.75
426.958	84.75
427.18	93.75
427.402	132.75
427.625	146.75
427.847	119.75
428.069	114.75
428.292	84.75
428.514	77.75
428.736	80.75
428.958	91.75
429.181	87.75
429.403	79.75
429.625	76.75
429.847	91.75
430.069	84.75
430.292	91.75
430.514	92.75
430.736	74.75
430.958	78.75
431.18	72.75
431.402	98.75
431.624	87.75
431.846	102.75
432.068	65.75
432.29	101.75
432.512	90.75
432.734	84.75
432.956	89.75
433.178	96.75
433.4	85.75
433.622	90.75
433.844	94.75
434.066	93.75
434.287	81.75
434.509	87.75
434.731	89.75
434.953	72.75
435.175	102.75
435.397	94.75
435.618	95.75
435.84	88.75
436.062	98.75
436.284	101.75
436.505	87.75
436.727	106.75
436.949	99.75
437.17	96.75
437.392	85.75
437.614	88.75
437.835	103.75
438.057	108.75
438.278	102.75
438.5	104.75
438.721	104.75
438.943	90.75
439.165	93.75
439.386	85.75
439.608	80.75
439.829	86.75
440.05	109.75
440.272	108.75
440.493	100.75
440.715	82.75
440.936	87.75
441.158	84.75
441.379	85.75
441.6	85.75
441.822	84.75
442.043	93.75
442.264	100.75
442.486	90.75
442.707	88.75
442.928	95.75
443.149	108.75
443.371	118.75
443.592	107.75
443.813	108.75
444.034	98.75
444.255	82.75
444.476	81.75
444.698	84.75
444.919	97.75
445.14	138.75
445.361	104.75
445.582	107.75
445.803	116.75
446.024	105.75
446.245	122.75
446.466	100.75
446.687	78.75
446.908	90.75
447.129	87.75
447.35	102.75
447.571	91.75
447.792	97.75
448.013	92.75
448.234	93.75
448.455	82.75
448.675	99.75
448.896	106.75
449.117	94.75
449.338	104.75
449.559	124.75
449.779	122.75
450	109.75
450.221	90.75
450.442	71.75
450.662	94.75
450.883	100.75
451.104	105.75
451.324	101.75
451.545	82.75
451.766	90.75
451.986	70.75
452.207	104.75
452.428	101.75
452.648	102.75
452.869	103.75
453.089	101.75
453.31	94.75
453.53	82.75
453.751	88.75
453.971	80.75
454.192	100.75
454.412	92.75
454.633	82.75
454.853	102.75
455.073	67.75
455.294	89.75
455.514	103.75
455.734	87.75
455.955	94.75
456.175	97.75
456.395	73.75
456.616	100.75
456.836	100.75
457.056	73.75
457.276	77.75
457.497	94.75
457.717	79.75
457.937	87.75
458.157	101.75
458.377	88.75
458.598	105.75
458.818	141.75
459.038	129.75
459.258	106.75
459.478	104.75
459.698	88.75
459.918	87.75
460.138	92.75
460.358	96.75
460.578	81.75
460.798	86.75
461.018	96.75
461.238	92.75
461.458	92.75
461.678	76.75
461.898	86.75
462.118	77.75
462.338	82.75
462.558	79.75
462.777	96.75
462.997	104.75
463.217	87.75
463.437	95.75
463.657	95.75
463.876	89.75
464.096	101.75
464.316	98.75
464.536	84.75
464.755	91.75
464.975	100.75
465.195	143.75
465.414	131.75
465.634	90.75
465.854	79.75
466.073	71.75
466.293	86.75
466.512	74.75
466.732	90.75
466.951	72.75
467.171	79.75
467.391	94.75
467.61	92.75
467.829	105.75
468.049	109.75
468.268	128.75
468.488	100.75
468.707	80.75
468.927	81.75
469.146	88.75
469.365	82.75
469.585	96.75
469.804	99.75
470.023	81.75
470.243	100.75
470.462	83.75
470.681	92.75
470.901	99.75
471.12	92.75
471.339	85.75
471.558	94.75
471.777	79.75
471.997	84.75
472.216	171.75
472.435	230.75
472.654	108.75
472.873	90.75
473.092	92.75
473.311	91.75
473.53	85.75
473.749	90.75
473.968	82.75
474.187	98.75
474.406	92.75
474.625	97.75
474.844	98.75
475.063	95.75
475.282	82.75
475.501	77.75
475.72	93.75
475.939	93.75
476.158	81.75
476.377	85.75
476.596	92.75
476.814	94.75
477.033	105.75
477.252	88.75
477.471	86.75
477.69	76.75
477.908	87.75
478.127	87.75
478.346	95.75
478.564	82.75
478.783	93.75
479.002	84.75
479.22	83.75
479.439	86.75
479.658	102.75
479.876	100.75
480.095	98.75
480.313	89.75
480.532	84.75
480.751	96.75
480.969	144.75
481.188	359.75
481.406	257.75
481.624	97.75
481.843	92.75
482.061	72.75
482.28	81.75
482.498	91.75
482.717	85.75
482.935	77.75
483.153	96.75
483.372	90.75
483.59	100.75
483.808	84.75
484.027	95.75
484.245	88.75
484.463	96.75
484.681	95.75
484.9	93.75
485.118	91.75
485.336	104.75
485.554	88.75
485.772	112.75
485.99	102.75
486.209	109.75
486.427	110.75
486.645	111.75
486.863	105.75
487.081	109.75
487.299	90.75
487.517	90.75
487.735	93.75
487.953	92.75
488.171	93.75
488.389	102.75
488.607	104.75
488.825	102.75
489.043	90.75
489.261	87.75
489.479	93.75
489.696	90.75
489.914	104.75
490.132	93.75
490.35	86.75
490.568	85.75
490.786	92.75
491.003	92.75
491.221	95.75
491.439	97.75
491.657	86.75
491.874	85.75
492.092	87.75
492.31	86.75
492.527	76.75
492.745	104.75
492.963	88.75
493.18	101.75
493.398	99.75
493.615	93.75
493.833	98.75
494.05	79.75
494.268	72.75
494.485	91.75
494.703	80.75
494.92	95.75
495.138	99.75
495.355	101.75
495.573	103.75
495.79	81.75
496.008	88.75
496.225	91.75
496.442	96.75
496.66	100.75
496.877	97.75
497.094	98.75
497.312	97.75
497.529	97.75
497.746	86.75
497.963	76.75
498.181	80.75
498.398	106.75
498.615	101.75
498.832	101.75
499.049	72.75
499.267	82.75
499.484	79.75
499.701	92.75
499.918	91.75
500.135	90.75
500.352	92.75
500.569	80.75
500.786	70.75
501.003	76.75
501.22	101.75
501.437	88.75
501.654	83.75
501.871	109.75
502.088	82.75
502.305	77.75
502.522	82.75
502.739	79.75
502.956	85.75
503.172	99.75
503.389	89.75
503.606	104.75
503.823	93.75
504.04	89.75
504.256	89.75
504.473	94.75
504.69	92.75
504.907	92.75
505.123	83.75
505.34	83.75
505.557	101.75
505.773	84.75
505.99	86.75
506.207	94.75
506.423	91.75
506.64	81.75
506.856	93.75
507.073	93.75
507.289	91.75
507.506	89.75
507.722	99.75
507.939	107.75
508.155	88.75
508.372	84.75
508.588	102.75
508.805	100.75
509.021	97.75
509.238	108.75
509.454	88.75
509.67	96.75
509.887	91.75
510.103	121.75
510.319	177.75
510.536	558.75
510.752	1718.75
510.968	532.75
511.184	144.75
511.401	104.75
511.617	97.75
511.833	91.75
512.049	73.75
512.265	108.75
512.481	93.75
512.698	91.75
512.914	89.75
513.13	88.75
513.346	78.75
513.562	98.75
513.778	100.75
513.994	105.75
514.21	101.75
514.426	106.75
514.642	117.75
514.858	118.75
515.074	136.75
515.29	320.75
515.506	1002.75
515.721	425.75
515.937	135.75
