Data from Circ_2010_H10_HRD10591_00032.txt Node
Date: Wed Jan 03 10:09:47 EST 2024
User: Yrep
Spectrometer: HR+D1059
Trigger mode: 1
Integration Time (sec): 1.000000E-1
Scans to average: 1
Electric dark correction enabled: true
Nonlinearity correction enabled: false
Boxcar width: 0
XAxis mode: Wavelengths
Number of Pixels in Spectrum: 2048
>>>>>Begin Spectral Data<<<<<
223.165	-16.5
223.4	-16.5
223.635	-16.5
223.869	-18.5
224.104	-19.5
224.338	-18.5
224.573	-11.5
224.808	-16.5
225.042	-2.5
225.277	-1.5
225.511	-10.5
225.746	12.5
225.98	1.5
226.215	8.5
226.449	9.5
226.683	16.5
226.918	28.5
227.152	38.5
227.387	54.5
227.621	33.5
227.856	50.5
228.09	32.5
228.324	67.5
228.559	70.5
228.793	68.5
229.027	64.5
229.262	66.5
229.496	68.5
229.73	71.5
229.964	74.5
230.199	82.5
230.433	82.5
230.667	82.5
230.901	84.5
231.136	61.5
231.37	71.5
231.604	78.5
231.838	67.5
232.072	86.5
232.306	83.5
232.541	92.5
232.775	80.5
233.009	82.5
233.243	88.5
233.477	85.5
233.711	77.5
233.945	82.5
234.179	82.5
234.413	90.5
234.647	85.5
234.881	84.5
235.115	77.5
235.349	73.5
235.583	75.5
235.817	83.5
236.051	74.5
236.285	76.5
236.519	80.5
236.753	82.5
236.987	81.5
237.221	65.5
237.455	90.5
237.689	76.5
237.922	81.5
238.156	60.5
238.39	77.5
238.624	85.5
238.858	82.5
239.091	67.5
239.325	86.5
239.559	89.5
239.793	75.5
240.027	77.5
240.26	88.5
240.494	75.5
240.728	88.5
240.961	95.5
241.195	62.5
241.429	74.5
241.662	95.5
241.896	71.5
242.13	75.5
242.363	61.5
242.597	79.5
242.83	78.5
243.064	83.5
243.298	77.5
243.531	78.5
243.765	78.5
243.998	84.5
244.232	80.5
244.465	84.5
244.699	85.5
244.932	74.5
245.166	73.5
245.399	81.5
245.633	61.5
245.866	87.5
246.099	81.5
246.333	81.5
246.566	74.5
246.8	75.5
247.033	72.5
247.266	80.5
247.5	100.5
247.733	81.5
247.966	82.5
248.2	91.5
248.433	75.5
248.666	81.5
248.899	81.5
249.133	95.5
249.366	84.5
249.599	103.5
249.832	75.5
250.066	91.5
250.299	81.5
250.532	86.5
250.765	87.5
250.998	86.5
251.231	79.5
251.465	72.5
251.698	75.5
251.931	67.5
252.164	77.5
252.397	70.5
252.63	80.5
252.863	76.5
253.096	81.5
253.329	78.5
253.562	81.5
253.795	84.5
254.028	92.5
254.261	85.5
254.494	93.5
254.727	94.5
254.96	85.5
255.193	70.5
255.426	91.5
255.659	79.5
255.892	92.5
256.124	82.5
256.357	79.5
256.59	68.5
256.823	77.5
257.056	65.5
257.289	87.5
257.521	81.5
257.754	89.5
257.987	86.5
258.22	77.5
258.452	84.5
258.685	84.5
258.918	85.5
259.151	84.5
259.383	89.5
259.616	89.5
259.849	70.5
260.081	92.5
260.314	78.5
260.547	75.5
260.779	92.5
261.012	88.5
261.244	93.5
261.477	85.5
261.71	99.5
261.942	109.5
262.175	116.5
262.407	98.5
262.64	87.5
262.872	93.5
263.105	77.5
263.337	80.5
263.57	79.5
263.802	76.5
264.035	89.5
264.267	76.5
264.499	79.5
264.732	82.5
264.964	86.5
265.197	95.5
265.429	89.5
265.661	79.5
265.894	79.5
266.126	79.5
266.358	92.5
266.591	57.5
266.823	85.5
267.055	88.5
267.287	84.5
267.52	90.5
267.752	81.5
267.984	76.5
268.216	90.5
268.448	88.5
268.681	81.5
268.913	103.5
269.145	86.5
269.377	80.5
269.609	77.5
269.841	80.5
270.073	90.5
270.306	85.5
270.538	81.5
270.77	92.5
271.002	94.5
271.234	93.5
271.466	81.5
271.698	87.5
271.93	85.5
272.162	86.5
272.394	96.5
272.626	90.5
272.858	96.5
273.09	81.5
273.322	86.5
273.553	89.5
273.785	87.5
274.017	89.5
274.249	88.5
274.481	96.5
274.713	83.5
274.945	86.5
275.176	94.5
275.408	94.5
275.64	82.5
275.872	100.5
276.104	79.5
276.335	81.5
276.567	89.5
276.799	92.5
277.031	100.5
277.262	87.5
277.494	100.5
277.726	87.5
277.957	73.5
278.189	84.5
278.421	83.5
278.652	87.5
278.884	81.5
279.115	76.5
279.347	82.5
279.579	109.5
279.81	84.5
280.042	87.5
280.273	89.5
280.505	102.5
280.736	92.5
280.968	77.5
281.199	74.5
281.431	74.5
281.662	82.5
281.894	80.5
282.125	105.5
282.356	111.5
282.588	130.5
282.819	99.5
283.051	90.5
283.282	92.5
283.513	94.5
283.745	91.5
283.976	85.5
284.207	94.5
284.439	96.5
284.67	93.5
284.901	91.5
285.132	86.5
285.364	93.5
285.595	97.5
285.826	88.5
286.057	82.5
286.288	82.5
286.52	98.5
286.751	89.5
286.982	88.5
287.213	92.5
287.444	93.5
287.675	76.5
287.906	88.5
288.138	85.5
288.369	75.5
288.6	92.5
288.831	77.5
289.062	96.5
289.293	76.5
289.524	84.5
289.755	75.5
289.986	96.5
290.217	78.5
290.448	78.5
290.679	101.5
290.91	88.5
291.141	85.5
291.371	83.5
291.602	86.5
291.833	85.5
292.064	92.5
292.295	79.5
292.526	100.5
292.757	82.5
292.987	102.5
293.218	107.5
293.449	94.5
293.68	83.5
293.91	77.5
294.141	88.5
294.372	94.5
294.603	102.5
294.833	94.5
295.064	77.5
295.295	89.5
295.525	87.5
295.756	106.5
295.987	97.5
296.217	129.5
296.448	119.5
296.679	101.5
296.909	92.5
297.14	82.5
297.37	101.5
297.601	77.5
297.831	76.5
298.062	86.5
298.292	79.5
298.523	81.5
298.753	89.5
298.984	86.5
299.214	84.5
299.445	86.5
299.675	89.5
299.905	88.5
300.136	74.5
300.366	88.5
300.597	86.5
300.827	91.5
301.057	89.5
301.288	92.5
301.518	88.5
301.748	84.5
301.979	97.5
302.209	96.5
302.439	94.5
302.669	85.5
302.9	80.5
303.13	107.5
303.36	87.5
303.59	101.5
303.82	104.5
304.051	99.5
304.281	88.5
304.511	88.5
304.741	89.5
304.971	87.5
305.201	82.5
305.431	76.5
305.661	80.5
305.891	97.5
306.121	84.5
306.352	94.5
306.582	105.5
306.812	87.5
307.042	87.5
307.272	98.5
307.502	94.5
307.731	109.5
307.961	93.5
308.191	84.5
308.421	79.5
308.651	83.5
308.881	106.5
309.111	98.5
309.341	82.5
309.571	95.5
309.8	103.5
310.03	98.5
310.26	101.5
310.49	102.5
310.72	94.5
310.949	101.5
311.179	100.5
311.409	97.5
311.639	93.5
311.868	99.5
312.098	89.5
312.328	96.5
312.557	104.5
312.787	78.5
313.017	105.5
313.246	72.5
313.476	80.5
313.706	86.5
313.935	103.5
314.165	95.5
314.394	102.5
314.624	97.5
314.853	85.5
315.083	80.5
315.312	82.5
315.542	91.5
315.771	88.5
316.001	82.5
316.23	91.5
316.46	92.5
316.689	92.5
316.919	91.5
317.148	79.5
317.377	93.5
317.607	95.5
317.836	88.5
318.065	79.5
318.295	94.5
318.524	91.5
318.753	91.5
318.983	101.5
319.212	94.5
319.441	118.5
319.67	102.5
319.9	96.5
320.129	107.5
320.358	99.5
320.587	102.5
320.816	92.5
321.046	84.5
321.275	102.5
321.504	92.5
321.733	95.5
321.962	99.5
322.191	100.5
322.42	109.5
322.649	109.5
322.878	108.5
323.108	111.5
323.337	109.5
323.566	109.5
323.795	135.5
324.024	204.5
324.253	345.5
324.482	678.5
324.71	1362.5
324.939	1751.5
325.168	680.5
325.397	221.5
325.626	144.5
325.855	116.5
326.084	124.5
326.313	136.5
326.542	143.5
326.77	189.5
326.999	373.5
327.228	758.5
327.457	1381.5
327.686	1086.5
327.914	330.5
328.143	181.5
328.372	176.5
328.6	137.5
328.829	117.5
329.058	130.5
329.287	101.5
329.515	106.5
329.744	101.5
329.972	125.5
330.201	164.5
330.43	222.5
330.658	152.5
330.887	132.5
331.115	118.5
331.344	103.5
331.572	101.5
331.801	103.5
332.03	98.5
332.258	91.5
332.486	86.5
332.715	91.5
332.943	98.5
333.172	102.5
333.4	94.5
333.629	99.5
333.857	127.5
334.085	142.5
334.314	188.5
334.542	239.5
334.771	239.5
334.999	109.5
335.227	98.5
335.455	104.5
335.684	110.5
335.912	97.5
336.14	93.5
336.369	100.5
336.597	87.5
336.825	99.5
337.053	78.5
337.281	87.5
337.51	96.5
337.738	92.5
337.966	82.5
338.194	88.5
338.422	77.5
338.65	78.5
338.878	93.5
339.106	100.5
339.334	95.5
339.562	99.5
339.79	89.5
340.018	86.5
340.246	85.5
340.474	100.5
340.702	92.5
340.93	85.5
341.158	89.5
341.386	92.5
341.614	91.5
341.842	96.5
342.07	99.5
342.298	103.5
342.526	86.5
342.754	77.5
342.981	86.5
343.209	90.5
343.437	100.5
343.665	90.5
343.893	90.5
344.12	97.5
344.348	78.5
344.576	88.5
344.804	88.5
345.031	89.5
345.259	87.5
345.487	103.5
345.714	90.5
345.942	79.5
346.17	83.5
346.397	82.5
346.625	102.5
346.853	113.5
347.08	98.5
347.308	100.5
347.535	90.5
347.763	90.5
347.99	100.5
348.218	100.5
348.445	102.5
348.673	105.5
348.9	110.5
349.128	91.5
349.355	99.5
349.583	87.5
349.81	86.5
350.037	93.5
350.265	88.5
350.492	98.5
350.72	95.5
350.947	90.5
351.174	105.5
351.402	100.5
351.629	98.5
351.856	108.5
352.083	85.5
352.311	90.5
352.538	103.5
352.765	103.5
352.992	114.5
353.22	111.5
353.447	110.5
353.674	113.5
353.901	83.5
354.128	95.5
354.355	85.5
354.583	81.5
354.81	94.5
355.037	88.5
355.264	91.5
355.491	93.5
355.718	88.5
355.945	88.5
356.172	106.5
356.399	91.5
356.626	93.5
356.853	91.5
357.08	102.5
357.307	91.5
357.534	85.5
357.761	81.5
357.988	91.5
358.215	79.5
358.441	81.5
358.668	98.5
358.895	95.5
359.122	93.5
359.349	89.5
359.576	96.5
359.802	96.5
360.029	93.5
360.256	110.5
360.483	97.5
360.709	88.5
360.936	102.5
361.163	92.5
361.39	79.5
361.616	93.5
361.843	82.5
362.07	100.5
362.296	87.5
362.523	79.5
362.749	90.5
362.976	79.5
363.203	98.5
363.429	75.5
363.656	89.5
363.882	98.5
364.109	83.5
364.335	100.5
364.562	91.5
364.788	93.5
365.015	95.5
365.241	87.5
365.468	90.5
365.694	106.5
365.92	85.5
366.147	84.5
366.373	88.5
366.599	89.5
366.826	86.5
367.052	95.5
367.278	85.5
367.505	90.5
367.731	102.5
367.957	77.5
368.184	90.5
368.41	91.5
368.636	102.5
368.862	113.5
369.089	105.5
369.315	94.5
369.541	93.5
369.767	101.5
369.993	92.5
370.219	102.5
370.445	92.5
370.672	87.5
370.898	95.5
371.124	88.5
371.35	98.5
371.576	96.5
371.802	64.5
372.028	77.5
372.254	87.5
372.48	102.5
372.706	76.5
372.932	103.5
373.158	89.5
373.384	99.5
373.61	87.5
373.835	97.5
374.061	79.5
374.287	89.5
374.513	86.5
374.739	85.5
374.965	90.5
375.191	81.5
375.416	92.5
375.642	101.5
375.868	93.5
376.094	91.5
376.319	93.5
376.545	82.5
376.771	85.5
376.997	82.5
377.222	84.5
377.448	91.5
377.674	87.5
377.899	85.5
378.125	82.5
378.35	94.5
378.576	91.5
378.802	90.5
379.027	73.5
379.253	84.5
379.478	96.5
379.704	87.5
379.929	91.5
380.155	101.5
380.38	86.5
380.606	88.5
380.831	87.5
381.057	88.5
381.282	102.5
381.507	96.5
381.733	103.5
381.958	97.5
382.184	96.5
382.409	95.5
382.634	103.5
382.86	108.5
383.085	114.5
383.31	107.5
383.535	109.5
383.761	105.5
383.986	103.5
384.211	87.5
384.436	111.5
384.662	118.5
384.887	120.5
385.112	113.5
385.337	104.5
385.562	96.5
385.787	116.5
386.013	117.5
386.238	121.5
386.463	106.5
386.688	116.5
386.913	123.5
387.138	95.5
387.363	108.5
387.588	99.5
387.813	96.5
388.038	105.5
388.263	106.5
388.488	114.5
388.713	100.5
388.938	83.5
389.163	93.5
389.387	100.5
389.612	101.5
389.837	109.5
390.062	110.5
390.287	105.5
390.512	94.5
390.736	97.5
390.961	85.5
391.186	88.5
391.411	101.5
391.636	104.5
391.86	80.5
392.085	94.5
392.31	85.5
392.534	86.5
392.759	92.5
392.984	88.5
393.208	79.5
393.433	99.5
393.658	98.5
393.882	85.5
394.107	73.5
394.331	94.5
394.556	76.5
394.78	77.5
395.005	91.5
395.229	77.5
395.454	95.5
395.678	99.5
395.903	72.5
396.127	99.5
396.352	90.5
396.576	97.5
396.801	90.5
397.025	118.5
397.249	94.5
397.474	90.5
397.698	77.5
397.922	94.5
398.147	76.5
398.371	73.5
398.595	76.5
398.82	92.5
399.044	83.5
399.268	96.5
399.492	81.5
399.717	87.5
399.941	75.5
400.165	96.5
400.389	85.5
400.613	94.5
400.837	90.5
401.062	86.5
401.286	74.5
401.51	104.5
401.734	90.5
401.958	117.5
402.182	124.5
402.406	147.5
402.63	97.5
402.854	94.5
403.078	86.5
403.302	83.5
403.526	101.5
403.75	87.5
403.974	69.5
404.198	74.5
404.422	84.5
404.645	81.5
404.869	91.5
405.093	88.5
405.317	102.5
405.541	103.5
405.765	98.5
405.988	105.5
406.212	138.5
406.436	181.5
406.66	121.5
406.883	87.5
407.107	98.5
407.331	94.5
407.555	86.5
407.778	85.5
408.002	96.5
408.226	89.5
408.449	85.5
408.673	80.5
408.896	96.5
409.12	88.5
409.344	77.5
409.567	90.5
409.791	99.5
410.014	103.5
410.238	93.5
410.461	96.5
410.685	87.5
410.908	98.5
411.132	96.5
411.355	102.5
411.578	94.5
411.802	95.5
412.025	99.5
412.249	88.5
412.472	84.5
412.695	95.5
412.919	94.5
413.142	88.5
413.365	76.5
413.589	85.5
413.812	96.5
414.035	97.5
414.258	89.5
414.482	94.5
414.705	88.5
414.928	104.5
415.151	99.5
415.374	97.5
415.597	91.5
415.821	102.5
416.044	88.5
416.267	88.5
416.49	86.5
416.713	85.5
416.936	91.5
417.159	77.5
417.382	82.5
417.605	98.5
417.828	80.5
418.051	95.5
418.274	82.5
418.497	87.5
418.72	93.5
418.943	87.5
419.166	89.5
419.389	83.5
419.611	82.5
419.834	90.5
420.057	99.5
420.28	82.5
420.503	84.5
420.726	85.5
420.948	95.5
421.171	88.5
421.394	95.5
421.617	97.5
421.839	99.5
422.062	93.5
422.285	92.5
422.507	110.5
422.73	96.5
422.953	91.5
423.175	82.5
423.398	95.5
423.621	85.5
423.843	82.5
424.066	88.5
424.288	88.5
424.511	96.5
424.733	100.5
424.956	95.5
425.178	90.5
425.401	92.5
425.623	97.5
425.846	99.5
426.068	96.5
426.291	94.5
426.513	76.5
426.735	73.5
426.958	80.5
427.18	106.5
427.402	138.5
427.625	141.5
427.847	132.5
428.069	112.5
428.292	92.5
428.514	101.5
428.736	79.5
428.958	79.5
429.181	78.5
429.403	92.5
429.625	93.5
429.847	92.5
430.069	95.5
430.292	96.5
430.514	84.5
430.736	82.5
430.958	77.5
431.18	83.5
431.402	86.5
431.624	90.5
431.846	87.5
432.068	98.5
432.29	90.5
432.512	101.5
432.734	99.5
432.956	89.5
433.178	90.5
433.4	100.5
433.622	89.5
433.844	82.5
434.066	94.5
434.287	93.5
434.509	89.5
434.731	92.5
434.953	104.5
435.175	98.5
435.397	96.5
435.618	106.5
435.84	90.5
436.062	111.5
436.284	107.5
436.505	90.5
436.727	93.5
436.949	97.5
437.17	80.5
437.392	84.5
437.614	90.5
437.835	101.5
438.057	104.5
438.278	109.5
438.5	83.5
438.721	99.5
438.943	97.5
439.165	99.5
439.386	101.5
439.608	90.5
439.829	104.5
440.05	100.5
440.272	147.5
440.493	98.5
440.715	83.5
440.936	86.5
441.158	95.5
441.379	90.5
441.6	81.5
441.822	94.5
442.043	96.5
442.264	97.5
442.486	104.5
442.707	96.5
442.928	101.5
443.149	122.5
443.371	116.5
443.592	107.5
443.813	116.5
444.034	100.5
444.255	106.5
444.476	95.5
444.698	88.5
444.919	81.5
445.14	149.5
445.361	111.5
445.582	106.5
445.803	125.5
446.024	124.5
446.245	119.5
446.466	107.5
446.687	95.5
446.908	95.5
447.129	103.5
447.35	92.5
447.571	92.5
447.792	91.5
448.013	90.5
448.234	102.5
448.455	95.5
448.675	98.5
448.896	118.5
449.117	102.5
449.338	97.5
449.559	121.5
449.779	132.5
450	96.5
450.221	94.5
450.442	109.5
450.662	95.5
450.883	102.5
451.104	101.5
451.324	82.5
451.545	95.5
451.766	94.5
451.986	86.5
452.207	101.5
452.428	83.5
452.648	101.5
452.869	100.5
453.089	110.5
453.31	112.5
453.53	87.5
453.751	83.5
453.971	104.5
454.192	100.5
454.412	97.5
454.633	96.5
454.853	78.5
455.073	84.5
455.294	95.5
455.514	97.5
455.734	88.5
455.955	92.5
456.175	84.5
456.395	67.5
456.616	89.5
456.836	82.5
457.056	86.5
457.276	99.5
457.497	84.5
457.717	85.5
457.937	79.5
458.157	87.5
458.377	92.5
458.598	102.5
458.818	115.5
459.038	126.5
459.258	117.5
459.478	87.5
459.698	84.5
459.918	96.5
460.138	86.5
460.358	85.5
460.578	87.5
460.798	89.5
461.018	91.5
461.238	97.5
461.458	89.5
461.678	93.5
461.898	86.5
462.118	78.5
462.338	68.5
462.558	83.5
462.777	87.5
462.997	79.5
463.217	92.5
463.437	109.5
463.657	90.5
463.876	83.5
464.096	82.5
464.316	80.5
464.536	88.5
464.755	100.5
464.975	99.5
465.195	146.5
465.414	138.5
465.634	84.5
465.854	96.5
466.073	82.5
466.293	86.5
466.512	79.5
466.732	105.5
466.951	96.5
467.171	82.5
467.391	110.5
467.61	102.5
467.829	111.5
468.049	126.5
468.268	151.5
468.488	106.5
468.707	100.5
468.927	87.5
469.146	90.5
469.365	83.5
469.585	86.5
469.804	89.5
470.023	102.5
470.243	92.5
470.462	94.5
470.681	103.5
470.901	100.5
471.12	92.5
471.339	76.5
471.558	88.5
471.777	76.5
471.997	101.5
472.216	191.5
472.435	315.5
472.654	151.5
472.873	105.5
473.092	90.5
473.311	87.5
473.53	76.5
473.749	81.5
473.968	103.5
474.187	96.5
474.406	86.5
474.625	96.5
474.844	78.5
475.063	88.5
475.282	88.5
475.501	86.5
475.72	89.5
475.939	73.5
476.158	84.5
476.377	93.5
476.596	70.5
476.814	102.5
477.033	106.5
477.252	78.5
477.471	93.5
477.69	81.5
477.908	85.5
478.127	91.5
478.346	96.5
478.564	85.5
478.783	84.5
479.002	98.5
479.22	79.5
479.439	98.5
479.658	92.5
479.876	83.5
480.095	87.5
480.313	97.5
480.532	111.5
480.751	113.5
480.969	196.5
481.188	503.5
481.406	337.5
481.624	110.5
481.843	87.5
482.061	87.5
482.28	100.5
482.498	83.5
482.717	85.5
482.935	88.5
483.153	90.5
483.372	90.5
483.59	95.5
483.808	91.5
484.027	100.5
484.245	104.5
484.463	94.5
484.681	97.5
484.9	97.5
485.118	90.5
485.336	81.5
485.554	93.5
485.772	86.5
485.99	101.5
486.209	107.5
486.427	100.5
486.645	102.5
486.863	108.5
487.081	96.5
487.299	85.5
487.517	93.5
487.735	80.5
487.953	104.5
488.171	89.5
488.389	90.5
488.607	91.5
488.825	102.5
489.043	78.5
489.261	102.5
489.479	91.5
489.696	89.5
489.914	100.5
490.132	85.5
490.35	96.5
490.568	85.5
490.786	101.5
491.003	96.5
491.221	83.5
491.439	84.5
491.657	91.5
491.874	100.5
492.092	69.5
492.31	87.5
492.527	96.5
492.745	93.5
492.963	81.5
493.18	92.5
493.398	93.5
493.615	90.5
493.833	95.5
494.05	82.5
494.268	97.5
494.485	104.5
494.703	97.5
494.92	92.5
495.138	82.5
495.355	85.5
495.573	112.5
495.79	83.5
496.008	94.5
496.225	88.5
496.442	93.5
496.66	81.5
496.877	106.5
497.094	94.5
497.312	92.5
497.529	106.5
497.746	89.5
497.963	95.5
498.181	92.5
498.398	89.5
498.615	103.5
498.832	108.5
499.049	72.5
499.267	81.5
499.484	112.5
499.701	91.5
499.918	87.5
500.135	82.5
500.352	98.5
500.569	92.5
500.786	92.5
501.003	91.5
501.22	76.5
501.437	94.5
501.654	98.5
501.871	89.5
502.088	81.5
502.305	76.5
502.522	83.5
502.739	89.5
502.956	95.5
503.172	94.5
503.389	82.5
503.606	103.5
503.823	93.5
504.04	95.5
504.256	88.5
504.473	81.5
504.69	78.5
504.907	103.5
505.123	106.5
505.34	95.5
505.557	91.5
505.773	85.5
505.99	88.5
506.207	91.5
506.423	85.5
506.64	96.5
506.856	100.5
507.073	88.5
507.289	90.5
507.506	96.5
507.722	92.5
507.939	115.5
508.155	91.5
508.372	108.5
508.588	91.5
508.805	88.5
509.021	104.5
509.238	96.5
509.454	104.5
509.67	103.5
509.887	113.5
510.103	126.5
510.319	177.5
510.536	559.5
510.752	1754.5
510.968	513.5
511.184	132.5
511.401	101.5
511.617	97.5
511.833	100.5
512.049	98.5
512.265	106.5
512.481	87.5
512.698	101.5
512.914	95.5
513.13	97.5
513.346	88.5
513.562	94.5
513.778	100.5
513.994	84.5
514.21	95.5
514.426	103.5
514.642	117.5
514.858	119.5
515.074	141.5
515.29	359.5
515.506	1096.5
515.721	440.5
515.937	138.5
516.153	118.5
516.369	85.5
516.585	96.5
516.801	101.5
517.016	98.5
517.232	104.5
517.448	84.5
517.664	89.5
517.879	92.5
518.095	96.5
518.311	88.5
518.527	88.5
518.742	97.5
518.958	86.5
519.173	78.5
519.389	83.5
519.605	92.5
519.82	86.5
520.036	102.5
520.251	100.5
520.467	100.5
520.682	92.5
520.898	104.5
521.113	105.5
521.329	111.5
521.544	163.5
521.76	426.5
521.975	1749.5
522.19	1105.5
522.406	265.5
522.621	114.5
522.836	100.5
523.052	96.5
523.267	90.5
523.482	90.5
523.698	83.5
523.913	103.5
524.128	105.5
524.343	91.5
524.559	87.5
524.774	90.5
524.989	95.5
525.204	111.5
525.419	97.5
525.634	89.5
525.849	85.5
526.064	92.5
526.28	103.5
526.495	89.5
526.71	74.5
526.925	74.5
527.14	87.5
527.355	91.5
527.57	85.5
527.785	90.5
527.999	88.5
528.214	90.5
528.429	88.5
528.644	94.5
528.859	92.5
529.074	100.5
529.289	113.5
529.503	158.5
529.718	90.5
529.933	94.5
530.148	87.5
530.363	98.5
530.577	99.5
530.792	101.5
531.007	82.5
531.221	91.5
531.436	86.5
531.651	87.5
531.865	84.5
532.08	82.5
532.295	95.5
532.509	85.5
532.724	88.5
532.938	91.5
533.153	87.5
533.367	107.5
533.582	89.5
533.796	92.5
534.011	100.5
534.225	82.5
534.44	94.5
534.654	100.5
534.868	101.5
535.083	85.5
