Data from Circ_2010_H10_HRD10591_00014.txt Node
Date: Wed Jan 03 10:09:44 EST 2024
User: Yrep
Spectrometer: HR+D1059
Trigger mode: 1
Integration Time (sec): 1.000000E-1
Scans to average: 1
Electric dark correction enabled: true
Nonlinearity correction enabled: false
Boxcar width: 0
XAxis mode: Wavelengths
Number of Pixels in Spectrum: 2048
>>>>>Begin Spectral Data<<<<<
223.165	-29.06
223.4	-29.06
223.635	-29.06
223.869	-28.06
224.104	-27.06
224.338	-5.06
224.573	-30.06
224.808	-15.06
225.042	-13.06
225.277	-5.06
225.511	11.94
225.746	6.94
225.98	8.94
226.215	8.94
226.449	27.94
226.683	32.94
226.918	27.94
227.152	26.94
227.387	40.94
227.621	43.94
227.856	33.94
228.09	50.94
228.324	52.94
228.559	51.94
228.793	45.94
229.027	66.94
229.262	68.94
229.496	91.94
229.73	78.94
229.964	85.94
230.199	88.94
230.433	71.94
230.667	76.94
230.901	68.94
231.136	78.94
231.37	78.94
231.604	85.94
231.838	89.94
232.072	77.94
232.306	79.94
232.541	70.94
232.775	87.94
233.009	84.94
233.243	79.94
233.477	73.94
233.711	76.94
233.945	81.94
234.179	89.94
234.413	76.94
234.647	84.94
234.881	79.94
235.115	68.94
235.349	84.94
235.583	88.94
235.817	72.94
236.051	88.94
236.285	81.94
236.519	80.94
236.753	77.94
236.987	66.94
237.221	93.94
237.455	93.94
237.689	80.94
237.922	71.94
238.156	76.94
238.39	75.94
238.624	78.94
238.858	75.94
239.091	61.94
239.325	89.94
239.559	81.94
239.793	74.94
240.027	78.94
240.26	75.94
240.494	79.94
240.728	77.94
240.961	72.94
241.195	89.94
241.429	83.94
241.662	72.94
241.896	60.94
242.13	88.94
242.363	79.94
242.597	82.94
242.83	88.94
243.064	70.94
243.298	64.94
243.531	76.94
243.765	70.94
243.998	74.94
244.232	86.94
244.465	81.94
244.699	79.94
244.932	82.94
245.166	79.94
245.399	72.94
245.633	83.94
245.866	89.94
246.099	73.94
246.333	72.94
246.566	87.94
246.8	86.94
247.033	74.94
247.266	53.94
247.5	71.94
247.733	70.94
247.966	71.94
248.2	78.94
248.433	72.94
248.666	75.94
248.899	76.94
249.133	71.94
249.366	102.94
249.599	89.94
249.832	89.94
250.066	84.94
250.299	95.94
250.532	95.94
250.765	78.94
250.998	89.94
251.231	88.94
251.465	97.94
251.698	70.94
251.931	78.94
252.164	81.94
252.397	71.94
252.63	86.94
252.863	75.94
253.096	86.94
253.329	85.94
253.562	77.94
253.795	91.94
254.028	58.94
254.261	85.94
254.494	87.94
254.727	95.94
254.96	77.94
255.193	85.94
255.426	79.94
255.659	96.94
255.892	77.94
256.124	71.94
256.357	74.94
256.59	66.94
256.823	86.94
257.056	72.94
257.289	81.94
257.521	83.94
257.754	80.94
257.987	80.94
258.22	89.94
258.452	77.94
258.685	99.94
258.918	80.94
259.151	73.94
259.383	93.94
259.616	68.94
259.849	87.94
260.081	82.94
260.314	70.94
260.547	61.94
260.779	76.94
261.012	74.94
261.244	93.94
261.477	95.94
261.71	86.94
261.942	104.94
262.175	102.94
262.407	85.94
262.64	77.94
262.872	87.94
263.105	84.94
263.337	92.94
263.57	87.94
263.802	75.94
264.035	76.94
264.267	82.94
264.499	84.94
264.732	78.94
264.964	77.94
265.197	80.94
265.429	70.94
265.661	80.94
265.894	90.94
266.126	79.94
266.358	91.94
266.591	82.94
266.823	78.94
267.055	72.94
267.287	85.94
267.52	80.94
267.752	74.94
267.984	76.94
268.216	77.94
268.448	92.94
268.681	70.94
268.913	76.94
269.145	85.94
269.377	82.94
269.609	65.94
269.841	86.94
270.073	86.94
270.306	73.94
270.538	69.94
270.77	84.94
271.002	62.94
271.234	84.94
271.466	86.94
271.698	82.94
271.93	93.94
272.162	85.94
272.394	99.94
272.626	88.94
272.858	90.94
273.09	93.94
273.322	85.94
273.553	84.94
273.785	80.94
274.017	92.94
274.249	94.94
274.481	79.94
274.713	85.94
274.945	83.94
275.176	91.94
275.408	84.94
275.64	80.94
275.872	86.94
276.104	76.94
276.335	74.94
276.567	84.94
276.799	98.94
277.031	96.94
277.262	83.94
277.494	79.94
277.726	78.94
277.957	90.94
278.189	83.94
278.421	94.94
278.652	96.94
278.884	84.94
279.115	90.94
279.347	95.94
279.579	71.94
279.81	78.94
280.042	95.94
280.273	92.94
280.505	96.94
280.736	93.94
280.968	86.94
281.199	80.94
281.431	99.94
281.662	84.94
281.894	86.94
282.125	94.94
282.356	87.94
282.588	120.94
282.819	103.94
283.051	95.94
283.282	84.94
283.513	93.94
283.745	81.94
283.976	83.94
284.207	83.94
284.439	92.94
284.67	97.94
284.901	83.94
285.132	94.94
285.364	80.94
285.595	109.94
285.826	80.94
286.057	92.94
286.288	83.94
286.52	89.94
286.751	86.94
286.982	80.94
287.213	81.94
287.444	83.94
287.675	82.94
287.906	80.94
288.138	83.94
288.369	93.94
288.6	84.94
288.831	91.94
289.062	83.94
289.293	96.94
289.524	80.94
289.755	93.94
289.986	102.94
290.217	81.94
290.448	85.94
290.679	90.94
290.91	92.94
291.141	79.94
291.371	86.94
291.602	87.94
291.833	86.94
292.064	88.94
292.295	80.94
292.526	84.94
292.757	95.94
292.987	93.94
293.218	85.94
293.449	101.94
293.68	74.94
293.91	85.94
294.141	72.94
294.372	76.94
294.603	92.94
294.833	83.94
295.064	94.94
295.295	89.94
295.525	98.94
295.756	88.94
295.987	107.94
296.217	126.94
296.448	110.94
296.679	89.94
296.909	76.94
297.14	88.94
297.37	90.94
297.601	90.94
297.831	83.94
298.062	100.94
298.292	88.94
298.523	101.94
298.753	84.94
298.984	68.94
299.214	73.94
299.445	98.94
299.675	95.94
299.905	91.94
300.136	89.94
300.366	72.94
300.597	77.94
300.827	80.94
301.057	84.94
301.288	105.94
301.518	94.94
301.748	82.94
301.979	101.94
302.209	88.94
302.439	95.94
302.669	97.94
302.9	79.94
303.13	84.94
303.36	99.94
303.59	99.94
303.82	107.94
304.051	102.94
304.281	90.94
304.511	99.94
304.741	91.94
304.971	82.94
305.201	84.94
305.431	90.94
305.661	82.94
305.891	77.94
306.121	101.94
306.352	83.94
306.582	94.94
306.812	83.94
307.042	102.94
307.272	84.94
307.502	104.94
307.731	98.94
307.961	96.94
308.191	83.94
308.421	102.94
308.651	84.94
308.881	92.94
309.111	96.94
309.341	77.94
309.571	86.94
309.8	94.94
310.03	100.94
310.26	94.94
310.49	90.94
310.72	94.94
310.949	91.94
311.179	89.94
311.409	96.94
311.639	95.94
311.868	110.94
312.098	99.94
312.328	83.94
312.557	98.94
312.787	101.94
313.017	101.94
313.246	96.94
313.476	84.94
313.706	95.94
313.935	80.94
314.165	91.94
314.394	106.94
314.624	86.94
314.853	88.94
315.083	84.94
315.312	84.94
315.542	92.94
315.771	73.94
316.001	85.94
316.23	86.94
316.46	78.94
316.689	94.94
316.919	94.94
317.148	89.94
317.377	94.94
317.607	94.94
317.836	93.94
318.065	95.94
318.295	88.94
318.524	78.94
318.753	96.94
318.983	85.94
319.212	109.94
319.441	87.94
319.67	109.94
319.9	90.94
320.129	83.94
320.358	91.94
320.587	92.94
320.816	111.94
321.046	102.94
321.275	97.94
321.504	88.94
321.733	90.94
321.962	98.94
322.191	96.94
322.42	105.94
322.649	105.94
322.878	116.94
323.108	120.94
323.337	107.94
323.566	109.94
323.795	135.94
324.024	179.94
324.253	333.94
324.482	660.94
324.71	1372.94
324.939	1720.94
325.168	656.94
325.397	205.94
325.626	135.94
325.855	131.94
326.084	111.94
326.313	129.94
326.542	128.94
326.77	206.94
326.999	387.94
327.228	751.94
327.457	1355.94
327.686	1074.94
327.914	316.94
328.143	179.94
328.372	156.94
328.6	127.94
328.829	118.94
329.058	110.94
329.287	108.94
329.515	96.94
329.744	110.94
329.972	118.94
330.201	128.94
330.43	165.94
330.658	120.94
330.887	127.94
331.115	111.94
331.344	96.94
331.572	86.94
331.801	98.94
332.03	100.94
332.258	93.94
332.486	85.94
332.715	96.94
332.943	81.94
333.172	89.94
333.4	93.94
333.629	108.94
333.857	105.94
334.085	126.94
334.314	138.94
334.542	180.94
334.771	160.94
334.999	95.94
335.227	101.94
335.455	88.94
335.684	101.94
335.912	86.94
336.14	85.94
336.369	76.94
336.597	103.94
336.825	98.94
337.053	93.94
337.281	95.94
337.51	92.94
337.738	105.94
337.966	92.94
338.194	82.94
338.422	99.94
338.65	92.94
338.878	94.94
339.106	92.94
339.334	84.94
339.562	85.94
339.79	82.94
340.018	93.94
340.246	85.94
340.474	89.94
340.702	96.94
340.93	90.94
341.158	87.94
341.386	80.94
341.614	91.94
341.842	84.94
342.07	90.94
342.298	92.94
342.526	90.94
342.754	95.94
342.981	92.94
343.209	92.94
343.437	105.94
343.665	84.94
343.893	85.94
344.12	110.94
344.348	72.94
344.576	85.94
344.804	94.94
345.031	84.94
345.259	101.94
345.487	90.94
345.714	96.94
345.942	80.94
346.17	84.94
346.397	87.94
346.625	82.94
346.853	95.94
347.08	80.94
347.308	89.94
347.535	97.94
347.763	105.94
347.99	90.94
348.218	101.94
348.445	88.94
348.673	95.94
348.9	104.94
349.128	100.94
349.355	113.94
349.583	87.94
349.81	99.94
350.037	87.94
350.265	98.94
350.492	88.94
350.72	98.94
350.947	94.94
351.174	114.94
351.402	101.94
351.629	95.94
351.856	102.94
352.083	94.94
352.311	94.94
352.538	111.94
352.765	106.94
352.992	94.94
353.22	100.94
353.447	95.94
353.674	104.94
353.901	91.94
354.128	97.94
354.355	85.94
354.583	92.94
354.81	106.94
355.037	94.94
355.264	95.94
355.491	98.94
355.718	81.94
355.945	87.94
356.172	94.94
356.399	95.94
356.626	88.94
356.853	95.94
357.08	76.94
357.307	78.94
357.534	74.94
357.761	90.94
357.988	94.94
358.215	95.94
358.441	84.94
358.668	94.94
358.895	90.94
359.122	85.94
359.349	105.94
359.576	91.94
359.802	92.94
360.029	103.94
360.256	109.94
360.483	87.94
360.709	80.94
360.936	109.94
361.163	96.94
361.39	99.94
361.616	90.94
361.843	87.94
362.07	87.94
362.296	95.94
362.523	99.94
362.749	77.94
362.976	93.94
363.203	94.94
363.429	103.94
363.656	95.94
363.882	98.94
364.109	81.94
364.335	102.94
364.562	80.94
364.788	80.94
365.015	88.94
365.241	105.94
365.468	99.94
365.694	80.94
365.92	88.94
366.147	89.94
366.373	75.94
366.599	89.94
366.826	91.94
367.052	87.94
367.278	85.94
367.505	96.94
367.731	91.94
367.957	93.94
368.184	89.94
368.41	83.94
368.636	110.94
368.862	114.94
369.089	97.94
369.315	80.94
369.541	98.94
369.767	84.94
369.993	77.94
370.219	97.94
370.445	91.94
370.672	73.94
370.898	102.94
371.124	83.94
371.35	83.94
371.576	84.94
371.802	89.94
372.028	85.94
372.254	87.94
372.48	86.94
372.706	88.94
372.932	87.94
373.158	85.94
373.384	110.94
373.61	90.94
373.835	84.94
374.061	77.94
374.287	80.94
374.513	86.94
374.739	83.94
374.965	91.94
375.191	96.94
375.416	103.94
375.642	79.94
375.868	73.94
376.094	89.94
376.319	82.94
376.545	63.94
376.771	82.94
376.997	99.94
377.222	91.94
377.448	103.94
377.674	107.94
377.899	97.94
378.125	93.94
378.35	88.94
378.576	86.94
378.802	94.94
379.027	83.94
379.253	91.94
379.478	110.94
379.704	87.94
379.929	95.94
380.155	94.94
380.38	91.94
380.606	100.94
380.831	100.94
381.057	95.94
381.282	102.94
381.507	88.94
381.733	93.94
381.958	86.94
382.184	90.94
382.409	94.94
382.634	104.94
382.86	107.94
383.085	98.94
383.31	100.94
383.535	95.94
383.761	105.94
383.986	101.94
384.211	103.94
384.436	95.94
384.662	101.94
384.887	98.94
385.112	100.94
385.337	115.94
385.562	114.94
385.787	116.94
386.013	119.94
386.238	110.94
386.463	101.94
386.688	96.94
386.913	97.94
387.138	107.94
387.363	110.94
387.588	108.94
387.813	94.94
388.038	107.94
388.263	119.94
388.488	105.94
388.713	92.94
388.938	87.94
389.163	92.94
389.387	106.94
389.612	101.94
389.837	95.94
390.062	95.94
390.287	92.94
390.512	110.94
390.736	83.94
390.961	86.94
391.186	87.94
391.411	101.94
391.636	88.94
391.86	67.94
392.085	84.94
392.31	82.94
392.534	83.94
392.759	83.94
392.984	89.94
393.208	91.94
393.433	117.94
393.658	106.94
393.882	94.94
394.107	100.94
394.331	79.94
394.556	87.94
394.78	86.94
395.005	95.94
395.229	94.94
395.454	79.94
395.678	74.94
395.903	88.94
396.127	87.94
396.352	81.94
396.576	92.94
396.801	85.94
397.025	108.94
397.249	93.94
397.474	79.94
397.698	88.94
397.922	96.94
398.147	78.94
398.371	93.94
398.595	79.94
398.82	80.94
399.044	83.94
399.268	91.94
399.492	88.94
399.717	83.94
399.941	83.94
400.165	87.94
400.389	80.94
400.613	87.94
400.837	94.94
401.062	88.94
401.286	87.94
401.51	87.94
401.734	80.94
401.958	99.94
402.182	107.94
402.406	152.94
402.63	114.94
402.854	86.94
403.078	93.94
403.302	90.94
403.526	100.94
403.75	84.94
403.974	84.94
404.198	87.94
404.422	81.94
404.645	94.94
404.869	93.94
405.093	103.94
405.317	93.94
405.541	96.94
405.765	107.94
405.988	111.94
406.212	143.94
406.436	198.94
406.66	124.94
406.883	80.94
407.107	87.94
407.331	102.94
407.555	89.94
407.778	103.94
408.002	95.94
408.226	102.94
408.449	80.94
408.673	87.94
408.896	93.94
409.12	94.94
409.344	90.94
409.567	92.94
409.791	106.94
410.014	95.94
410.238	100.94
410.461	110.94
410.685	107.94
410.908	100.94
411.132	85.94
411.355	102.94
411.578	104.94
411.802	91.94
412.025	80.94
412.249	97.94
412.472	84.94
412.695	98.94
412.919	76.94
413.142	83.94
413.365	96.94
413.589	91.94
413.812	86.94
414.035	86.94
414.258	86.94
414.482	80.94
414.705	93.94
414.928	90.94
415.151	94.94
415.374	94.94
415.597	88.94
415.821	100.94
416.044	96.94
416.267	99.94
416.49	91.94
416.713	82.94
416.936	92.94
417.159	72.94
417.382	94.94
417.605	83.94
417.828	86.94
418.051	94.94
418.274	94.94
418.497	88.94
418.72	88.94
418.943	97.94
419.166	91.94
419.389	87.94
419.611	90.94
419.834	79.94
420.057	90.94
420.28	96.94
420.503	90.94
420.726	91.94
420.948	81.94
421.171	86.94
421.394	90.94
421.617	89.94
421.839	87.94
422.062	88.94
422.285	89.94
422.507	107.94
422.73	100.94
422.953	95.94
423.175	81.94
423.398	76.94
423.621	93.94
423.843	97.94
424.066	77.94
424.288	79.94
424.511	105.94
424.733	92.94
424.956	92.94
425.178	84.94
425.401	95.94
425.623	91.94
425.846	92.94
426.068	91.94
426.291	94.94
426.513	86.94
426.735	88.94
426.958	78.94
427.18	94.94
427.402	118.94
427.625	147.94
427.847	127.94
428.069	102.94
428.292	75.94
428.514	107.94
428.736	76.94
428.958	88.94
429.181	89.94
429.403	93.94
429.625	82.94
429.847	93.94
430.069	81.94
430.292	78.94
430.514	81.94
430.736	92.94
430.958	87.94
431.18	80.94
431.402	93.94
431.624	85.94
431.846	76.94
432.068	90.94
432.29	78.94
432.512	74.94
432.734	84.94
432.956	95.94
433.178	99.94
433.4	99.94
433.622	91.94
433.844	84.94
434.066	94.94
434.287	95.94
434.509	87.94
434.731	103.94
434.953	92.94
435.175	90.94
435.397	88.94
435.618	92.94
435.84	98.94
436.062	116.94
436.284	115.94
436.505	100.94
436.727	89.94
436.949	82.94
437.17	88.94
437.392	94.94
437.614	73.94
437.835	105.94
438.057	108.94
438.278	117.94
438.5	103.94
438.721	116.94
438.943	99.94
439.165	90.94
439.386	79.94
439.608	90.94
439.829	93.94
440.05	125.94
440.272	121.94
440.493	101.94
440.715	92.94
440.936	91.94
441.158	80.94
441.379	82.94
441.6	80.94
441.822	94.94
442.043	101.94
442.264	92.94
442.486	97.94
442.707	100.94
442.928	112.94
443.149	119.94
443.371	124.94
443.592	102.94
443.813	95.94
444.034	102.94
444.255	99.94
444.476	93.94
444.698	86.94
444.919	80.94
445.14	121.94
445.361	121.94
445.582	98.94
445.803	116.94
446.024	109.94
446.245	107.94
446.466	90.94
446.687	76.94
446.908	80.94
447.129	87.94
447.35	96.94
447.571	80.94
447.792	95.94
448.013	95.94
448.234	99.94
448.455	85.94
448.675	97.94
448.896	106.94
449.117	111.94
449.338	87.94
449.559	101.94
449.779	117.94
450	87.94
450.221	84.94
450.442	82.94
450.662	76.94
450.883	93.94
451.104	94.94
451.324	86.94
451.545	91.94
451.766	87.94
451.986	92.94
452.207	91.94
452.428	83.94
452.648	79.94
452.869	112.94
453.089	115.94
453.31	108.94
453.53	95.94
453.751	90.94
453.971	99.94
454.192	94.94
454.412	78.94
454.633	95.94
454.853	83.94
455.073	93.94
455.294	82.94
455.514	85.94
455.734	86.94
455.955	81.94
456.175	92.94
456.395	95.94
456.616	86.94
456.836	84.94
457.056	85.94
457.276	84.94
457.497	69.94
457.717	76.94
457.937	99.94
458.157	98.94
458.377	88.94
458.598	92.94
458.818	128.94
459.038	139.94
459.258	119.94
459.478	101.94
459.698	85.94
459.918	87.94
460.138	87.94
460.358	68.94
460.578	85.94
460.798	97.94
461.018	96.94
461.238	90.94
461.458	80.94
461.678	79.94
461.898	75.94
462.118	88.94
462.338	87.94
462.558	90.94
462.777	78.94
462.997	95.94
463.217	82.94
463.437	74.94
463.657	87.94
463.876	92.94
464.096	78.94
464.316	87.94
464.536	102.94
464.755	97.94
464.975	94.94
465.195	141.94
465.414	145.94
465.634	91.94
465.854	83.94
466.073	86.94
466.293	90.94
466.512	88.94
466.732	83.94
466.951	88.94
467.171	75.94
467.391	89.94
467.61	93.94
467.829	92.94
468.049	110.94
468.268	117.94
468.488	82.94
468.707	83.94
468.927	87.94
469.146	84.94
469.365	77.94
469.585	72.94
469.804	78.94
470.023	84.94
470.243	95.94
470.462	85.94
470.681	116.94
470.901	102.94
471.12	79.94
471.339	85.94
471.558	83.94
471.777	93.94
471.997	101.94
472.216	145.94
472.435	207.94
472.654	115.94
472.873	88.94
473.092	86.94
473.311	78.94
473.53	82.94
473.749	76.94
473.968	93.94
474.187	94.94
474.406	92.94
474.625	88.94
474.844	90.94
475.063	72.94
475.282	83.94
475.501	88.94
475.72	78.94
475.939	87.94
476.158	87.94
476.377	93.94
476.596	86.94
476.814	80.94
477.033	90.94
477.252	75.94
477.471	83.94
477.69	85.94
477.908	79.94
478.127	86.94
478.346	98.94
478.564	69.94
478.783	93.94
479.002	87.94
479.22	100.94
479.439	84.94
479.658	86.94
479.876	95.94
480.095	91.94
480.313	91.94
480.532	85.94
480.751	105.94
480.969	143.94
481.188	323.94
481.406	224.94
481.624	102.94
481.843	84.94
482.061	98.94
482.28	85.94
482.498	89.94
482.717	90.94
482.935	93.94
483.153	81.94
483.372	81.94
483.59	98.94
483.808	77.94
484.027	91.94
484.245	103.94
484.463	89.94
484.681	99.94
484.9	93.94
485.118	85.94
485.336	88.94
485.554	94.94
485.772	85.94
485.99	105.94
486.209	100.94
486.427	104.94
486.645	100.94
486.863	130.94
487.081	94.94
487.299	99.94
487.517	91.94
487.735	101.94
487.953	91.94
488.171	98.94
488.389	88.94
488.607	89.94
488.825	88.94
489.043	76.94
489.261	88.94
489.479	94.94
489.696	90.94
489.914	96.94
490.132	101.94
490.35	90.94
490.568	74.94
490.786	79.94
491.003	98.94
491.221	102.94
491.439	84.94
491.657	92.94
491.874	78.94
492.092	93.94
492.31	73.94
492.527	90.94
492.745	89.94
492.963	92.94
493.18	82.94
493.398	87.94
493.615	88.94
493.833	81.94
494.05	90.94
494.268	90.94
494.485	78.94
494.703	86.94
494.92	79.94
495.138	80.94
495.355	83.94
495.573	104.94
495.79	95.94
496.008	83.94
496.225	79.94
496.442	83.94
496.66	101.94
496.877	90.94
497.094	85.94
497.312	103.94
497.529	94.94
497.746	81.94
497.963	92.94
498.181	82.94
498.398	90.94
498.615	89.94
498.832	93.94
499.049	77.94
499.267	77.94
499.484	89.94
499.701	102.94
499.918	95.94
500.135	78.94
500.352	78.94
500.569	93.94
500.786	94.94
501.003	76.94
501.22	86.94
501.437	88.94
501.654	90.94
501.871	93.94
502.088	94.94
502.305	86.94
502.522	87.94
502.739	95.94
502.956	85.94
503.172	81.94
503.389	91.94
503.606	107.94
503.823	87.94
504.04	97.94
504.256	90.94
504.473	87.94
504.69	91.94
504.907	95.94
505.123	92.94
505.34	101.94
505.557	100.94
505.773	79.94
505.99	87.94
506.207	80.94
506.423	90.94
506.64	93.94
506.856	81.94
507.073	84.94
507.289	86.94
507.506	85.94
507.722	89.94
507.939	99.94
508.155	86.94
508.372	84.94
508.588	94.94
508.805	103.94
509.021	99.94
509.238	99.94
509.454	103.94
509.67	93.94
509.887	99.94
510.103	106.94
510.319	188.94
510.536	607.94
510.752	1898.94
510.968	582.94
511.184	154.94
511.401	125.94
511.617	96.94
511.833	82.94
512.049	102.94
512.265	90.94
512.481	84.94
512.698	91.94
512.914	100.94
513.13	81.94
513.346	96.94
513.562	97.94
513.778	108.94
513.994	91.94
514.21	104.94
514.426	115.94
514.642	115.94
514.858	131.94
515.074	141.94
515.29	365.94
515.506	1145.94
515.721	457.94
515.937	133.94
516.153	102.94
516.369	82.94
