Data from Circ_2010_H10_HRD10591_00063.txt Node
Date: Wed Jan 03 10:09:53 EST 2024
User: Yrep
Spectrometer: HR+D1059
Trigger mode: 1
Integration Time (sec): 1.000000E-1
Scans to average: 1
Electric dark correction enabled: true
Nonlinearity correction enabled: false
Boxcar width: 0
XAxis mode: Wavelengths
Number of Pixels in Spectrum: 2048
>>>>>Begin Spectral Data<<<<<
223.165	-15.88
223.4	-15.88
223.635	-15.88
223.869	-25.88
224.104	-25.88
224.338	1.12
224.573	-17.88
224.808	-9.88
225.042	8.12
225.277	3.12
225.511	7.12
225.746	-10.88
225.98	2.12
226.215	3.12
226.449	4.12
226.683	27.12
226.918	23.12
227.152	27.12
227.387	49.12
227.621	48.12
227.856	59.12
228.09	52.12
228.324	42.12
228.559	48.12
228.793	51.12
229.027	69.12
229.262	68.12
229.496	66.12
229.73	60.12
229.964	75.12
230.199	80.12
230.433	80.12
230.667	92.12
230.901	73.12
231.136	71.12
231.37	82.12
231.604	83.12
231.838	84.12
232.072	81.12
232.306	84.12
232.541	79.12
232.775	77.12
233.009	86.12
233.243	93.12
233.477	78.12
233.711	94.12
233.945	94.12
234.179	90.12
234.413	90.12
234.647	94.12
234.881	94.12
235.115	99.12
235.349	76.12
235.583	90.12
235.817	72.12
236.051	84.12
236.285	88.12
236.519	82.12
236.753	89.12
236.987	92.12
237.221	93.12
237.455	84.12
237.689	93.12
237.922	72.12
238.156	76.12
238.39	82.12
238.624	76.12
238.858	86.12
239.091	82.12
239.325	66.12
239.559	81.12
239.793	89.12
240.027	77.12
240.26	95.12
240.494	97.12
240.728	74.12
240.961	86.12
241.195	77.12
241.429	81.12
241.662	72.12
241.896	95.12
242.13	83.12
242.363	88.12
242.597	85.12
242.83	83.12
243.064	89.12
243.298	83.12
243.531	102.12
243.765	68.12
243.998	74.12
244.232	79.12
244.465	80.12
244.699	89.12
244.932	77.12
245.166	81.12
245.399	71.12
245.633	85.12
245.866	81.12
246.099	88.12
246.333	76.12
246.566	78.12
246.8	87.12
247.033	88.12
247.266	73.12
247.5	90.12
247.733	87.12
247.966	81.12
248.2	74.12
248.433	86.12
248.666	84.12
248.899	83.12
249.133	86.12
249.366	101.12
249.599	98.12
249.832	79.12
250.066	82.12
250.299	94.12
250.532	92.12
250.765	87.12
250.998	78.12
251.231	80.12
251.465	76.12
251.698	67.12
251.931	76.12
252.164	93.12
252.397	91.12
252.63	89.12
252.863	92.12
253.096	88.12
253.329	85.12
253.562	77.12
253.795	72.12
254.028	76.12
254.261	90.12
254.494	100.12
254.727	91.12
254.96	84.12
255.193	76.12
255.426	74.12
255.659	86.12
255.892	88.12
256.124	77.12
256.357	87.12
256.59	89.12
256.823	76.12
257.056	80.12
257.289	77.12
257.521	86.12
257.754	92.12
257.987	101.12
258.22	80.12
258.452	83.12
258.685	76.12
258.918	91.12
259.151	104.12
259.383	82.12
259.616	79.12
259.849	98.12
260.081	95.12
260.314	88.12
260.547	83.12
260.779	97.12
261.012	79.12
261.244	72.12
261.477	100.12
261.71	95.12
261.942	99.12
262.175	119.12
262.407	84.12
262.64	90.12
262.872	91.12
263.105	84.12
263.337	81.12
263.57	80.12
263.802	84.12
264.035	101.12
264.267	85.12
264.499	84.12
264.732	86.12
264.964	84.12
265.197	92.12
265.429	67.12
265.661	82.12
265.894	84.12
266.126	92.12
266.358	84.12
266.591	83.12
266.823	87.12
267.055	76.12
267.287	86.12
267.52	79.12
267.752	85.12
267.984	78.12
268.216	73.12
268.448	90.12
268.681	72.12
268.913	84.12
269.145	85.12
269.377	89.12
269.609	73.12
269.841	97.12
270.073	92.12
270.306	96.12
270.538	88.12
270.77	89.12
271.002	83.12
271.234	88.12
271.466	96.12
271.698	96.12
271.93	86.12
272.162	101.12
272.394	84.12
272.626	91.12
272.858	82.12
273.09	80.12
273.322	82.12
273.553	83.12
273.785	91.12
274.017	72.12
274.249	91.12
274.481	92.12
274.713	101.12
274.945	92.12
275.176	90.12
275.408	77.12
275.64	104.12
275.872	86.12
276.104	83.12
276.335	95.12
276.567	104.12
276.799	101.12
277.031	114.12
277.262	89.12
277.494	94.12
277.726	107.12
277.957	80.12
278.189	85.12
278.421	86.12
278.652	78.12
278.884	88.12
279.115	85.12
279.347	92.12
279.579	82.12
279.81	95.12
280.042	113.12
280.273	113.12
280.505	101.12
280.736	95.12
280.968	78.12
281.199	95.12
281.431	91.12
281.662	94.12
281.894	88.12
282.125	101.12
282.356	108.12
282.588	125.12
282.819	102.12
283.051	93.12
283.282	92.12
283.513	84.12
283.745	98.12
283.976	80.12
284.207	89.12
284.439	89.12
284.67	85.12
284.901	84.12
285.132	88.12
285.364	86.12
285.595	81.12
285.826	92.12
286.057	97.12
286.288	83.12
286.52	83.12
286.751	81.12
286.982	80.12
287.213	88.12
287.444	87.12
287.675	100.12
287.906	84.12
288.138	99.12
288.369	93.12
288.6	105.12
288.831	87.12
289.062	89.12
289.293	92.12
289.524	85.12
289.755	90.12
289.986	83.12
290.217	96.12
290.448	78.12
290.679	84.12
290.91	99.12
291.141	92.12
291.371	95.12
291.602	85.12
291.833	86.12
292.064	99.12
292.295	81.12
292.526	91.12
292.757	94.12
292.987	81.12
293.218	83.12
293.449	86.12
293.68	78.12
293.91	80.12
294.141	99.12
294.372	97.12
294.603	90.12
294.833	89.12
295.064	93.12
295.295	74.12
295.525	97.12
295.756	106.12
295.987	113.12
296.217	123.12
296.448	107.12
296.679	99.12
296.909	104.12
297.14	81.12
297.37	90.12
297.601	105.12
297.831	94.12
298.062	104.12
298.292	85.12
298.523	97.12
298.753	98.12
298.984	78.12
299.214	105.12
299.445	84.12
299.675	86.12
299.905	95.12
300.136	89.12
300.366	78.12
300.597	85.12
300.827	84.12
301.057	107.12
301.288	82.12
301.518	108.12
301.748	89.12
301.979	102.12
302.209	93.12
302.439	80.12
302.669	101.12
302.9	98.12
303.13	86.12
303.36	80.12
303.59	93.12
303.82	111.12
304.051	96.12
304.281	96.12
304.511	90.12
304.741	83.12
304.971	81.12
305.201	104.12
305.431	78.12
305.661	92.12
305.891	92.12
306.121	90.12
306.352	103.12
306.582	110.12
306.812	98.12
307.042	99.12
307.272	112.12
307.502	109.12
307.731	98.12
307.961	90.12
308.191	101.12
308.421	101.12
308.651	96.12
308.881	85.12
309.111	97.12
309.341	86.12
309.571	94.12
309.8	101.12
310.03	95.12
310.26	96.12
310.49	91.12
310.72	100.12
310.949	98.12
311.179	98.12
311.409	98.12
311.639	98.12
311.868	119.12
312.098	106.12
312.328	90.12
312.557	101.12
312.787	104.12
313.017	94.12
313.246	100.12
313.476	92.12
313.706	97.12
313.935	100.12
314.165	88.12
314.394	94.12
314.624	98.12
314.853	99.12
315.083	94.12
315.312	92.12
315.542	83.12
315.771	92.12
316.001	91.12
316.23	92.12
316.46	94.12
316.689	94.12
316.919	93.12
317.148	89.12
317.377	93.12
317.607	102.12
317.836	100.12
318.065	96.12
318.295	98.12
318.524	79.12
318.753	82.12
318.983	105.12
319.212	96.12
319.441	102.12
319.67	113.12
319.9	98.12
320.129	91.12
320.358	91.12
320.587	97.12
320.816	98.12
321.046	92.12
321.275	108.12
321.504	91.12
321.733	107.12
321.962	98.12
322.191	95.12
322.42	115.12
322.649	99.12
322.878	110.12
323.108	122.12
323.337	103.12
323.566	143.12
323.795	136.12
324.024	177.12
324.253	318.12
324.482	632.12
324.71	1283.12
324.939	1604.12
325.168	602.12
325.397	210.12
325.626	144.12
325.855	113.12
326.084	109.12
326.313	132.12
326.542	144.12
326.77	208.12
326.999	373.12
327.228	726.12
327.457	1324.12
327.686	1032.12
327.914	312.12
328.143	194.12
328.372	178.12
328.6	137.12
328.829	107.12
329.058	122.12
329.287	106.12
329.515	105.12
329.744	113.12
329.972	138.12
330.201	188.12
330.43	235.12
330.658	142.12
330.887	122.12
331.115	109.12
331.344	99.12
331.572	106.12
331.801	113.12
332.03	107.12
332.258	108.12
332.486	103.12
332.715	107.12
332.943	89.12
333.172	104.12
333.4	87.12
333.629	109.12
333.857	134.12
334.085	140.12
334.314	191.12
334.542	270.12
334.771	245.12
334.999	124.12
335.227	110.12
335.455	101.12
335.684	97.12
335.912	93.12
336.14	97.12
336.369	105.12
336.597	94.12
336.825	86.12
337.053	99.12
337.281	97.12
337.51	89.12
337.738	109.12
337.966	92.12
338.194	97.12
338.422	84.12
338.65	89.12
338.878	72.12
339.106	103.12
339.334	108.12
339.562	112.12
339.79	91.12
340.018	94.12
340.246	91.12
340.474	98.12
340.702	100.12
340.93	97.12
341.158	99.12
341.386	86.12
341.614	108.12
341.842	76.12
342.07	101.12
342.298	96.12
342.526	99.12
342.754	99.12
342.981	110.12
343.209	98.12
343.437	114.12
343.665	103.12
343.893	93.12
344.12	104.12
344.348	86.12
344.576	90.12
344.804	108.12
345.031	102.12
345.259	96.12
345.487	99.12
345.714	100.12
345.942	89.12
346.17	105.12
346.397	106.12
346.625	101.12
346.853	97.12
347.08	100.12
347.308	102.12
347.535	76.12
347.763	93.12
347.99	99.12
348.218	99.12
348.445	109.12
348.673	93.12
348.9	91.12
349.128	91.12
349.355	98.12
349.583	95.12
349.81	96.12
350.037	97.12
350.265	102.12
350.492	99.12
350.72	105.12
350.947	111.12
351.174	99.12
351.402	128.12
351.629	94.12
351.856	95.12
352.083	106.12
352.311	115.12
352.538	111.12
352.765	100.12
352.992	102.12
353.22	115.12
353.447	101.12
353.674	101.12
353.901	104.12
354.128	97.12
354.355	93.12
354.583	98.12
354.81	92.12
355.037	105.12
355.264	107.12
355.491	105.12
355.718	98.12
355.945	109.12
356.172	102.12
356.399	99.12
356.626	110.12
356.853	102.12
357.08	96.12
357.307	100.12
357.534	100.12
357.761	82.12
357.988	92.12
358.215	100.12
358.441	86.12
358.668	83.12
358.895	84.12
359.122	81.12
359.349	91.12
359.576	114.12
359.802	92.12
360.029	98.12
360.256	102.12
360.483	100.12
360.709	96.12
360.936	89.12
361.163	100.12
361.39	105.12
361.616	97.12
361.843	107.12
362.07	93.12
362.296	106.12
362.523	105.12
362.749	90.12
362.976	92.12
363.203	97.12
363.429	108.12
363.656	98.12
363.882	81.12
364.109	93.12
364.335	112.12
364.562	99.12
364.788	95.12
365.015	93.12
365.241	105.12
365.468	96.12
365.694	92.12
365.92	93.12
366.147	86.12
366.373	97.12
366.599	86.12
366.826	89.12
367.052	110.12
367.278	89.12
367.505	96.12
367.731	97.12
367.957	93.12
368.184	95.12
368.41	96.12
368.636	101.12
368.862	109.12
369.089	96.12
369.315	88.12
369.541	92.12
369.767	91.12
369.993	105.12
370.219	98.12
370.445	89.12
370.672	89.12
370.898	94.12
371.124	103.12
371.35	93.12
371.576	89.12
371.802	81.12
372.028	106.12
372.254	85.12
372.48	100.12
372.706	104.12
372.932	116.12
373.158	89.12
373.384	95.12
373.61	104.12
373.835	93.12
374.061	82.12
374.287	107.12
374.513	111.12
374.739	92.12
374.965	87.12
375.191	82.12
375.416	102.12
375.642	93.12
375.868	90.12
376.094	105.12
376.319	82.12
376.545	84.12
376.771	91.12
376.997	100.12
377.222	93.12
377.448	107.12
377.674	100.12
377.899	95.12
378.125	82.12
378.35	97.12
378.576	91.12
378.802	81.12
379.027	96.12
379.253	91.12
379.478	96.12
379.704	108.12
379.929	98.12
380.155	90.12
380.38	102.12
380.606	79.12
380.831	89.12
381.057	88.12
381.282	97.12
381.507	90.12
381.733	103.12
381.958	92.12
382.184	109.12
382.409	105.12
382.634	90.12
382.86	98.12
383.085	94.12
383.31	109.12
383.535	99.12
383.761	105.12
383.986	102.12
384.211	111.12
384.436	114.12
384.662	108.12
384.887	124.12
385.112	101.12
385.337	97.12
385.562	94.12
385.787	103.12
386.013	101.12
386.238	110.12
386.463	98.12
386.688	127.12
386.913	101.12
387.138	102.12
387.363	93.12
387.588	99.12
387.813	109.12
388.038	91.12
388.263	106.12
388.488	104.12
388.713	98.12
388.938	83.12
389.163	104.12
389.387	104.12
389.612	93.12
389.837	106.12
390.062	112.12
390.287	106.12
390.512	100.12
390.736	104.12
390.961	87.12
391.186	101.12
391.411	100.12
391.636	97.12
391.86	86.12
392.085	88.12
392.31	82.12
392.534	97.12
392.759	105.12
392.984	93.12
393.208	109.12
393.433	98.12
393.658	101.12
393.882	84.12
394.107	113.12
394.331	96.12
394.556	85.12
394.78	98.12
395.005	106.12
395.229	88.12
395.454	93.12
395.678	93.12
395.903	94.12
396.127	93.12
396.352	96.12
396.576	91.12
396.801	103.12
397.025	109.12
397.249	95.12
397.474	84.12
397.698	79.12
397.922	88.12
398.147	86.12
398.371	91.12
398.595	85.12
398.82	95.12
399.044	84.12
399.268	72.12
399.492	89.12
399.717	91.12
399.941	90.12
400.165	94.12
400.389	102.12
400.613	99.12
400.837	98.12
401.062	86.12
401.286	96.12
401.51	103.12
401.734	97.12
401.958	99.12
402.182	120.12
402.406	132.12
402.63	105.12
402.854	96.12
403.078	92.12
403.302	93.12
403.526	101.12
403.75	77.12
403.974	102.12
404.198	88.12
404.422	86.12
404.645	105.12
404.869	106.12
405.093	102.12
405.317	112.12
405.541	102.12
405.765	101.12
405.988	118.12
406.212	139.12
406.436	176.12
406.66	139.12
406.883	95.12
407.107	98.12
407.331	101.12
407.555	90.12
407.778	104.12
408.002	97.12
408.226	92.12
408.449	83.12
408.673	91.12
408.896	86.12
409.12	90.12
409.344	89.12
409.567	85.12
409.791	95.12
410.014	100.12
410.238	97.12
410.461	92.12
410.685	86.12
410.908	108.12
411.132	98.12
411.355	107.12
411.578	97.12
411.802	85.12
412.025	97.12
412.249	92.12
412.472	91.12
412.695	107.12
412.919	97.12
413.142	88.12
413.365	94.12
413.589	92.12
413.812	81.12
414.035	94.12
414.258	69.12
414.482	89.12
414.705	91.12
414.928	101.12
415.151	85.12
415.374	100.12
415.597	103.12
415.821	103.12
416.044	102.12
416.267	105.12
416.49	107.12
416.713	100.12
416.936	78.12
417.159	100.12
417.382	91.12
417.605	94.12
417.828	101.12
418.051	87.12
418.274	93.12
418.497	91.12
418.72	86.12
418.943	91.12
419.166	82.12
419.389	85.12
419.611	96.12
419.834	86.12
420.057	89.12
420.28	74.12
420.503	88.12
420.726	79.12
420.948	104.12
421.171	96.12
421.394	105.12
421.617	92.12
421.839	92.12
422.062	83.12
422.285	99.12
422.507	98.12
422.73	97.12
422.953	98.12
423.175	92.12
423.398	101.12
423.621	90.12
423.843	105.12
424.066	92.12
424.288	94.12
424.511	78.12
424.733	82.12
424.956	90.12
425.178	88.12
425.401	96.12
425.623	114.12
425.846	93.12
426.068	86.12
426.291	94.12
426.513	82.12
426.735	100.12
426.958	101.12
427.18	104.12
427.402	115.12
427.625	146.12
427.847	128.12
428.069	128.12
428.292	100.12
428.514	87.12
428.736	85.12
428.958	82.12
429.181	93.12
429.403	88.12
429.625	93.12
429.847	96.12
430.069	108.12
430.292	103.12
430.514	97.12
430.736	85.12
430.958	89.12
431.18	89.12
431.402	97.12
431.624	91.12
431.846	76.12
432.068	94.12
432.29	87.12
432.512	100.12
432.734	86.12
432.956	82.12
433.178	99.12
433.4	96.12
433.622	91.12
433.844	106.12
434.066	88.12
434.287	91.12
434.509	82.12
434.731	96.12
434.953	82.12
435.175	91.12
435.397	92.12
435.618	94.12
435.84	106.12
436.062	101.12
436.284	110.12
436.505	104.12
436.727	114.12
436.949	101.12
437.17	90.12
437.392	85.12
437.614	92.12
437.835	103.12
438.057	111.12
438.278	98.12
438.5	105.12
438.721	109.12
438.943	89.12
439.165	84.12
439.386	98.12
439.608	92.12
439.829	99.12
440.05	97.12
440.272	136.12
440.493	106.12
440.715	107.12
440.936	79.12
441.158	90.12
441.379	84.12
441.6	96.12
441.822	107.12
442.043	91.12
442.264	104.12
442.486	96.12
442.707	93.12
442.928	100.12
443.149	119.12
443.371	116.12
443.592	108.12
443.813	107.12
444.034	94.12
444.255	93.12
444.476	85.12
444.698	70.12
444.919	98.12
445.14	141.12
445.361	126.12
445.582	114.12
445.803	126.12
446.024	117.12
446.245	114.12
446.466	106.12
446.687	100.12
446.908	84.12
447.129	87.12
447.35	89.12
447.571	94.12
447.792	91.12
448.013	86.12
448.234	105.12
448.455	101.12
448.675	110.12
448.896	121.12
449.117	84.12
449.338	94.12
449.559	125.12
449.779	122.12
450	90.12
450.221	99.12
450.442	93.12
450.662	97.12
450.883	88.12
451.104	113.12
451.324	93.12
451.545	99.12
451.766	101.12
451.986	94.12
452.207	96.12
452.428	92.12
452.648	91.12
452.869	91.12
453.089	92.12
453.31	99.12
453.53	94.12
453.751	91.12
453.971	104.12
454.192	88.12
454.412	94.12
454.633	95.12
454.853	90.12
455.073	82.12
455.294	79.12
455.514	104.12
455.734	108.12
455.955	83.12
456.175	80.12
456.395	83.12
456.616	88.12
456.836	85.12
457.056	93.12
457.276	84.12
457.497	93.12
457.717	97.12
457.937	99.12
458.157	100.12
458.377	93.12
458.598	94.12
458.818	137.12
459.038	137.12
459.258	110.12
459.478	80.12
459.698	85.12
459.918	81.12
460.138	87.12
460.358	83.12
460.578	95.12
460.798	94.12
461.018	102.12
461.238	94.12
461.458	84.12
461.678	86.12
461.898	96.12
462.118	83.12
462.338	73.12
462.558	95.12
462.777	85.12
462.997	89.12
463.217	81.12
463.437	90.12
463.657	102.12
463.876	104.12
464.096	91.12
464.316	106.12
464.536	85.12
464.755	94.12
464.975	100.12
465.195	139.12
465.414	131.12
465.634	90.12
465.854	88.12
466.073	84.12
466.293	86.12
466.512	92.12
466.732	92.12
466.951	80.12
467.171	103.12
467.391	86.12
467.61	105.12
467.829	121.12
468.049	142.12
468.268	167.12
468.488	102.12
468.707	93.12
468.927	89.12
469.146	92.12
469.365	103.12
469.585	89.12
469.804	80.12
470.023	87.12
470.243	83.12
470.462	91.12
470.681	105.12
470.901	98.12
471.12	86.12
471.339	98.12
471.558	91.12
471.777	104.12
471.997	102.12
472.216	226.12
472.435	349.12
472.654	147.12
472.873	96.12
473.092	83.12
473.311	104.12
473.53	85.12
473.749	86.12
473.968	94.12
474.187	96.12
474.406	98.12
474.625	94.12
474.844	95.12
475.063	85.12
475.282	86.12
475.501	87.12
475.72	92.12
475.939	92.12
476.158	98.12
476.377	86.12
476.596	97.12
476.814	81.12
477.033	92.12
477.252	86.12
477.471	93.12
477.69	106.12
477.908	102.12
478.127	72.12
478.346	90.12
478.564	96.12
478.783	109.12
479.002	83.12
479.22	109.12
479.439	98.12
479.658	89.12
479.876	94.12
480.095	94.12
480.313	86.12
480.532	104.12
480.751	107.12
480.969	206.12
481.188	572.12
481.406	366.12
481.624	126.12
481.843	104.12
482.061	86.12
482.28	93.12
482.498	97.12
482.717	95.12
482.935	84.12
483.153	90.12
483.372	87.12
483.59	92.12
483.808	98.12
484.027	99.12
484.245	90.12
484.463	81.12
484.681	95.12
484.9	100.12
485.118	96.12
485.336	93.12
485.554	108.12
485.772	102.12
485.99	114.12
486.209	114.12
486.427	101.12
486.645	125.12
486.863	106.12
487.081	101.12
487.299	106.12
487.517	112.12
487.735	88.12
487.953	101.12
488.171	88.12
488.389	101.12
488.607	95.12
488.825	96.12
489.043	97.12
489.261	95.12
489.479	84.12
489.696	84.12
489.914	90.12
490.132	90.12
490.35	97.12
490.568	80.12
490.786	98.12
491.003	86.12
491.221	106.12
491.439	97.12
491.657	95.12
491.874	99.12
492.092	100.12
492.31	94.12
492.527	93.12
492.745	93.12
492.963	102.12
493.18	89.12
493.398	91.12
493.615	99.12
493.833	90.12
494.05	97.12
494.268	92.12
494.485	97.12
494.703	85.12
494.92	83.12
495.138	78.12
495.355	83.12
495.573	91.12
495.79	97.12
496.008	108.12
496.225	92.12
496.442	97.12
496.66	103.12
496.877	102.12
497.094	107.12
497.312	103.12
497.529	108.12
497.746	94.12
497.963	104.12
498.181	86.12
498.398	95.12
498.615	114.12
498.832	106.12
499.049	87.12
499.267	94.12
499.484	90.12
499.701	95.12
499.918	91.12
500.135	92.12
500.352	98.12
500.569	89.12
500.786	106.12
501.003	86.12
501.22	95.12
501.437	91.12
501.654	75.12
501.871	90.12
502.088	98.12
502.305	85.12
502.522	100.12
502.739	116.12
502.956	82.12
503.172	103.12
503.389	107.12
503.606	104.12
503.823	100.12
504.04	97.12
504.256	101.12
504.473	96.12
504.69	88.12
504.907	109.12
505.123	81.12
505.34	86.12
505.557	95.12
505.773	81.12
505.99	108.12
506.207	106.12
506.423	91.12
506.64	93.12
506.856	90.12
507.073	82.12
507.289	92.12
507.506	107.12
507.722	99.12
507.939	109.12
508.155	106.12
508.372	77.12
508.588	116.12
508.805	101.12
509.021	105.12
509.238	108.12
509.454	102.12
509.67	106.12
509.887	115.12
510.103	123.12
510.319	163.12
510.536	560.12
510.752	1662.12
510.968	505.12
511.184	132.12
511.401	99.12
511.617	79.12
511.833	100.12
512.049	102.12
512.265	93.12
512.481	82.12
512.698	107.12
512.914	84.12
513.13	84.12
513.346	94.12
513.562	93.12
513.778	93.12
513.994	107.12
514.21	96.12
514.426	104.12
