Data from Circ_2010_H10_HRD10591_00023.txt Node
Date: Wed Jan 03 10:09:45 EST 2024
User: Yrep
Spectrometer: HR+D1059
Trigger mode: 1
Integration Time (sec): 1.000000E-1
Scans to average: 1
Electric dark correction enabled: true
Nonlinearity correction enabled: false
Boxcar width: 0
XAxis mode: Wavelengths
Number of Pixels in Spectrum: 2048
>>>>>Begin Spectral Data<<<<<
223.165	-23.31
223.4	-23.31
223.635	-23.31
223.869	-13.31
224.104	-15.31
224.338	-19.31
224.573	-16.31
224.808	-5.31
225.042	-0.31
225.277	-12.31
225.511	-5.31
225.746	0.69
225.98	7.69
226.215	12.69
226.449	11.69
226.683	15.69
226.918	24.69
227.152	37.69
227.387	35.69
227.621	38.69
227.856	48.69
228.09	54.69
228.324	62.69
228.559	64.69
228.793	66.69
229.027	59.69
229.262	61.69
229.496	77.69
229.73	73.69
229.964	83.69
230.199	95.69
230.433	68.69
230.667	84.69
230.901	85.69
231.136	84.69
231.37	67.69
231.604	77.69
231.838	78.69
232.072	69.69
232.306	77.69
232.541	82.69
232.775	79.69
233.009	82.69
233.243	87.69
233.477	71.69
233.711	87.69
233.945	91.69
234.179	89.69
234.413	80.69
234.647	65.69
234.881	88.69
235.115	70.69
235.349	86.69
235.583	81.69
235.817	84.69
236.051	87.69
236.285	70.69
236.519	77.69
236.753	73.69
236.987	79.69
237.221	77.69
237.455	92.69
237.689	95.69
237.922	75.69
238.156	76.69
238.39	86.69
238.624	75.69
238.858	73.69
239.091	73.69
239.325	82.69
239.559	87.69
239.793	83.69
240.027	90.69
240.26	72.69
240.494	75.69
240.728	86.69
240.961	76.69
241.195	73.69
241.429	73.69
241.662	79.69
241.896	74.69
242.13	74.69
242.363	78.69
242.597	74.69
242.83	90.69
243.064	87.69
243.298	73.69
243.531	83.69
243.765	68.69
243.998	78.69
244.232	91.69
244.465	70.69
244.699	88.69
244.932	80.69
245.166	79.69
245.399	87.69
245.633	79.69
245.866	74.69
246.099	75.69
246.333	82.69
246.566	87.69
246.8	72.69
247.033	84.69
247.266	85.69
247.5	89.69
247.733	87.69
247.966	87.69
248.2	83.69
248.433	82.69
248.666	86.69
248.899	78.69
249.133	75.69
249.366	87.69
249.599	88.69
249.832	81.69
250.066	86.69
250.299	79.69
250.532	88.69
250.765	81.69
250.998	79.69
251.231	75.69
251.465	82.69
251.698	74.69
251.931	71.69
252.164	76.69
252.397	96.69
252.63	100.69
252.863	88.69
253.096	84.69
253.329	76.69
253.562	77.69
253.795	90.69
254.028	84.69
254.261	84.69
254.494	75.69
254.727	71.69
254.96	82.69
255.193	80.69
255.426	91.69
255.659	74.69
255.892	85.69
256.124	75.69
256.357	77.69
256.59	88.69
256.823	84.69
257.056	82.69
257.289	88.69
257.521	78.69
257.754	90.69
257.987	80.69
258.22	90.69
258.452	80.69
258.685	91.69
258.918	77.69
259.151	103.69
259.383	84.69
259.616	88.69
259.849	88.69
260.081	94.69
260.314	87.69
260.547	81.69
260.779	84.69
261.012	93.69
261.244	87.69
261.477	92.69
261.71	102.69
261.942	93.69
262.175	102.69
262.407	86.69
262.64	90.69
262.872	98.69
263.105	81.69
263.337	91.69
263.57	78.69
263.802	80.69
264.035	92.69
264.267	90.69
264.499	82.69
264.732	71.69
264.964	90.69
265.197	86.69
265.429	95.69
265.661	79.69
265.894	88.69
266.126	81.69
266.358	78.69
266.591	85.69
266.823	79.69
267.055	90.69
267.287	82.69
267.52	77.69
267.752	66.69
267.984	96.69
268.216	81.69
268.448	83.69
268.681	85.69
268.913	97.69
269.145	81.69
269.377	76.69
269.609	74.69
269.841	98.69
270.073	82.69
270.306	84.69
270.538	86.69
270.77	75.69
271.002	77.69
271.234	84.69
271.466	81.69
271.698	71.69
271.93	97.69
272.162	90.69
272.394	90.69
272.626	83.69
272.858	101.69
273.09	88.69
273.322	94.69
273.553	75.69
273.785	93.69
274.017	81.69
274.249	81.69
274.481	91.69
274.713	82.69
274.945	80.69
275.176	90.69
275.408	74.69
275.64	97.69
275.872	79.69
276.104	102.69
276.335	92.69
276.567	97.69
276.799	100.69
277.031	94.69
277.262	106.69
277.494	99.69
277.726	87.69
277.957	76.69
278.189	86.69
278.421	84.69
278.652	91.69
278.884	94.69
279.115	84.69
279.347	91.69
279.579	87.69
279.81	82.69
280.042	90.69
280.273	96.69
280.505	81.69
280.736	91.69
280.968	98.69
281.199	83.69
281.431	79.69
281.662	88.69
281.894	85.69
282.125	97.69
282.356	112.69
282.588	116.69
282.819	110.69
283.051	80.69
283.282	74.69
283.513	92.69
283.745	103.69
283.976	98.69
284.207	91.69
284.439	72.69
284.67	88.69
284.901	95.69
285.132	84.69
285.364	80.69
285.595	95.69
285.826	110.69
286.057	102.69
286.288	90.69
286.52	88.69
286.751	82.69
286.982	99.69
287.213	102.69
287.444	81.69
287.675	77.69
287.906	82.69
288.138	92.69
288.369	102.69
288.6	103.69
288.831	89.69
289.062	91.69
289.293	84.69
289.524	88.69
289.755	84.69
289.986	91.69
290.217	88.69
290.448	71.69
290.679	86.69
290.91	96.69
291.141	102.69
291.371	116.69
291.602	90.69
291.833	85.69
292.064	93.69
292.295	84.69
292.526	103.69
292.757	94.69
292.987	104.69
293.218	87.69
293.449	85.69
293.68	92.69
293.91	88.69
294.141	98.69
294.372	104.69
294.603	105.69
294.833	86.69
295.064	75.69
295.295	97.69
295.525	79.69
295.756	108.69
295.987	111.69
296.217	117.69
296.448	119.69
296.679	99.69
296.909	92.69
297.14	96.69
297.37	90.69
297.601	95.69
297.831	82.69
298.062	96.69
298.292	102.69
298.523	92.69
298.753	90.69
298.984	95.69
299.214	95.69
299.445	97.69
299.675	95.69
299.905	88.69
300.136	88.69
300.366	83.69
300.597	96.69
300.827	103.69
301.057	88.69
301.288	91.69
301.518	104.69
301.748	88.69
301.979	104.69
302.209	88.69
302.439	88.69
302.669	101.69
302.9	89.69
303.13	104.69
303.36	94.69
303.59	82.69
303.82	96.69
304.051	95.69
304.281	95.69
304.511	94.69
304.741	91.69
304.971	92.69
305.201	96.69
305.431	89.69
305.661	102.69
305.891	80.69
306.121	82.69
306.352	116.69
306.582	98.69
306.812	103.69
307.042	104.69
307.272	98.69
307.502	92.69
307.731	99.69
307.961	90.69
308.191	94.69
308.421	93.69
308.651	94.69
308.881	89.69
309.111	105.69
309.341	95.69
309.571	85.69
309.8	91.69
310.03	95.69
310.26	91.69
310.49	109.69
310.72	98.69
310.949	110.69
311.179	110.69
311.409	91.69
311.639	97.69
311.868	95.69
312.098	102.69
312.328	99.69
312.557	88.69
312.787	110.69
313.017	98.69
313.246	88.69
313.476	100.69
313.706	93.69
313.935	96.69
314.165	95.69
314.394	90.69
314.624	95.69
314.853	90.69
315.083	88.69
315.312	89.69
315.542	94.69
315.771	89.69
316.001	91.69
316.23	105.69
316.46	72.69
316.689	97.69
316.919	80.69
317.148	90.69
317.377	102.69
317.607	92.69
317.836	89.69
318.065	81.69
318.295	105.69
318.524	108.69
318.753	92.69
318.983	83.69
319.212	121.69
319.441	95.69
319.67	111.69
319.9	90.69
320.129	99.69
320.358	89.69
320.587	87.69
320.816	94.69
321.046	109.69
321.275	98.69
321.504	99.69
321.733	113.69
321.962	97.69
322.191	90.69
322.42	115.69
322.649	112.69
322.878	110.69
323.108	114.69
323.337	123.69
323.566	132.69
323.795	126.69
324.024	175.69
324.253	312.69
324.482	645.69
324.71	1246.69
324.939	1619.69
325.168	625.69
325.397	203.69
325.626	120.69
325.855	123.69
326.084	118.69
326.313	114.69
326.542	142.69
326.77	200.69
326.999	358.69
327.228	712.69
327.457	1283.69
327.686	1009.69
327.914	295.69
328.143	201.69
328.372	154.69
328.6	123.69
328.829	113.69
329.058	119.69
329.287	112.69
329.515	116.69
329.744	119.69
329.972	120.69
330.201	147.69
330.43	189.69
330.658	157.69
330.887	140.69
331.115	118.69
331.344	103.69
331.572	97.69
331.801	97.69
332.03	99.69
332.258	105.69
332.486	88.69
332.715	82.69
332.943	87.69
333.172	100.69
333.4	89.69
333.629	98.69
333.857	109.69
334.085	135.69
334.314	152.69
334.542	191.69
334.771	196.69
334.999	111.69
335.227	86.69
335.455	112.69
335.684	100.69
335.912	106.69
336.14	101.69
336.369	94.69
336.597	109.69
336.825	92.69
337.053	91.69
337.281	93.69
337.51	97.69
337.738	91.69
337.966	93.69
338.194	87.69
338.422	89.69
338.65	100.69
338.878	83.69
339.106	84.69
339.334	96.69
339.562	84.69
339.79	98.69
340.018	89.69
340.246	90.69
340.474	93.69
340.702	94.69
340.93	84.69
341.158	99.69
341.386	105.69
341.614	96.69
341.842	99.69
342.07	100.69
342.298	97.69
342.526	98.69
342.754	92.69
342.981	103.69
343.209	84.69
343.437	97.69
343.665	90.69
343.893	84.69
344.12	88.69
344.348	106.69
344.576	106.69
344.804	93.69
345.031	108.69
345.259	103.69
345.487	110.69
345.714	82.69
345.942	104.69
346.17	90.69
346.397	96.69
346.625	80.69
346.853	97.69
347.08	83.69
347.308	91.69
347.535	105.69
347.763	109.69
347.99	101.69
348.218	95.69
348.445	93.69
348.673	102.69
348.9	97.69
349.128	96.69
349.355	102.69
349.583	85.69
349.81	97.69
350.037	102.69
350.265	90.69
350.492	93.69
350.72	92.69
350.947	100.69
351.174	90.69
351.402	111.69
351.629	106.69
351.856	106.69
352.083	109.69
352.311	92.69
352.538	94.69
352.765	119.69
352.992	127.69
353.22	130.69
353.447	116.69
353.674	120.69
353.901	111.69
354.128	103.69
354.355	82.69
354.583	102.69
354.81	103.69
355.037	107.69
355.264	100.69
355.491	100.69
355.718	102.69
355.945	99.69
356.172	104.69
356.399	98.69
356.626	85.69
356.853	105.69
357.08	101.69
357.307	105.69
357.534	85.69
357.761	97.69
357.988	95.69
358.215	106.69
358.441	90.69
358.668	106.69
358.895	97.69
359.122	99.69
359.349	89.69
359.576	99.69
359.802	110.69
360.029	101.69
360.256	113.69
360.483	89.69
360.709	83.69
360.936	114.69
361.163	91.69
361.39	91.69
361.616	91.69
361.843	99.69
362.07	86.69
362.296	77.69
362.523	89.69
362.749	94.69
362.976	90.69
363.203	91.69
363.429	89.69
363.656	83.69
363.882	89.69
364.109	87.69
364.335	98.69
364.562	83.69
364.788	88.69
365.015	106.69
365.241	98.69
365.468	97.69
365.694	113.69
365.92	103.69
366.147	102.69
366.373	93.69
366.599	94.69
366.826	85.69
367.052	102.69
367.278	90.69
367.505	99.69
367.731	86.69
367.957	78.69
368.184	104.69
368.41	98.69
368.636	113.69
368.862	110.69
369.089	105.69
369.315	92.69
369.541	83.69
369.767	80.69
369.993	89.69
370.219	90.69
370.445	83.69
370.672	101.69
370.898	96.69
371.124	99.69
371.35	91.69
371.576	98.69
371.802	78.69
372.028	91.69
372.254	89.69
372.48	101.69
372.706	100.69
372.932	95.69
373.158	86.69
373.384	92.69
373.61	93.69
373.835	110.69
374.061	98.69
374.287	97.69
374.513	84.69
374.739	79.69
374.965	87.69
375.191	91.69
375.416	95.69
375.642	99.69
375.868	87.69
376.094	89.69
376.319	84.69
376.545	99.69
376.771	96.69
376.997	95.69
377.222	102.69
377.448	95.69
377.674	88.69
377.899	95.69
378.125	88.69
378.35	96.69
378.576	82.69
378.802	99.69
379.027	100.69
379.253	94.69
379.478	94.69
379.704	103.69
379.929	101.69
380.155	88.69
380.38	97.69
380.606	81.69
380.831	102.69
381.057	93.69
381.282	91.69
381.507	90.69
381.733	101.69
381.958	89.69
382.184	96.69
382.409	87.69
382.634	102.69
382.86	107.69
383.085	101.69
383.31	108.69
383.535	98.69
383.761	95.69
383.986	104.69
384.211	87.69
384.436	110.69
384.662	103.69
384.887	108.69
385.112	111.69
385.337	114.69
385.562	105.69
385.787	105.69
386.013	108.69
386.238	106.69
386.463	104.69
386.688	122.69
386.913	93.69
387.138	102.69
387.363	104.69
387.588	111.69
387.813	106.69
388.038	102.69
388.263	105.69
388.488	111.69
388.713	109.69
388.938	111.69
389.163	98.69
389.387	103.69
389.612	106.69
389.837	100.69
390.062	93.69
390.287	92.69
390.512	96.69
390.736	96.69
390.961	98.69
391.186	84.69
391.411	100.69
391.636	99.69
391.86	95.69
392.085	95.69
392.31	91.69
392.534	89.69
392.759	86.69
392.984	82.69
393.208	93.69
393.433	114.69
393.658	97.69
393.882	82.69
394.107	104.69
394.331	101.69
394.556	94.69
394.78	92.69
395.005	101.69
395.229	74.69
395.454	86.69
395.678	91.69
395.903	92.69
396.127	98.69
396.352	92.69
396.576	90.69
396.801	98.69
397.025	92.69
397.249	93.69
397.474	86.69
397.698	93.69
397.922	99.69
398.147	94.69
398.371	97.69
398.595	93.69
398.82	82.69
399.044	85.69
399.268	83.69
399.492	97.69
399.717	102.69
399.941	95.69
400.165	100.69
400.389	97.69
400.613	95.69
400.837	83.69
401.062	84.69
401.286	95.69
401.51	97.69
401.734	92.69
401.958	100.69
402.182	115.69
402.406	135.69
402.63	118.69
402.854	80.69
403.078	104.69
403.302	96.69
403.526	88.69
403.75	87.69
403.974	86.69
404.198	91.69
404.422	86.69
404.645	88.69
404.869	98.69
405.093	96.69
405.317	99.69
405.541	93.69
405.765	111.69
405.988	119.69
406.212	142.69
406.436	194.69
406.66	134.69
406.883	99.69
407.107	111.69
407.331	106.69
407.555	99.69
407.778	91.69
408.002	86.69
408.226	84.69
408.449	82.69
408.673	84.69
408.896	93.69
409.12	81.69
409.344	98.69
409.567	95.69
409.791	84.69
410.014	99.69
410.238	91.69
410.461	83.69
410.685	89.69
410.908	81.69
411.132	103.69
411.355	99.69
411.578	98.69
411.802	97.69
412.025	83.69
412.249	91.69
412.472	107.69
412.695	102.69
412.919	93.69
413.142	89.69
413.365	98.69
413.589	93.69
413.812	93.69
414.035	104.69
414.258	98.69
414.482	90.69
414.705	103.69
414.928	94.69
415.151	89.69
415.374	93.69
415.597	89.69
415.821	93.69
416.044	85.69
416.267	100.69
416.49	90.69
416.713	97.69
416.936	91.69
417.159	99.69
417.382	77.69
417.605	88.69
417.828	95.69
418.051	97.69
418.274	106.69
418.497	111.69
418.72	78.69
418.943	94.69
419.166	95.69
419.389	83.69
419.611	84.69
419.834	83.69
420.057	91.69
420.28	83.69
420.503	95.69
420.726	107.69
420.948	87.69
421.171	90.69
421.394	84.69
421.617	90.69
421.839	97.69
422.062	81.69
422.285	97.69
422.507	99.69
422.73	112.69
422.953	102.69
423.175	92.69
423.398	89.69
423.621	106.69
423.843	103.69
424.066	87.69
424.288	89.69
424.511	101.69
424.733	92.69
424.956	94.69
425.178	101.69
425.401	97.69
425.623	90.69
425.846	88.69
426.068	85.69
426.291	83.69
426.513	81.69
426.735	93.69
426.958	101.69
427.18	94.69
427.402	118.69
427.625	150.69
427.847	121.69
428.069	109.69
428.292	107.69
428.514	92.69
428.736	90.69
428.958	78.69
429.181	70.69
429.403	98.69
429.625	82.69
429.847	93.69
430.069	93.69
430.292	87.69
430.514	91.69
430.736	81.69
430.958	84.69
431.18	86.69
431.402	97.69
431.624	81.69
431.846	82.69
432.068	90.69
432.29	86.69
432.512	83.69
432.734	82.69
432.956	101.69
433.178	91.69
433.4	101.69
433.622	87.69
433.844	92.69
434.066	91.69
434.287	97.69
434.509	80.69
434.731	105.69
434.953	91.69
435.175	86.69
435.397	93.69
435.618	90.69
435.84	93.69
436.062	108.69
436.284	111.69
436.505	106.69
436.727	106.69
436.949	104.69
437.17	92.69
437.392	75.69
437.614	92.69
437.835	102.69
438.057	114.69
438.278	98.69
438.5	100.69
438.721	109.69
438.943	99.69
439.165	85.69
439.386	75.69
439.608	89.69
439.829	107.69
440.05	93.69
440.272	131.69
440.493	92.69
440.715	101.69
440.936	98.69
441.158	92.69
441.379	92.69
441.6	102.69
441.822	106.69
442.043	95.69
442.264	109.69
442.486	96.69
442.707	83.69
442.928	94.69
443.149	120.69
443.371	121.69
443.592	106.69
443.813	100.69
444.034	107.69
444.255	103.69
444.476	94.69
444.698	87.69
444.919	85.69
445.14	128.69
445.361	107.69
445.582	102.69
445.803	120.69
446.024	121.69
446.245	121.69
446.466	98.69
446.687	85.69
446.908	96.69
447.129	99.69
447.35	99.69
447.571	92.69
447.792	102.69
448.013	118.69
448.234	95.69
448.455	107.69
448.675	107.69
448.896	113.69
449.117	104.69
449.338	94.69
449.559	118.69
449.779	132.69
450	92.69
450.221	94.69
450.442	87.69
450.662	90.69
450.883	94.69
451.104	99.69
451.324	86.69
451.545	89.69
451.766	100.69
451.986	88.69
452.207	97.69
452.428	104.69
452.648	100.69
452.869	102.69
453.089	94.69
453.31	104.69
453.53	96.69
453.751	98.69
453.971	97.69
454.192	113.69
454.412	91.69
454.633	94.69
454.853	84.69
455.073	94.69
455.294	86.69
455.514	96.69
455.734	87.69
455.955	82.69
456.175	95.69
456.395	70.69
456.616	79.69
456.836	82.69
457.056	81.69
457.276	99.69
457.497	103.69
457.717	86.69
457.937	97.69
458.157	81.69
458.377	90.69
458.598	99.69
458.818	128.69
459.038	156.69
459.258	110.69
459.478	106.69
459.698	87.69
459.918	74.69
460.138	77.69
460.358	97.69
460.578	111.69
460.798	88.69
461.018	81.69
461.238	92.69
461.458	95.69
461.678	86.69
461.898	82.69
462.118	93.69
462.338	98.69
462.558	92.69
462.777	82.69
462.997	87.69
463.217	87.69
463.437	90.69
463.657	88.69
463.876	82.69
464.096	73.69
464.316	95.69
464.536	96.69
464.755	108.69
464.975	98.69
465.195	142.69
465.414	130.69
465.634	87.69
465.854	90.69
466.073	104.69
466.293	99.69
466.512	89.69
466.732	96.69
466.951	96.69
467.171	89.69
467.391	88.69
467.61	100.69
467.829	102.69
468.049	103.69
468.268	128.69
468.488	94.69
468.707	102.69
468.927	84.69
469.146	95.69
469.365	98.69
469.585	92.69
469.804	96.69
470.023	93.69
470.243	102.69
470.462	94.69
470.681	105.69
470.901	103.69
471.12	90.69
471.339	99.69
471.558	102.69
471.777	89.69
471.997	103.69
472.216	169.69
472.435	254.69
472.654	125.69
472.873	102.69
473.092	105.69
473.311	92.69
473.53	103.69
473.749	94.69
473.968	82.69
474.187	103.69
474.406	85.69
474.625	94.69
474.844	82.69
475.063	81.69
475.282	108.69
475.501	95.69
475.72	102.69
475.939	89.69
476.158	88.69
476.377	96.69
476.596	91.69
476.814	79.69
477.033	80.69
477.252	91.69
477.471	86.69
477.69	94.69
477.908	87.69
478.127	90.69
478.346	103.69
478.564	107.69
478.783	101.69
479.002	95.69
479.22	99.69
479.439	97.69
479.658	99.69
479.876	94.69
480.095	104.69
480.313	99.69
480.532	89.69
480.751	115.69
480.969	171.69
481.188	360.69
481.406	255.69
481.624	104.69
481.843	86.69
482.061	95.69
482.28	103.69
482.498	71.69
482.717	87.69
482.935	95.69
483.153	78.69
483.372	95.69
483.59	87.69
483.808	94.69
484.027	93.69
484.245	86.69
484.463	76.69
484.681	93.69
484.9	101.69
485.118	102.69
485.336	102.69
485.554	110.69
485.772	113.69
485.99	102.69
486.209	93.69
486.427	102.69
486.645	101.69
486.863	108.69
487.081	94.69
487.299	100.69
487.517	96.69
487.735	87.69
487.953	97.69
488.171	93.69
488.389	96.69
488.607	104.69
488.825	83.69
489.043	84.69
489.261	89.69
489.479	87.69
489.696	96.69
489.914	96.69
490.132	78.69
490.35	98.69
490.568	88.69
490.786	86.69
491.003	86.69
491.221	92.69
491.439	92.69
491.657	102.69
491.874	99.69
492.092	91.69
492.31	100.69
492.527	85.69
492.745	93.69
492.963	94.69
493.18	99.69
493.398	84.69
493.615	112.69
493.833	94.69
494.05	89.69
494.268	98.69
494.485	86.69
494.703	86.69
494.92	97.69
495.138	90.69
495.355	90.69
495.573	92.69
495.79	85.69
496.008	84.69
496.225	90.69
496.442	98.69
496.66	96.69
496.877	80.69
497.094	97.69
497.312	91.69
497.529	96.69
497.746	93.69
497.963	89.69
498.181	109.69
498.398	109.69
498.615	99.69
498.832	84.69
499.049	115.69
499.267	78.69
499.484	101.69
499.701	94.69
499.918	74.69
500.135	97.69
500.352	96.69
500.569	93.69
500.786	97.69
501.003	83.69
501.22	98.69
501.437	96.69
501.654	96.69
501.871	97.69
502.088	99.69
502.305	88.69
502.522	98.69
502.739	89.69
502.956	90.69
503.172	104.69
503.389	101.69
503.606	109.69
503.823	100.69
504.04	99.69
504.256	94.69
504.473	93.69
504.69	92.69
504.907	96.69
505.123	96.69
505.34	102.69
505.557	91.69
505.773	106.69
505.99	88.69
506.207	90.69
506.423	89.69
506.64	88.69
506.856	90.69
507.073	90.69
507.289	85.69
507.506	99.69
507.722	109.69
507.939	113.69
508.155	106.69
508.372	91.69
508.588	94.69
508.805	86.69
509.021	97.69
509.238	99.69
509.454	102.69
509.67	110.69
509.887	110.69
510.103	123.69
510.319	187.69
510.536	581.69
510.752	1846.69
510.968	551.69
511.184	148.69
511.401	104.69
511.617	101.69
511.833	99.69
512.049	81.69
512.265	91.69
512.481	92.69
512.698	108.69
512.914	96.69
513.13	92.69
513.346	100.69
513.562	92.69
513.778	88.69
513.994	103.69
514.21	110.69
514.426	101.69
514.642	115.69
514.858	111.69
