Data from Circ_2010_H10_HRD10591_00007.txt Node
Date: Wed Jan 03 10:09:42 EST 2024
User: Yrep
Spectrometer: HR+D1059
Trigger mode: 1
Integration Time (sec): 1.000000E-1
Scans to average: 1
Electric dark correction enabled: true
Nonlinearity correction enabled: false
Boxcar width: 0
XAxis mode: Wavelengths
Number of Pixels in Spectrum: 2048
>>>>>Begin Spectral Data<<<<<
223.165	-9.5
223.4	-9.5
223.635	-9.5
223.869	-10.5
224.104	-24.5
224.338	-6.5
224.573	-21.5
224.808	-12.5
225.042	-16.5
225.277	-6.5
225.511	-9.5
225.746	0.5
225.98	22.5
226.215	10.5
226.449	7.5
226.683	10.5
226.918	26.5
227.152	39.5
227.387	30.5
227.621	49.5
227.856	41.5
228.09	47.5
228.324	55.5
228.559	51.5
228.793	62.5
229.027	55.5
229.262	66.5
229.496	55.5
229.73	73.5
229.964	88.5
230.199	72.5
230.433	73.5
230.667	62.5
230.901	85.5
231.136	60.5
231.37	75.5
231.604	84.5
231.838	83.5
232.072	84.5
232.306	95.5
232.541	65.5
232.775	85.5
233.009	83.5
233.243	77.5
233.477	81.5
233.711	78.5
233.945	85.5
234.179	66.5
234.413	81.5
234.647	86.5
234.881	73.5
235.115	78.5
235.349	82.5
235.583	83.5
235.817	72.5
236.051	69.5
236.285	75.5
236.519	85.5
236.753	78.5
236.987	71.5
237.221	99.5
237.455	83.5
237.689	79.5
237.922	72.5
238.156	67.5
238.39	81.5
238.624	81.5
238.858	84.5
239.091	64.5
239.325	77.5
239.559	71.5
239.793	78.5
240.027	89.5
240.26	86.5
240.494	86.5
240.728	80.5
240.961	77.5
241.195	66.5
241.429	78.5
241.662	91.5
241.896	93.5
242.13	69.5
242.363	74.5
242.597	74.5
242.83	83.5
243.064	93.5
243.298	76.5
243.531	77.5
243.765	78.5
243.998	77.5
244.232	80.5
244.465	96.5
244.699	81.5
244.932	79.5
245.166	78.5
245.399	81.5
245.633	94.5
245.866	79.5
246.099	59.5
246.333	84.5
246.566	78.5
246.8	81.5
247.033	77.5
247.266	88.5
247.5	75.5
247.733	71.5
247.966	79.5
248.2	82.5
248.433	93.5
248.666	91.5
248.899	97.5
249.133	87.5
249.366	95.5
249.599	100.5
249.832	96.5
250.066	86.5
250.299	91.5
250.532	107.5
250.765	78.5
250.998	88.5
251.231	82.5
251.465	75.5
251.698	82.5
251.931	79.5
252.164	98.5
252.397	86.5
252.63	79.5
252.863	91.5
253.096	75.5
253.329	81.5
253.562	86.5
253.795	77.5
254.028	87.5
254.261	94.5
254.494	88.5
254.727	78.5
254.96	91.5
255.193	98.5
255.426	71.5
255.659	71.5
255.892	80.5
256.124	71.5
256.357	81.5
256.59	94.5
256.823	71.5
257.056	73.5
257.289	77.5
257.521	75.5
257.754	63.5
257.987	96.5
258.22	89.5
258.452	89.5
258.685	92.5
258.918	79.5
259.151	79.5
259.383	87.5
259.616	89.5
259.849	95.5
260.081	84.5
260.314	69.5
260.547	89.5
260.779	92.5
261.012	91.5
261.244	83.5
261.477	86.5
261.71	97.5
261.942	102.5
262.175	115.5
262.407	96.5
262.64	74.5
262.872	76.5
263.105	95.5
263.337	77.5
263.57	86.5
263.802	82.5
264.035	80.5
264.267	86.5
264.499	100.5
264.732	82.5
264.964	78.5
265.197	88.5
265.429	87.5
265.661	81.5
265.894	83.5
266.126	85.5
266.358	94.5
266.591	87.5
266.823	82.5
267.055	77.5
267.287	90.5
267.52	75.5
267.752	88.5
267.984	95.5
268.216	80.5
268.448	88.5
268.681	79.5
268.913	76.5
269.145	78.5
269.377	85.5
269.609	85.5
269.841	87.5
270.073	91.5
270.306	89.5
270.538	79.5
270.77	84.5
271.002	91.5
271.234	87.5
271.466	79.5
271.698	78.5
271.93	98.5
272.162	98.5
272.394	88.5
272.626	90.5
272.858	95.5
273.09	74.5
273.322	90.5
273.553	89.5
273.785	84.5
274.017	78.5
274.249	82.5
274.481	91.5
274.713	88.5
274.945	80.5
275.176	61.5
275.408	81.5
275.64	76.5
275.872	76.5
276.104	77.5
276.335	96.5
276.567	109.5
276.799	105.5
277.031	108.5
277.262	90.5
277.494	92.5
277.726	87.5
277.957	91.5
278.189	86.5
278.421	65.5
278.652	93.5
278.884	104.5
279.115	79.5
279.347	101.5
279.579	81.5
279.81	94.5
280.042	98.5
280.273	89.5
280.505	90.5
280.736	85.5
280.968	78.5
281.199	80.5
281.431	96.5
281.662	89.5
281.894	87.5
282.125	92.5
282.356	102.5
282.588	114.5
282.819	107.5
283.051	87.5
283.282	93.5
283.513	84.5
283.745	90.5
283.976	83.5
284.207	93.5
284.439	95.5
284.67	86.5
284.901	89.5
285.132	71.5
285.364	89.5
285.595	99.5
285.826	83.5
286.057	97.5
286.288	82.5
286.52	94.5
286.751	76.5
286.982	83.5
287.213	73.5
287.444	95.5
287.675	94.5
287.906	92.5
288.138	92.5
288.369	97.5
288.6	89.5
288.831	100.5
289.062	97.5
289.293	89.5
289.524	98.5
289.755	101.5
289.986	83.5
290.217	77.5
290.448	74.5
290.679	87.5
290.91	100.5
291.141	82.5
291.371	93.5
291.602	88.5
291.833	92.5
292.064	100.5
292.295	103.5
292.526	94.5
292.757	81.5
292.987	72.5
293.218	79.5
293.449	103.5
293.68	102.5
293.91	74.5
294.141	106.5
294.372	95.5
294.603	96.5
294.833	88.5
295.064	96.5
295.295	78.5
295.525	95.5
295.756	97.5
295.987	100.5
296.217	119.5
296.448	118.5
296.679	99.5
296.909	95.5
297.14	93.5
297.37	96.5
297.601	91.5
297.831	87.5
298.062	102.5
298.292	99.5
298.523	98.5
298.753	92.5
298.984	75.5
299.214	83.5
299.445	90.5
299.675	82.5
299.905	101.5
300.136	99.5
300.366	87.5
300.597	86.5
300.827	84.5
301.057	108.5
301.288	88.5
301.518	97.5
301.748	97.5
301.979	98.5
302.209	94.5
302.439	87.5
302.669	90.5
302.9	101.5
303.13	95.5
303.36	83.5
303.59	94.5
303.82	106.5
304.051	96.5
304.281	101.5
304.511	78.5
304.741	84.5
304.971	90.5
305.201	79.5
305.431	96.5
305.661	90.5
305.891	92.5
306.121	104.5
306.352	98.5
306.582	92.5
306.812	102.5
307.042	79.5
307.272	87.5
307.502	101.5
307.731	97.5
307.961	101.5
308.191	90.5
308.421	92.5
308.651	88.5
308.881	94.5
309.111	102.5
309.341	98.5
309.571	103.5
309.8	87.5
310.03	90.5
310.26	109.5
310.49	92.5
310.72	88.5
310.949	99.5
311.179	112.5
311.409	88.5
311.639	95.5
311.868	98.5
312.098	97.5
312.328	94.5
312.557	113.5
312.787	90.5
313.017	98.5
313.246	95.5
313.476	95.5
313.706	82.5
313.935	92.5
314.165	102.5
314.394	83.5
314.624	94.5
314.853	96.5
315.083	96.5
315.312	105.5
315.542	88.5
315.771	86.5
316.001	97.5
316.23	87.5
316.46	102.5
316.689	88.5
316.919	85.5
317.148	88.5
317.377	108.5
317.607	88.5
317.836	88.5
318.065	86.5
318.295	99.5
318.524	95.5
318.753	90.5
318.983	95.5
319.212	111.5
319.441	102.5
319.67	97.5
319.9	102.5
320.129	100.5
320.358	93.5
320.587	88.5
320.816	104.5
321.046	97.5
321.275	93.5
321.504	93.5
321.733	103.5
321.962	91.5
322.191	87.5
322.42	90.5
322.649	102.5
322.878	101.5
323.108	114.5
323.337	120.5
323.566	119.5
323.795	147.5
324.024	186.5
324.253	343.5
324.482	689.5
324.71	1376.5
324.939	1750.5
325.168	660.5
325.397	223.5
325.626	147.5
325.855	118.5
326.084	124.5
326.313	111.5
326.542	140.5
326.77	215.5
326.999	398.5
327.228	785.5
327.457	1381.5
327.686	1102.5
327.914	326.5
328.143	180.5
328.372	142.5
328.6	124.5
328.829	105.5
329.058	115.5
329.287	121.5
329.515	119.5
329.744	108.5
329.972	113.5
330.201	142.5
330.43	157.5
330.658	123.5
330.887	131.5
331.115	115.5
331.344	94.5
331.572	103.5
331.801	103.5
332.03	103.5
332.258	92.5
332.486	102.5
332.715	88.5
332.943	100.5
333.172	101.5
333.4	98.5
333.629	111.5
333.857	122.5
334.085	113.5
334.314	125.5
334.542	173.5
334.771	153.5
334.999	100.5
335.227	94.5
335.455	99.5
335.684	87.5
335.912	99.5
336.14	101.5
336.369	105.5
336.597	102.5
336.825	83.5
337.053	85.5
337.281	90.5
337.51	81.5
337.738	96.5
337.966	83.5
338.194	91.5
338.422	92.5
338.65	79.5
338.878	93.5
339.106	84.5
339.334	107.5
339.562	81.5
339.79	99.5
340.018	89.5
340.246	78.5
340.474	72.5
340.702	88.5
340.93	88.5
341.158	85.5
341.386	90.5
341.614	105.5
341.842	89.5
342.07	92.5
342.298	77.5
342.526	94.5
342.754	99.5
342.981	105.5
343.209	93.5
343.437	106.5
343.665	100.5
343.893	92.5
344.12	76.5
344.348	92.5
344.576	88.5
344.804	83.5
345.031	112.5
345.259	98.5
345.487	97.5
345.714	94.5
345.942	81.5
346.17	98.5
346.397	91.5
346.625	95.5
346.853	91.5
347.08	103.5
347.308	84.5
347.535	97.5
347.763	95.5
347.99	94.5
348.218	90.5
348.445	101.5
348.673	91.5
348.9	87.5
349.128	95.5
349.355	96.5
349.583	92.5
349.81	87.5
350.037	101.5
350.265	102.5
350.492	79.5
350.72	91.5
350.947	99.5
351.174	86.5
351.402	109.5
351.629	99.5
351.856	110.5
352.083	97.5
352.311	101.5
352.538	102.5
352.765	110.5
352.992	111.5
353.22	102.5
353.447	101.5
353.674	104.5
353.901	97.5
354.128	94.5
354.355	100.5
354.583	104.5
354.81	86.5
355.037	90.5
355.264	88.5
355.491	95.5
355.718	87.5
355.945	79.5
356.172	96.5
356.399	84.5
356.626	90.5
356.853	90.5
357.08	90.5
357.307	80.5
357.534	101.5
357.761	88.5
357.988	93.5
358.215	90.5
358.441	85.5
358.668	96.5
358.895	105.5
359.122	97.5
359.349	83.5
359.576	90.5
359.802	103.5
360.029	95.5
360.256	92.5
360.483	85.5
360.709	83.5
360.936	82.5
361.163	94.5
361.39	90.5
361.616	79.5
361.843	93.5
362.07	108.5
362.296	94.5
362.523	87.5
362.749	81.5
362.976	98.5
363.203	87.5
363.429	105.5
363.656	84.5
363.882	83.5
364.109	82.5
364.335	96.5
364.562	80.5
364.788	84.5
365.015	117.5
365.241	108.5
365.468	101.5
365.694	102.5
365.92	96.5
366.147	81.5
366.373	94.5
366.599	87.5
366.826	101.5
367.052	86.5
367.278	91.5
367.505	80.5
367.731	89.5
367.957	106.5
368.184	90.5
368.41	89.5
368.636	106.5
368.862	114.5
369.089	109.5
369.315	89.5
369.541	87.5
369.767	80.5
369.993	82.5
370.219	80.5
370.445	88.5
370.672	81.5
370.898	82.5
371.124	94.5
371.35	102.5
371.576	84.5
371.802	89.5
372.028	105.5
372.254	91.5
372.48	82.5
372.706	76.5
372.932	89.5
373.158	91.5
373.384	86.5
373.61	79.5
373.835	93.5
374.061	91.5
374.287	93.5
374.513	102.5
374.739	89.5
374.965	106.5
375.191	104.5
375.416	93.5
375.642	82.5
375.868	95.5
376.094	88.5
376.319	86.5
376.545	87.5
376.771	103.5
376.997	102.5
377.222	104.5
377.448	86.5
377.674	83.5
377.899	95.5
378.125	96.5
378.35	92.5
378.576	83.5
378.802	98.5
379.027	87.5
379.253	94.5
379.478	95.5
379.704	88.5
379.929	83.5
380.155	99.5
380.38	98.5
380.606	104.5
380.831	77.5
381.057	99.5
381.282	90.5
381.507	103.5
381.733	108.5
381.958	109.5
382.184	81.5
382.409	98.5
382.634	101.5
382.86	107.5
383.085	102.5
383.31	93.5
383.535	104.5
383.761	103.5
383.986	97.5
384.211	99.5
384.436	118.5
384.662	110.5
384.887	108.5
385.112	109.5
385.337	101.5
385.562	105.5
385.787	100.5
386.013	109.5
386.238	109.5
386.463	114.5
386.688	103.5
386.913	101.5
387.138	113.5
387.363	115.5
387.588	105.5
387.813	110.5
388.038	119.5
388.263	125.5
388.488	107.5
388.713	90.5
388.938	100.5
389.163	84.5
389.387	93.5
389.612	105.5
389.837	93.5
390.062	98.5
390.287	85.5
390.512	89.5
390.736	97.5
390.961	101.5
391.186	86.5
391.411	102.5
391.636	99.5
391.86	95.5
392.085	89.5
392.31	85.5
392.534	77.5
392.759	77.5
392.984	94.5
393.208	102.5
393.433	112.5
393.658	109.5
393.882	83.5
394.107	86.5
394.331	88.5
394.556	101.5
394.78	81.5
395.005	88.5
395.229	82.5
395.454	89.5
395.678	85.5
395.903	94.5
396.127	96.5
396.352	90.5
396.576	82.5
396.801	94.5
397.025	105.5
397.249	94.5
397.474	89.5
397.698	98.5
397.922	83.5
398.147	87.5
398.371	83.5
398.595	79.5
398.82	83.5
399.044	88.5
399.268	83.5
399.492	86.5
399.717	82.5
399.941	66.5
400.165	85.5
400.389	93.5
400.613	81.5
400.837	77.5
401.062	93.5
401.286	91.5
401.51	94.5
401.734	83.5
401.958	94.5
402.182	121.5
402.406	147.5
402.63	110.5
402.854	82.5
403.078	84.5
403.302	88.5
403.526	83.5
403.75	85.5
403.974	91.5
404.198	77.5
404.422	94.5
404.645	88.5
404.869	84.5
405.093	105.5
405.317	112.5
405.541	94.5
405.765	97.5
405.988	107.5
406.212	157.5
406.436	193.5
406.66	145.5
406.883	118.5
407.107	98.5
407.331	90.5
407.555	105.5
407.778	94.5
408.002	95.5
408.226	85.5
408.449	80.5
408.673	96.5
408.896	97.5
409.12	97.5
409.344	76.5
409.567	82.5
409.791	83.5
410.014	107.5
410.238	95.5
410.461	103.5
410.685	98.5
410.908	98.5
411.132	83.5
411.355	96.5
411.578	97.5
411.802	95.5
412.025	86.5
412.249	93.5
412.472	95.5
412.695	103.5
412.919	88.5
413.142	97.5
413.365	92.5
413.589	94.5
413.812	83.5
414.035	91.5
414.258	90.5
414.482	93.5
414.705	93.5
414.928	93.5
415.151	97.5
415.374	88.5
415.597	102.5
415.821	99.5
416.044	105.5
416.267	75.5
416.49	73.5
416.713	79.5
416.936	94.5
417.159	94.5
417.382	78.5
417.605	76.5
417.828	91.5
418.051	80.5
418.274	101.5
418.497	79.5
418.72	75.5
418.943	87.5
419.166	83.5
419.389	86.5
419.611	90.5
419.834	98.5
420.057	92.5
420.28	83.5
420.503	90.5
420.726	80.5
420.948	80.5
421.171	85.5
421.394	88.5
421.617	90.5
421.839	94.5
422.062	89.5
422.285	98.5
422.507	99.5
422.73	103.5
422.953	109.5
423.175	106.5
423.398	85.5
423.621	89.5
423.843	80.5
424.066	83.5
424.288	86.5
424.511	87.5
424.733	94.5
424.956	87.5
425.178	90.5
425.401	105.5
425.623	96.5
425.846	93.5
426.068	88.5
426.291	93.5
426.513	82.5
426.735	82.5
426.958	98.5
427.18	97.5
427.402	128.5
427.625	146.5
427.847	136.5
428.069	97.5
428.292	105.5
428.514	86.5
428.736	91.5
428.958	91.5
429.181	85.5
429.403	97.5
429.625	91.5
429.847	90.5
430.069	98.5
430.292	74.5
430.514	86.5
430.736	89.5
430.958	87.5
431.18	88.5
431.402	89.5
431.624	83.5
431.846	98.5
432.068	87.5
432.29	100.5
432.512	95.5
432.734	85.5
432.956	87.5
433.178	95.5
433.4	93.5
433.622	87.5
433.844	89.5
434.066	84.5
434.287	94.5
434.509	86.5
434.731	89.5
434.953	87.5
435.175	83.5
435.397	90.5
435.618	104.5
435.84	104.5
436.062	125.5
436.284	114.5
436.505	107.5
436.727	98.5
436.949	89.5
437.17	83.5
437.392	77.5
437.614	93.5
437.835	96.5
438.057	112.5
438.278	96.5
438.5	94.5
438.721	99.5
438.943	94.5
439.165	84.5
439.386	88.5
439.608	88.5
439.829	98.5
440.05	114.5
440.272	123.5
440.493	104.5
440.715	86.5
440.936	89.5
441.158	101.5
441.379	91.5
441.6	87.5
441.822	105.5
442.043	99.5
442.264	108.5
442.486	99.5
442.707	106.5
442.928	98.5
443.149	128.5
443.371	121.5
443.592	103.5
443.813	114.5
444.034	101.5
444.255	88.5
444.476	81.5
444.698	86.5
444.919	83.5
445.14	153.5
445.361	129.5
445.582	125.5
445.803	117.5
446.024	133.5
446.245	113.5
446.466	109.5
446.687	82.5
446.908	86.5
447.129	80.5
447.35	95.5
447.571	85.5
447.792	98.5
448.013	97.5
448.234	99.5
448.455	96.5
448.675	105.5
448.896	98.5
449.117	94.5
449.338	94.5
449.559	122.5
449.779	135.5
450	87.5
450.221	80.5
450.442	97.5
450.662	81.5
450.883	100.5
451.104	126.5
451.324	92.5
451.545	79.5
451.766	90.5
451.986	83.5
452.207	86.5
452.428	91.5
452.648	107.5
452.869	110.5
453.089	94.5
453.31	111.5
453.53	94.5
453.751	81.5
453.971	89.5
454.192	106.5
454.412	103.5
454.633	85.5
454.853	89.5
455.073	80.5
455.294	95.5
455.514	93.5
455.734	100.5
455.955	97.5
456.175	81.5
456.395	83.5
456.616	87.5
456.836	94.5
457.056	95.5
457.276	82.5
457.497	82.5
457.717	86.5
457.937	77.5
458.157	93.5
458.377	98.5
458.598	95.5
458.818	129.5
459.038	146.5
459.258	115.5
459.478	93.5
459.698	83.5
459.918	84.5
460.138	79.5
460.358	82.5
460.578	81.5
460.798	79.5
461.018	73.5
461.238	92.5
461.458	94.5
461.678	80.5
461.898	93.5
462.118	80.5
462.338	76.5
462.558	86.5
462.777	89.5
462.997	91.5
463.217	88.5
463.437	91.5
463.657	88.5
463.876	85.5
464.096	89.5
464.316	101.5
464.536	83.5
464.755	99.5
464.975	99.5
465.195	148.5
465.414	121.5
465.634	83.5
465.854	78.5
466.073	81.5
466.293	90.5
466.512	91.5
466.732	90.5
466.951	94.5
467.171	100.5
467.391	98.5
467.61	95.5
467.829	94.5
468.049	114.5
468.268	111.5
468.488	95.5
468.707	87.5
468.927	82.5
469.146	91.5
469.365	86.5
469.585	73.5
469.804	80.5
470.023	76.5
470.243	77.5
470.462	98.5
470.681	110.5
470.901	79.5
471.12	82.5
471.339	93.5
471.558	91.5
471.777	88.5
471.997	108.5
472.216	143.5
472.435	197.5
472.654	104.5
472.873	96.5
473.092	91.5
473.311	98.5
473.53	85.5
473.749	91.5
473.968	93.5
474.187	106.5
474.406	95.5
474.625	84.5
474.844	87.5
475.063	90.5
475.282	86.5
475.501	66.5
475.72	90.5
475.939	96.5
476.158	97.5
476.377	80.5
476.596	86.5
476.814	92.5
477.033	92.5
477.252	78.5
477.471	90.5
477.69	87.5
477.908	80.5
478.127	89.5
478.346	82.5
478.564	100.5
478.783	97.5
479.002	88.5
479.22	93.5
479.439	94.5
479.658	84.5
479.876	93.5
480.095	105.5
480.313	95.5
480.532	90.5
480.751	91.5
480.969	133.5
481.188	289.5
481.406	217.5
481.624	96.5
481.843	91.5
482.061	86.5
482.28	98.5
482.498	86.5
482.717	92.5
482.935	75.5
483.153	82.5
483.372	91.5
483.59	82.5
483.808	83.5
484.027	93.5
484.245	93.5
484.463	100.5
484.681	103.5
484.9	96.5
485.118	97.5
485.336	102.5
485.554	97.5
485.772	98.5
485.99	90.5
486.209	87.5
486.427	104.5
486.645	99.5
486.863	98.5
487.081	106.5
487.299	93.5
487.517	108.5
487.735	85.5
487.953	101.5
488.171	81.5
488.389	94.5
488.607	87.5
488.825	85.5
489.043	83.5
489.261	91.5
489.479	85.5
489.696	90.5
489.914	85.5
490.132	96.5
490.35	87.5
490.568	101.5
490.786	86.5
491.003	89.5
491.221	80.5
491.439	91.5
491.657	105.5
491.874	85.5
492.092	87.5
492.31	93.5
492.527	88.5
492.745	96.5
492.963	77.5
493.18	91.5
493.398	97.5
493.615	97.5
493.833	102.5
494.05	88.5
494.268	87.5
494.485	77.5
494.703	99.5
494.92	94.5
495.138	87.5
495.355	101.5
495.573	94.5
495.79	94.5
496.008	85.5
496.225	92.5
496.442	82.5
496.66	94.5
496.877	82.5
497.094	114.5
497.312	93.5
497.529	99.5
497.746	100.5
497.963	75.5
498.181	98.5
498.398	94.5
498.615	95.5
498.832	109.5
499.049	85.5
499.267	92.5
499.484	88.5
499.701	83.5
499.918	100.5
500.135	90.5
500.352	95.5
500.569	91.5
500.786	87.5
501.003	87.5
501.22	103.5
501.437	92.5
501.654	90.5
501.871	91.5
502.088	89.5
502.305	86.5
502.522	83.5
502.739	83.5
502.956	90.5
503.172	89.5
503.389	91.5
503.606	105.5
503.823	95.5
504.04	90.5
504.256	85.5
504.473	79.5
504.69	98.5
504.907	83.5
505.123	93.5
505.34	89.5
505.557	98.5
505.773	87.5
505.99	92.5
506.207	88.5
506.423	83.5
506.64	91.5
506.856	93.5
507.073	89.5
507.289	87.5
507.506	108.5
507.722	111.5
507.939	97.5
508.155	95.5
508.372	96.5
508.588	88.5
508.805	95.5
509.021	100.5
509.238	102.5
509.454	96.5
509.67	89.5
509.887	91.5
510.103	134.5
510.319	185.5
510.536	621.5
510.752	1927.5
510.968	562.5
511.184	150.5
511.401	106.5
511.617	112.5
511.833	107.5
512.049	103.5
512.265	88.5
512.481	99.5
512.698	104.5
512.914	96.5
513.13	95.5
513.346	94.5
513.562	95.5
513.778	120.5
513.994	105.5
514.21	105.5
514.426	103.5
514.642	124.5
514.858	105.5
515.074	164.5
515.29	364.5
515.506	1166.5
515.721	477.5
515.937	144.5
516.153	97.5
516.369	88.5
516.585	94.5
516.801	87.5
517.016	101.5
517.232	113.5
517.448	93.5
517.664	89.5
517.879	94.5
518.095	103.5
518.311	101.5
518.527	100.5
518.742	94.5
518.958	93.5
519.173	89.5
519.389	112.5
519.605	99.5
519.82	101.5
520.036	94.5
520.251	121.5
520.467	112.5
520.682	91.5
520.898	103.5
521.113	107.5
521.329	126.5
521.544	189.5
521.76	437.5
521.975	1887.5
522.19	1177.5
522.406	276.5
522.621	120.5
522.836	102.5
523.052	105.5
523.267	83.5
523.482	77.5
523.698	87.5
523.913	110.5
524.128	100.5
524.343	92.5
524.559	98.5
524.774	91.5
524.989	89.5
525.204	99.5
525.419	97.5
525.634	85.5
525.849	95.5
526.064	100.5
526.28	98.5
526.495	90.5
526.71	99.5
526.925	86.5
527.14	95.5
527.355	89.5
527.57	89.5
527.785	96.5
527.999	105.5
528.214	97.5
528.429	99.5
528.644	87.5
528.859	88.5
529.074	91.5
529.289	130.5
529.503	146.5
529.718	99.5
529.933	106.5
530.148	87.5
530.363	94.5
530.577	113.5
530.792	88.5
531.007	80.5
531.221	109.5
531.436	94.5
531.651	86.5
531.865	108.5
532.08	90.5
532.295	98.5
532.509	79.5
532.724	96.5
532.938	93.5
533.153	101.5
533.367	85.5
533.582	91.5
533.796	90.5
534.011	103.5
534.225	90.5
534.44	98.5
534.654	107.5
534.868	95.5
535.083	95.5
535.297	88.5
