Data from Circ_2010_H10_HRD10591_00061.txt Node
Date: Wed Jan 03 10:09:53 EST 2024
User: Yrep
Spectrometer: HR+D1059
Trigger mode: 1
Integration Time (sec): 1.000000E-1
Scans to average: 1
Electric dark correction enabled: true
Nonlinearity correction enabled: false
Boxcar width: 0
XAxis mode: Wavelengths
Number of Pixels in Spectrum: 2048
>>>>>Begin Spectral Data<<<<<
223.165	-35.5
223.4	-35.5
223.635	-35.5
223.869	-25.5
224.104	-9.5
224.338	-18.5
224.573	-17.5
224.808	-10.5
225.042	-2.5
225.277	-10.5
225.511	19.5
225.746	-8.5
225.98	8.5
226.215	7.5
226.449	21.5
226.683	34.5
226.918	16.5
227.152	30.5
227.387	22.5
227.621	30.5
227.856	38.5
228.09	66.5
228.324	49.5
228.559	57.5
228.793	52.5
229.027	67.5
229.262	53.5
229.496	67.5
229.73	78.5
229.964	69.5
230.199	75.5
230.433	69.5
230.667	61.5
230.901	77.5
231.136	71.5
231.37	73.5
231.604	77.5
231.838	79.5
232.072	73.5
232.306	68.5
232.541	70.5
232.775	69.5
233.009	75.5
233.243	72.5
233.477	77.5
233.711	86.5
233.945	83.5
234.179	73.5
234.413	71.5
234.647	90.5
234.881	63.5
235.115	60.5
235.349	86.5
235.583	72.5
235.817	71.5
236.051	88.5
236.285	84.5
236.519	77.5
236.753	82.5
236.987	70.5
237.221	89.5
237.455	76.5
237.689	78.5
237.922	71.5
238.156	79.5
238.39	82.5
238.624	85.5
238.858	70.5
239.091	53.5
239.325	66.5
239.559	79.5
239.793	86.5
240.027	77.5
240.26	86.5
240.494	75.5
240.728	62.5
240.961	75.5
241.195	74.5
241.429	71.5
241.662	63.5
241.896	72.5
242.13	65.5
242.363	79.5
242.597	74.5
242.83	78.5
243.064	70.5
243.298	66.5
243.531	73.5
243.765	79.5
243.998	75.5
244.232	76.5
244.465	84.5
244.699	82.5
244.932	73.5
245.166	66.5
245.399	78.5
245.633	65.5
245.866	65.5
246.099	86.5
246.333	90.5
246.566	79.5
246.8	72.5
247.033	84.5
247.266	78.5
247.5	77.5
247.733	70.5
247.966	69.5
248.2	74.5
248.433	83.5
248.666	98.5
248.899	91.5
249.133	75.5
249.366	85.5
249.599	78.5
249.832	79.5
250.066	80.5
250.299	90.5
250.532	78.5
250.765	72.5
250.998	76.5
251.231	62.5
251.465	89.5
251.698	74.5
251.931	84.5
252.164	76.5
252.397	86.5
252.63	78.5
252.863	78.5
253.096	74.5
253.329	88.5
253.562	82.5
253.795	99.5
254.028	83.5
254.261	76.5
254.494	71.5
254.727	71.5
254.96	69.5
255.193	76.5
255.426	69.5
255.659	73.5
255.892	91.5
256.124	88.5
256.357	85.5
256.59	90.5
256.823	97.5
257.056	105.5
257.289	71.5
257.521	79.5
257.754	74.5
257.987	79.5
258.22	88.5
258.452	72.5
258.685	75.5
258.918	67.5
259.151	89.5
259.383	72.5
259.616	76.5
259.849	83.5
260.081	70.5
260.314	93.5
260.547	92.5
260.779	88.5
261.012	78.5
261.244	77.5
261.477	81.5
261.71	93.5
261.942	95.5
262.175	102.5
262.407	85.5
262.64	74.5
262.872	85.5
263.105	81.5
263.337	77.5
263.57	84.5
263.802	98.5
264.035	91.5
264.267	79.5
264.499	87.5
264.732	70.5
264.964	70.5
265.197	85.5
265.429	67.5
265.661	78.5
265.894	82.5
266.126	85.5
266.358	73.5
266.591	78.5
266.823	85.5
267.055	80.5
267.287	74.5
267.52	107.5
267.752	81.5
267.984	74.5
268.216	79.5
268.448	89.5
268.681	79.5
268.913	78.5
269.145	81.5
269.377	70.5
269.609	68.5
269.841	83.5
270.073	81.5
270.306	71.5
270.538	67.5
270.77	75.5
271.002	86.5
271.234	85.5
271.466	72.5
271.698	77.5
271.93	87.5
272.162	89.5
272.394	83.5
272.626	78.5
272.858	83.5
273.09	77.5
273.322	79.5
273.553	75.5
273.785	89.5
274.017	85.5
274.249	78.5
274.481	87.5
274.713	86.5
274.945	67.5
275.176	83.5
275.408	78.5
275.64	89.5
275.872	83.5
276.104	86.5
276.335	95.5
276.567	88.5
276.799	101.5
277.031	83.5
277.262	78.5
277.494	82.5
277.726	87.5
277.957	80.5
278.189	76.5
278.421	91.5
278.652	86.5
278.884	85.5
279.115	69.5
279.347	79.5
279.579	85.5
279.81	83.5
280.042	111.5
280.273	96.5
280.505	87.5
280.736	81.5
280.968	85.5
281.199	89.5
281.431	96.5
281.662	84.5
281.894	97.5
282.125	92.5
282.356	92.5
282.588	118.5
282.819	90.5
283.051	80.5
283.282	94.5
283.513	96.5
283.745	89.5
283.976	105.5
284.207	77.5
284.439	79.5
284.67	85.5
284.901	92.5
285.132	87.5
285.364	96.5
285.595	77.5
285.826	97.5
286.057	88.5
286.288	81.5
286.52	78.5
286.751	89.5
286.982	79.5
287.213	86.5
287.444	90.5
287.675	84.5
287.906	93.5
288.138	69.5
288.369	87.5
288.6	87.5
288.831	95.5
289.062	90.5
289.293	82.5
289.524	80.5
289.755	84.5
289.986	91.5
290.217	93.5
290.448	79.5
290.679	74.5
290.91	86.5
291.141	82.5
291.371	92.5
291.602	79.5
291.833	89.5
292.064	95.5
292.295	86.5
292.526	84.5
292.757	94.5
292.987	82.5
293.218	89.5
293.449	69.5
293.68	93.5
293.91	95.5
294.141	94.5
294.372	85.5
294.603	77.5
294.833	66.5
295.064	74.5
295.295	84.5
295.525	73.5
295.756	91.5
295.987	114.5
296.217	122.5
296.448	114.5
296.679	96.5
296.909	87.5
297.14	82.5
297.37	78.5
297.601	77.5
297.831	94.5
298.062	87.5
298.292	83.5
298.523	90.5
298.753	82.5
298.984	90.5
299.214	92.5
299.445	95.5
299.675	82.5
299.905	93.5
300.136	102.5
300.366	88.5
300.597	75.5
300.827	76.5
301.057	100.5
301.288	98.5
301.518	90.5
301.748	85.5
301.979	92.5
302.209	86.5
302.439	88.5
302.669	77.5
302.9	85.5
303.13	85.5
303.36	88.5
303.59	77.5
303.82	94.5
304.051	95.5
304.281	82.5
304.511	89.5
304.741	69.5
304.971	80.5
305.201	106.5
305.431	100.5
305.661	87.5
305.891	74.5
306.121	89.5
306.352	95.5
306.582	93.5
306.812	87.5
307.042	81.5
307.272	117.5
307.502	98.5
307.731	95.5
307.961	78.5
308.191	101.5
308.421	88.5
308.651	89.5
308.881	92.5
309.111	85.5
309.341	87.5
309.571	90.5
309.8	94.5
310.03	108.5
310.26	98.5
310.49	90.5
310.72	95.5
310.949	88.5
311.179	96.5
311.409	97.5
311.639	87.5
311.868	88.5
312.098	103.5
312.328	90.5
312.557	103.5
312.787	100.5
313.017	105.5
313.246	101.5
313.476	103.5
313.706	84.5
313.935	78.5
314.165	99.5
314.394	93.5
314.624	72.5
314.853	96.5
315.083	91.5
315.312	102.5
315.542	77.5
315.771	107.5
316.001	109.5
316.23	84.5
316.46	85.5
316.689	83.5
316.919	97.5
317.148	95.5
317.377	91.5
317.607	87.5
317.836	97.5
318.065	82.5
318.295	82.5
318.524	90.5
318.753	98.5
318.983	87.5
319.212	75.5
319.441	95.5
319.67	103.5
319.9	90.5
320.129	94.5
320.358	88.5
320.587	92.5
320.816	74.5
321.046	89.5
321.275	89.5
321.504	99.5
321.733	101.5
321.962	99.5
322.191	93.5
322.42	102.5
322.649	100.5
322.878	114.5
323.108	100.5
323.337	103.5
323.566	113.5
323.795	123.5
324.024	164.5
324.253	316.5
324.482	598.5
324.71	1214.5
324.939	1556.5
325.168	580.5
325.397	185.5
325.626	122.5
325.855	118.5
326.084	110.5
326.313	110.5
326.542	140.5
326.77	196.5
326.999	366.5
327.228	729.5
327.457	1216.5
327.686	1017.5
327.914	290.5
328.143	181.5
328.372	149.5
328.6	135.5
328.829	101.5
329.058	130.5
329.287	113.5
329.515	106.5
329.744	118.5
329.972	150.5
330.201	185.5
330.43	214.5
330.658	143.5
330.887	119.5
331.115	97.5
331.344	103.5
331.572	99.5
331.801	95.5
332.03	97.5
332.258	106.5
332.486	85.5
332.715	95.5
332.943	83.5
333.172	106.5
333.4	93.5
333.629	108.5
333.857	109.5
334.085	122.5
334.314	172.5
334.542	251.5
334.771	238.5
334.999	118.5
335.227	108.5
335.455	96.5
335.684	103.5
335.912	87.5
336.14	88.5
336.369	92.5
336.597	92.5
336.825	98.5
337.053	83.5
337.281	81.5
337.51	75.5
337.738	102.5
337.966	98.5
338.194	82.5
338.422	76.5
338.65	92.5
338.878	84.5
339.106	91.5
339.334	88.5
339.562	70.5
339.79	77.5
340.018	74.5
340.246	87.5
340.474	101.5
340.702	80.5
340.93	88.5
341.158	88.5
341.386	79.5
341.614	96.5
341.842	82.5
342.07	96.5
342.298	93.5
342.526	78.5
342.754	81.5
342.981	90.5
343.209	86.5
343.437	89.5
343.665	81.5
343.893	89.5
344.12	99.5
344.348	82.5
344.576	88.5
344.804	92.5
345.031	77.5
345.259	85.5
345.487	89.5
345.714	92.5
345.942	84.5
346.17	87.5
346.397	101.5
346.625	82.5
346.853	83.5
347.08	84.5
347.308	92.5
347.535	94.5
347.763	91.5
347.99	100.5
348.218	107.5
348.445	93.5
348.673	85.5
348.9	94.5
349.128	98.5
349.355	105.5
349.583	86.5
349.81	92.5
350.037	94.5
350.265	91.5
350.492	88.5
350.72	79.5
350.947	87.5
351.174	85.5
351.402	121.5
351.629	96.5
351.856	91.5
352.083	93.5
352.311	104.5
352.538	88.5
352.765	110.5
352.992	113.5
353.22	111.5
353.447	82.5
353.674	93.5
353.901	84.5
354.128	90.5
354.355	83.5
354.583	105.5
354.81	87.5
355.037	84.5
355.264	79.5
355.491	95.5
355.718	97.5
355.945	73.5
356.172	89.5
356.399	103.5
356.626	93.5
356.853	89.5
357.08	90.5
357.307	99.5
357.534	89.5
357.761	86.5
357.988	90.5
358.215	104.5
358.441	89.5
358.668	88.5
358.895	88.5
359.122	75.5
359.349	76.5
359.576	85.5
359.802	93.5
360.029	110.5
360.256	106.5
360.483	95.5
360.709	92.5
360.936	72.5
361.163	96.5
361.39	102.5
361.616	84.5
361.843	90.5
362.07	91.5
362.296	79.5
362.523	88.5
362.749	86.5
362.976	92.5
363.203	98.5
363.429	79.5
363.656	80.5
363.882	80.5
364.109	84.5
364.335	89.5
364.562	89.5
364.788	90.5
365.015	92.5
365.241	90.5
365.468	95.5
365.694	90.5
365.92	88.5
366.147	87.5
366.373	82.5
366.599	99.5
366.826	91.5
367.052	92.5
367.278	85.5
367.505	102.5
367.731	87.5
367.957	91.5
368.184	89.5
368.41	95.5
368.636	96.5
368.862	92.5
369.089	115.5
369.315	90.5
369.541	95.5
369.767	82.5
369.993	87.5
370.219	86.5
370.445	90.5
370.672	78.5
370.898	91.5
371.124	90.5
371.35	83.5
371.576	89.5
371.802	84.5
372.028	86.5
372.254	86.5
372.48	85.5
372.706	100.5
372.932	88.5
373.158	82.5
373.384	90.5
373.61	80.5
373.835	87.5
374.061	90.5
374.287	94.5
374.513	65.5
374.739	95.5
374.965	85.5
375.191	87.5
375.416	79.5
375.642	93.5
375.868	86.5
376.094	71.5
376.319	82.5
376.545	90.5
376.771	90.5
376.997	94.5
377.222	97.5
377.448	80.5
377.674	92.5
377.899	90.5
378.125	83.5
378.35	92.5
378.576	102.5
378.802	89.5
379.027	86.5
379.253	72.5
379.478	82.5
379.704	101.5
379.929	92.5
380.155	92.5
380.38	89.5
380.606	99.5
380.831	74.5
381.057	86.5
381.282	90.5
381.507	89.5
381.733	109.5
381.958	96.5
382.184	101.5
382.409	91.5
382.634	106.5
382.86	106.5
383.085	74.5
383.31	93.5
383.535	102.5
383.761	97.5
383.986	102.5
384.211	99.5
384.436	93.5
384.662	91.5
384.887	100.5
385.112	102.5
385.337	96.5
385.562	93.5
385.787	95.5
386.013	94.5
386.238	110.5
386.463	92.5
386.688	97.5
386.913	100.5
387.138	101.5
387.363	88.5
387.588	90.5
387.813	106.5
388.038	101.5
388.263	119.5
388.488	99.5
388.713	83.5
388.938	99.5
389.163	94.5
389.387	76.5
389.612	89.5
389.837	82.5
390.062	81.5
390.287	81.5
390.512	79.5
390.736	73.5
390.961	75.5
391.186	78.5
391.411	106.5
391.636	81.5
391.86	83.5
392.085	101.5
392.31	102.5
392.534	78.5
392.759	84.5
392.984	98.5
393.208	92.5
393.433	93.5
393.658	93.5
393.882	99.5
394.107	84.5
394.331	97.5
394.556	91.5
394.78	84.5
395.005	94.5
395.229	81.5
395.454	100.5
395.678	87.5
395.903	100.5
396.127	77.5
396.352	78.5
396.576	79.5
396.801	78.5
397.025	76.5
397.249	86.5
397.474	106.5
397.698	90.5
397.922	60.5
398.147	88.5
398.371	75.5
398.595	78.5
398.82	78.5
399.044	78.5
399.268	77.5
399.492	71.5
399.717	91.5
399.941	99.5
400.165	91.5
400.389	96.5
400.613	86.5
400.837	86.5
401.062	83.5
401.286	79.5
401.51	77.5
401.734	84.5
401.958	85.5
402.182	103.5
402.406	117.5
402.63	103.5
402.854	84.5
403.078	93.5
403.302	89.5
403.526	85.5
403.75	90.5
403.974	92.5
404.198	89.5
404.422	89.5
404.645	83.5
404.869	81.5
405.093	86.5
405.317	107.5
405.541	100.5
405.765	89.5
405.988	92.5
406.212	139.5
406.436	178.5
406.66	115.5
406.883	83.5
407.107	78.5
407.331	81.5
407.555	94.5
407.778	109.5
408.002	79.5
408.226	85.5
408.449	82.5
408.673	81.5
408.896	77.5
409.12	93.5
409.344	71.5
409.567	91.5
409.791	90.5
410.014	89.5
410.238	98.5
410.461	82.5
410.685	82.5
410.908	101.5
411.132	96.5
411.355	94.5
411.578	96.5
411.802	92.5
412.025	94.5
412.249	85.5
412.472	95.5
412.695	98.5
412.919	86.5
413.142	85.5
413.365	80.5
413.589	85.5
413.812	81.5
414.035	84.5
414.258	92.5
414.482	81.5
414.705	76.5
414.928	78.5
415.151	83.5
415.374	92.5
415.597	88.5
415.821	93.5
416.044	71.5
416.267	94.5
416.49	83.5
416.713	81.5
416.936	74.5
417.159	80.5
417.382	91.5
417.605	75.5
417.828	94.5
418.051	90.5
418.274	89.5
418.497	82.5
418.72	93.5
418.943	86.5
419.166	95.5
419.389	94.5
419.611	66.5
419.834	87.5
420.057	83.5
420.28	92.5
420.503	73.5
420.726	90.5
420.948	81.5
421.171	98.5
421.394	90.5
421.617	84.5
421.839	90.5
422.062	93.5
422.285	82.5
422.507	111.5
422.73	100.5
422.953	88.5
423.175	80.5
423.398	86.5
423.621	89.5
423.843	81.5
424.066	66.5
424.288	85.5
424.511	99.5
424.733	90.5
424.956	100.5
425.178	83.5
425.401	88.5
425.623	95.5
425.846	85.5
426.068	90.5
426.291	114.5
426.513	86.5
426.735	94.5
426.958	102.5
427.18	85.5
427.402	108.5
427.625	135.5
427.847	108.5
428.069	116.5
428.292	99.5
428.514	98.5
428.736	78.5
428.958	81.5
429.181	81.5
429.403	81.5
429.625	88.5
429.847	95.5
430.069	86.5
430.292	85.5
430.514	85.5
430.736	83.5
430.958	82.5
431.18	74.5
431.402	84.5
431.624	79.5
431.846	68.5
432.068	95.5
432.29	83.5
432.512	85.5
432.734	88.5
432.956	99.5
433.178	84.5
433.4	97.5
433.622	97.5
433.844	85.5
434.066	104.5
434.287	91.5
434.509	93.5
434.731	91.5
434.953	79.5
435.175	94.5
435.397	86.5
435.618	98.5
435.84	110.5
436.062	110.5
436.284	110.5
436.505	94.5
436.727	90.5
436.949	83.5
437.17	83.5
437.392	97.5
437.614	77.5
437.835	102.5
438.057	96.5
438.278	118.5
438.5	102.5
438.721	109.5
438.943	99.5
439.165	87.5
439.386	86.5
439.608	87.5
439.829	92.5
440.05	126.5
440.272	112.5
440.493	85.5
440.715	74.5
440.936	77.5
441.158	79.5
441.379	77.5
441.6	76.5
441.822	99.5
442.043	83.5
442.264	95.5
442.486	84.5
442.707	97.5
442.928	97.5
443.149	116.5
443.371	93.5
443.592	92.5
443.813	100.5
444.034	93.5
444.255	74.5
444.476	80.5
444.698	77.5
444.919	84.5
445.14	137.5
445.361	124.5
445.582	99.5
445.803	115.5
446.024	120.5
446.245	98.5
446.466	93.5
446.687	78.5
446.908	85.5
447.129	84.5
447.35	85.5
447.571	77.5
447.792	83.5
448.013	92.5
448.234	91.5
448.455	96.5
448.675	108.5
448.896	100.5
449.117	104.5
449.338	87.5
449.559	100.5
449.779	111.5
450	84.5
450.221	78.5
450.442	80.5
450.662	96.5
450.883	90.5
451.104	101.5
451.324	91.5
451.545	84.5
451.766	81.5
451.986	88.5
452.207	78.5
452.428	85.5
452.648	94.5
452.869	96.5
453.089	104.5
453.31	107.5
453.53	94.5
453.751	79.5
453.971	99.5
454.192	85.5
454.412	85.5
454.633	75.5
454.853	85.5
455.073	84.5
455.294	95.5
455.514	76.5
455.734	95.5
455.955	76.5
456.175	73.5
456.395	100.5
456.616	84.5
456.836	90.5
457.056	79.5
457.276	93.5
457.497	79.5
457.717	84.5
457.937	72.5
458.157	81.5
458.377	93.5
458.598	97.5
458.818	114.5
459.038	133.5
459.258	104.5
459.478	78.5
459.698	84.5
459.918	85.5
460.138	85.5
460.358	76.5
460.578	89.5
460.798	76.5
461.018	79.5
461.238	79.5
461.458	96.5
461.678	77.5
461.898	69.5
462.118	78.5
462.338	76.5
462.558	89.5
462.777	77.5
462.997	78.5
463.217	89.5
463.437	84.5
463.657	79.5
463.876	83.5
464.096	100.5
464.316	96.5
464.536	84.5
464.755	93.5
464.975	106.5
465.195	133.5
465.414	130.5
465.634	93.5
465.854	76.5
466.073	83.5
466.293	85.5
466.512	78.5
466.732	81.5
466.951	83.5
467.171	87.5
467.391	96.5
467.61	87.5
467.829	110.5
468.049	110.5
468.268	146.5
468.488	88.5
468.707	79.5
468.927	84.5
469.146	67.5
469.365	80.5
469.585	79.5
469.804	89.5
470.023	81.5
470.243	80.5
470.462	82.5
470.681	87.5
470.901	85.5
471.12	74.5
471.339	77.5
471.558	78.5
471.777	89.5
471.997	93.5
472.216	205.5
472.435	329.5
472.654	149.5
472.873	81.5
473.092	86.5
473.311	88.5
473.53	93.5
473.749	76.5
473.968	90.5
474.187	90.5
474.406	83.5
474.625	92.5
474.844	85.5
475.063	74.5
475.282	93.5
475.501	84.5
475.72	96.5
475.939	90.5
476.158	77.5
476.377	95.5
476.596	88.5
476.814	89.5
477.033	93.5
477.252	85.5
477.471	87.5
477.69	91.5
477.908	95.5
478.127	77.5
478.346	93.5
478.564	75.5
478.783	89.5
479.002	91.5
479.22	87.5
479.439	103.5
479.658	101.5
479.876	86.5
480.095	98.5
480.313	88.5
480.532	95.5
480.751	118.5
480.969	215.5
481.188	544.5
481.406	348.5
481.624	110.5
481.843	97.5
482.061	99.5
482.28	72.5
482.498	72.5
482.717	87.5
482.935	73.5
483.153	89.5
483.372	83.5
483.59	87.5
483.808	92.5
484.027	84.5
484.245	77.5
484.463	91.5
484.681	87.5
484.9	79.5
485.118	89.5
485.336	91.5
485.554	102.5
485.772	94.5
485.99	100.5
486.209	98.5
486.427	80.5
486.645	91.5
486.863	90.5
487.081	99.5
487.299	85.5
487.517	88.5
487.735	94.5
487.953	88.5
488.171	76.5
488.389	101.5
488.607	97.5
488.825	107.5
489.043	91.5
489.261	90.5
489.479	102.5
489.696	90.5
489.914	88.5
490.132	71.5
490.35	88.5
490.568	71.5
490.786	97.5
491.003	88.5
491.221	86.5
491.439	82.5
491.657	86.5
491.874	93.5
492.092	83.5
492.31	90.5
492.527	78.5
492.745	104.5
492.963	90.5
493.18	85.5
493.398	84.5
493.615	83.5
493.833	94.5
494.05	92.5
494.268	87.5
494.485	88.5
494.703	88.5
494.92	83.5
495.138	99.5
495.355	84.5
495.573	84.5
495.79	87.5
496.008	88.5
496.225	85.5
496.442	82.5
496.66	95.5
496.877	99.5
497.094	85.5
497.312	87.5
497.529	85.5
497.746	94.5
497.963	113.5
498.181	95.5
498.398	104.5
498.615	103.5
498.832	87.5
499.049	102.5
499.267	90.5
499.484	72.5
499.701	80.5
499.918	90.5
500.135	82.5
500.352	98.5
500.569	78.5
500.786	70.5
501.003	86.5
501.22	86.5
501.437	84.5
501.654	102.5
501.871	94.5
502.088	93.5
502.305	88.5
502.522	82.5
502.739	83.5
502.956	100.5
503.172	82.5
503.389	74.5
503.606	100.5
503.823	93.5
504.04	84.5
504.256	87.5
504.473	86.5
504.69	96.5
504.907	80.5
505.123	81.5
505.34	91.5
505.557	88.5
505.773	86.5
505.99	71.5
506.207	79.5
506.423	76.5
506.64	85.5
506.856	78.5
507.073	92.5
507.289	93.5
507.506	93.5
507.722	102.5
507.939	97.5
508.155	81.5
508.372	88.5
508.588	90.5
508.805	86.5
509.021	98.5
509.238	77.5
509.454	86.5
509.67	102.5
509.887	95.5
510.103	120.5
510.319	184.5
510.536	541.5
510.752	1605.5
510.968	498.5
511.184	120.5
511.401	88.5
511.617	93.5
511.833	88.5
512.049	89.5
512.265	91.5
512.481	83.5
512.698	84.5
512.914	85.5
513.13	87.5
513.346	86.5
513.562	91.5
513.778	92.5
513.994	94.5
514.21	77.5
514.426	115.5
514.642	126.5
514.858	112.5
515.074	152.5
515.29	307.5
515.506	981.5
515.721	399.5
515.937	134.5
516.153	103.5
516.369	101.5
516.585	90.5
516.801	93.5
517.016	102.5
517.232	94.5
517.448	84.5
517.664	92.5
517.879	86.5
518.095	102.5
518.311	88.5
518.527	79.5
518.742	85.5
518.958	104.5
519.173	92.5
519.389	85.5
519.605	84.5
519.82	84.5
520.036	89.5
520.251	106.5
520.467	105.5
520.682	98.5
520.898	87.5
521.113	101.5
521.329	103.5
521.544	136.5
521.76	371.5
521.975	1563.5
522.19	988.5
522.406	233.5
522.621	114.5
522.836	97.5
523.052	100.5
523.267	86.5
523.482	85.5
523.698	97.5
523.913	95.5
524.128	96.5
524.343	104.5
524.559	84.5
524.774	81.5
524.989	75.5
525.204	115.5
525.419	89.5
525.634	86.5
525.849	99.5
526.064	102.5
526.28	85.5
526.495	75.5
526.71	86.5
526.925	76.5
527.14	89.5
527.355	77.5
527.57	94.5
527.785	80.5
527.999	85.5
528.214	84.5
528.429	106.5
528.644	84.5
528.859	87.5
529.074	89.5
529.289	106.5
529.503	138.5
529.718	102.5
529.933	112.5
530.148	94.5
530.363	85.5
530.577	76.5
530.792	84.5
531.007	83.5
531.221	83.5
531.436	96.5
531.651	84.5
531.865	83.5
532.08	86.5
532.295	74.5
532.509	80.5
532.724	73.5
532.938	96.5
533.153	72.5
533.367	81.5
533.582	91.5
533.796	93.5
534.011	102.5
534.225	90.5
534.44	81.5
534.654	90.5
534.868	83.5
535.083	91.5
535.297	104.5
535.511	111.5
535.726	93.5
535.94	101.5
536.154	103.5
536.369	89.5
536.583	74.5
536.797	98.5
