Data from Circ_2010_H10_HRD10591_00090.txt Node
Date: Wed Jan 03 10:09:59 EST 2024
User: Yrep
Spectrometer: HR+D1059
Trigger mode: 1
Integration Time (sec): 1.000000E-1
Scans to average: 1
Electric dark correction enabled: true
Nonlinearity correction enabled: false
Boxcar width: 0
XAxis mode: Wavelengths
Number of Pixels in Spectrum: 2048
>>>>>Begin Spectral Data<<<<<
223.165	-15.94
223.4	-15.94
223.635	-15.94
223.869	-11.94
224.104	-23.94
224.338	-13.94
224.573	-13.94
224.808	0.06
225.042	-13.94
225.277	-3.94
225.511	-4.94
225.746	-1.94
225.98	0.06
226.215	11.06
226.449	19.06
226.683	26.06
226.918	16.06
227.152	32.06
227.387	30.06
227.621	28.06
227.856	50.06
228.09	45.06
228.324	49.06
228.559	45.06
228.793	47.06
229.027	61.06
229.262	76.06
229.496	77.06
229.73	70.06
229.964	69.06
230.199	71.06
230.433	70.06
230.667	76.06
230.901	86.06
231.136	75.06
231.37	66.06
231.604	88.06
231.838	77.06
232.072	78.06
232.306	86.06
232.541	82.06
232.775	81.06
233.009	69.06
233.243	82.06
233.477	88.06
233.711	77.06
233.945	90.06
234.179	60.06
234.413	79.06
234.647	80.06
234.881	85.06
235.115	81.06
235.349	86.06
235.583	93.06
235.817	81.06
236.051	102.06
236.285	72.06
236.519	70.06
236.753	78.06
236.987	74.06
237.221	78.06
237.455	73.06
237.689	84.06
237.922	92.06
238.156	96.06
238.39	78.06
238.624	76.06
238.858	77.06
239.091	76.06
239.325	78.06
239.559	78.06
239.793	73.06
240.027	82.06
240.26	85.06
240.494	82.06
240.728	83.06
240.961	80.06
241.195	70.06
241.429	85.06
241.662	78.06
241.896	62.06
242.13	79.06
242.363	85.06
242.597	62.06
242.83	75.06
243.064	74.06
243.298	80.06
243.531	78.06
243.765	84.06
243.998	70.06
244.232	79.06
244.465	90.06
244.699	92.06
244.932	83.06
245.166	79.06
245.399	81.06
245.633	80.06
245.866	86.06
246.099	61.06
246.333	77.06
246.566	75.06
246.8	74.06
247.033	92.06
247.266	81.06
247.5	78.06
247.733	63.06
247.966	82.06
248.2	87.06
248.433	76.06
248.666	77.06
248.899	86.06
249.133	86.06
249.366	109.06
249.599	98.06
249.832	75.06
250.066	80.06
250.299	88.06
250.532	85.06
250.765	99.06
250.998	86.06
251.231	69.06
251.465	75.06
251.698	69.06
251.931	76.06
252.164	79.06
252.397	80.06
252.63	90.06
252.863	73.06
253.096	79.06
253.329	78.06
253.562	83.06
253.795	70.06
254.028	75.06
254.261	75.06
254.494	90.06
254.727	90.06
254.96	78.06
255.193	77.06
255.426	85.06
255.659	86.06
255.892	86.06
256.124	92.06
256.357	84.06
256.59	81.06
256.823	70.06
257.056	77.06
257.289	72.06
257.521	78.06
257.754	85.06
257.987	70.06
258.22	86.06
258.452	75.06
258.685	80.06
258.918	78.06
259.151	85.06
259.383	97.06
259.616	94.06
259.849	76.06
260.081	81.06
260.314	87.06
260.547	88.06
260.779	91.06
261.012	90.06
261.244	83.06
261.477	89.06
261.71	92.06
261.942	102.06
262.175	110.06
262.407	93.06
262.64	82.06
262.872	84.06
263.105	103.06
263.337	76.06
263.57	73.06
263.802	73.06
264.035	80.06
264.267	75.06
264.499	87.06
264.732	85.06
264.964	76.06
265.197	85.06
265.429	75.06
265.661	78.06
265.894	65.06
266.126	94.06
266.358	92.06
266.591	87.06
266.823	80.06
267.055	72.06
267.287	84.06
267.52	78.06
267.752	75.06
267.984	86.06
268.216	83.06
268.448	74.06
268.681	83.06
268.913	88.06
269.145	81.06
269.377	95.06
269.609	76.06
269.841	93.06
270.073	81.06
270.306	86.06
270.538	100.06
270.77	80.06
271.002	77.06
271.234	85.06
271.466	95.06
271.698	97.06
271.93	81.06
272.162	88.06
272.394	86.06
272.626	89.06
272.858	104.06
273.09	98.06
273.322	78.06
273.553	82.06
273.785	82.06
274.017	91.06
274.249	81.06
274.481	98.06
274.713	95.06
274.945	81.06
275.176	91.06
275.408	85.06
275.64	93.06
275.872	99.06
276.104	99.06
276.335	97.06
276.567	102.06
276.799	95.06
277.031	88.06
277.262	107.06
277.494	84.06
277.726	84.06
277.957	91.06
278.189	93.06
278.421	81.06
278.652	90.06
278.884	98.06
279.115	71.06
279.347	86.06
279.579	88.06
279.81	97.06
280.042	102.06
280.273	106.06
280.505	88.06
280.736	94.06
280.968	98.06
281.199	75.06
281.431	80.06
281.662	82.06
281.894	85.06
282.125	92.06
282.356	112.06
282.588	133.06
282.819	110.06
283.051	96.06
283.282	86.06
283.513	87.06
283.745	109.06
283.976	103.06
284.207	72.06
284.439	76.06
284.67	90.06
284.901	81.06
285.132	88.06
285.364	83.06
285.595	91.06
285.826	85.06
286.057	95.06
286.288	91.06
286.52	100.06
286.751	71.06
286.982	84.06
287.213	88.06
287.444	87.06
287.675	87.06
287.906	98.06
288.138	88.06
288.369	97.06
288.6	96.06
288.831	91.06
289.062	81.06
289.293	92.06
289.524	71.06
289.755	78.06
289.986	98.06
290.217	99.06
290.448	89.06
290.679	93.06
290.91	86.06
291.141	89.06
291.371	81.06
291.602	100.06
291.833	88.06
292.064	100.06
292.295	100.06
292.526	87.06
292.757	85.06
292.987	89.06
293.218	75.06
293.449	90.06
293.68	85.06
293.91	76.06
294.141	87.06
294.372	74.06
294.603	89.06
294.833	85.06
295.064	93.06
295.295	92.06
295.525	80.06
295.756	108.06
295.987	100.06
296.217	121.06
296.448	113.06
296.679	85.06
296.909	93.06
297.14	89.06
297.37	72.06
297.601	98.06
297.831	101.06
298.062	84.06
298.292	78.06
298.523	86.06
298.753	96.06
298.984	82.06
299.214	97.06
299.445	96.06
299.675	93.06
299.905	101.06
300.136	96.06
300.366	86.06
300.597	99.06
300.827	75.06
301.057	72.06
301.288	99.06
301.518	93.06
301.748	97.06
301.979	106.06
302.209	93.06
302.439	95.06
302.669	98.06
302.9	89.06
303.13	101.06
303.36	98.06
303.59	101.06
303.82	96.06
304.051	92.06
304.281	98.06
304.511	88.06
304.741	79.06
304.971	92.06
305.201	109.06
305.431	83.06
305.661	82.06
305.891	80.06
306.121	101.06
306.352	104.06
306.582	105.06
306.812	86.06
307.042	96.06
307.272	98.06
307.502	111.06
307.731	105.06
307.961	93.06
308.191	96.06
308.421	95.06
308.651	88.06
308.881	101.06
309.111	90.06
309.341	95.06
309.571	84.06
309.8	87.06
310.03	93.06
310.26	88.06
310.49	95.06
310.72	113.06
310.949	93.06
311.179	95.06
311.409	94.06
311.639	96.06
311.868	95.06
312.098	96.06
312.328	102.06
312.557	112.06
312.787	104.06
313.017	100.06
313.246	89.06
313.476	100.06
313.706	83.06
313.935	107.06
314.165	98.06
314.394	102.06
314.624	94.06
314.853	100.06
315.083	101.06
315.312	78.06
315.542	79.06
315.771	85.06
316.001	82.06
316.23	82.06
316.46	82.06
316.689	82.06
316.919	87.06
317.148	105.06
317.377	86.06
317.607	84.06
317.836	94.06
318.065	81.06
318.295	82.06
318.524	91.06
318.753	104.06
318.983	82.06
319.212	99.06
319.441	98.06
319.67	98.06
319.9	97.06
320.129	96.06
320.358	107.06
320.587	93.06
320.816	81.06
321.046	96.06
321.275	88.06
321.504	104.06
321.733	100.06
321.962	97.06
322.191	77.06
322.42	110.06
322.649	107.06
322.878	106.06
323.108	113.06
323.337	118.06
323.566	128.06
323.795	161.06
324.024	206.06
324.253	374.06
324.482	766.06
324.71	1572.06
324.939	2020.06
325.168	759.06
325.397	231.06
325.626	152.06
325.855	141.06
326.084	128.06
326.313	126.06
326.542	156.06
326.77	221.06
326.999	448.06
327.228	919.06
327.457	1588.06
327.686	1284.06
327.914	373.06
328.143	233.06
328.372	247.06
328.6	176.06
328.829	135.06
329.058	128.06
329.287	135.06
329.515	131.06
329.744	134.06
329.972	187.06
330.201	305.06
330.43	366.06
330.658	232.06
330.887	167.06
331.115	142.06
331.344	98.06
331.572	101.06
331.801	104.06
332.03	103.06
332.258	102.06
332.486	98.06
332.715	101.06
332.943	86.06
333.172	91.06
333.4	100.06
333.629	132.06
333.857	142.06
334.085	192.06
334.314	296.06
334.542	481.06
334.771	460.06
334.999	167.06
335.227	117.06
335.455	111.06
335.684	107.06
335.912	103.06
336.14	93.06
336.369	90.06
336.597	106.06
336.825	110.06
337.053	98.06
337.281	98.06
337.51	92.06
337.738	90.06
337.966	98.06
338.194	93.06
338.422	97.06
338.65	96.06
338.878	109.06
339.106	86.06
339.334	105.06
339.562	96.06
339.79	88.06
340.018	71.06
340.246	95.06
340.474	88.06
340.702	95.06
340.93	99.06
341.158	85.06
341.386	93.06
341.614	107.06
341.842	100.06
342.07	99.06
342.298	94.06
342.526	88.06
342.754	87.06
342.981	101.06
343.209	86.06
343.437	90.06
343.665	82.06
343.893	78.06
344.12	85.06
344.348	98.06
344.576	96.06
344.804	94.06
345.031	107.06
345.259	105.06
345.487	103.06
345.714	96.06
345.942	85.06
346.17	104.06
346.397	100.06
346.625	91.06
346.853	85.06
347.08	96.06
347.308	95.06
347.535	98.06
347.763	88.06
347.99	97.06
348.218	97.06
348.445	101.06
348.673	96.06
348.9	92.06
349.128	91.06
349.355	98.06
349.583	85.06
349.81	100.06
350.037	100.06
350.265	94.06
350.492	89.06
350.72	96.06
350.947	102.06
351.174	100.06
351.402	107.06
351.629	93.06
351.856	89.06
352.083	94.06
352.311	107.06
352.538	115.06
352.765	106.06
352.992	91.06
353.22	101.06
353.447	115.06
353.674	97.06
353.901	88.06
354.128	96.06
354.355	88.06
354.583	105.06
354.81	80.06
355.037	102.06
355.264	93.06
355.491	100.06
355.718	83.06
355.945	78.06
356.172	91.06
356.399	95.06
356.626	112.06
356.853	101.06
357.08	85.06
357.307	105.06
357.534	93.06
357.761	90.06
357.988	90.06
358.215	86.06
358.441	94.06
358.668	96.06
358.895	90.06
359.122	91.06
359.349	86.06
359.576	94.06
359.802	87.06
360.029	111.06
360.256	99.06
360.483	91.06
360.709	76.06
360.936	93.06
361.163	95.06
361.39	85.06
361.616	90.06
361.843	105.06
362.07	94.06
362.296	104.06
362.523	108.06
362.749	98.06
362.976	102.06
363.203	90.06
363.429	95.06
363.656	93.06
363.882	97.06
364.109	92.06
364.335	89.06
364.562	89.06
364.788	91.06
365.015	94.06
365.241	109.06
365.468	105.06
365.694	104.06
365.92	98.06
366.147	99.06
366.373	102.06
366.599	88.06
366.826	94.06
367.052	77.06
367.278	96.06
367.505	87.06
367.731	101.06
367.957	93.06
368.184	107.06
368.41	91.06
368.636	120.06
368.862	106.06
369.089	99.06
369.315	85.06
369.541	105.06
369.767	70.06
369.993	81.06
370.219	76.06
370.445	91.06
370.672	86.06
370.898	110.06
371.124	90.06
371.35	93.06
371.576	94.06
371.802	92.06
372.028	81.06
372.254	79.06
372.48	85.06
372.706	87.06
372.932	85.06
373.158	90.06
373.384	88.06
373.61	96.06
373.835	86.06
374.061	86.06
374.287	82.06
374.513	98.06
374.739	97.06
374.965	78.06
375.191	91.06
375.416	76.06
375.642	91.06
375.868	82.06
376.094	88.06
376.319	77.06
376.545	88.06
376.771	78.06
376.997	104.06
377.222	79.06
377.448	90.06
377.674	101.06
377.899	96.06
378.125	100.06
378.35	90.06
378.576	95.06
378.802	93.06
379.027	96.06
379.253	96.06
379.478	83.06
379.704	76.06
379.929	90.06
380.155	102.06
380.38	95.06
380.606	98.06
380.831	89.06
381.057	102.06
381.282	101.06
381.507	82.06
381.733	90.06
381.958	85.06
382.184	97.06
382.409	100.06
382.634	102.06
382.86	107.06
383.085	100.06
383.31	96.06
383.535	107.06
383.761	92.06
383.986	95.06
384.211	99.06
384.436	116.06
384.662	96.06
384.887	89.06
385.112	107.06
385.337	106.06
385.562	105.06
385.787	98.06
386.013	114.06
386.238	112.06
386.463	112.06
386.688	99.06
386.913	107.06
387.138	98.06
387.363	100.06
387.588	109.06
387.813	95.06
388.038	104.06
388.263	117.06
388.488	94.06
388.713	102.06
388.938	99.06
389.163	84.06
389.387	109.06
389.612	77.06
389.837	84.06
390.062	88.06
390.287	78.06
390.512	105.06
390.736	91.06
390.961	96.06
391.186	74.06
391.411	93.06
391.636	86.06
391.86	92.06
392.085	83.06
392.31	88.06
392.534	89.06
392.759	88.06
392.984	95.06
393.208	91.06
393.433	104.06
393.658	88.06
393.882	73.06
394.107	88.06
394.331	82.06
394.556	71.06
394.78	100.06
395.005	89.06
395.229	82.06
395.454	81.06
395.678	86.06
395.903	73.06
396.127	89.06
396.352	82.06
396.576	94.06
396.801	79.06
397.025	88.06
397.249	83.06
397.474	79.06
397.698	91.06
397.922	96.06
398.147	95.06
398.371	90.06
398.595	89.06
398.82	70.06
399.044	91.06
399.268	86.06
399.492	88.06
399.717	78.06
399.941	81.06
400.165	85.06
400.389	90.06
400.613	94.06
400.837	71.06
401.062	80.06
401.286	93.06
401.51	90.06
401.734	96.06
401.958	113.06
402.182	135.06
402.406	133.06
402.63	125.06
402.854	111.06
403.078	88.06
403.302	92.06
403.526	79.06
403.75	73.06
403.974	87.06
404.198	76.06
404.422	94.06
404.645	95.06
404.869	91.06
405.093	104.06
405.317	112.06
405.541	105.06
405.765	101.06
405.988	117.06
406.212	146.06
406.436	189.06
406.66	142.06
406.883	98.06
407.107	70.06
407.331	105.06
407.555	97.06
407.778	115.06
408.002	103.06
408.226	95.06
408.449	85.06
408.673	91.06
408.896	92.06
409.12	99.06
409.344	95.06
409.567	95.06
409.791	93.06
410.014	78.06
410.238	96.06
410.461	96.06
410.685	101.06
410.908	87.06
411.132	96.06
411.355	102.06
411.578	106.06
411.802	89.06
412.025	92.06
412.249	92.06
412.472	93.06
412.695	118.06
412.919	107.06
413.142	80.06
413.365	94.06
413.589	92.06
413.812	86.06
414.035	89.06
414.258	96.06
414.482	115.06
414.705	81.06
414.928	100.06
415.151	93.06
415.374	84.06
415.597	94.06
415.821	97.06
416.044	98.06
416.267	94.06
416.49	76.06
416.713	102.06
416.936	105.06
417.159	86.06
417.382	94.06
417.605	82.06
417.828	95.06
418.051	93.06
418.274	93.06
418.497	70.06
418.72	80.06
418.943	90.06
419.166	84.06
419.389	76.06
419.611	83.06
419.834	92.06
420.057	84.06
420.28	90.06
420.503	91.06
420.726	96.06
420.948	82.06
421.171	100.06
421.394	96.06
421.617	82.06
421.839	83.06
422.062	96.06
422.285	85.06
422.507	104.06
422.73	103.06
422.953	91.06
423.175	95.06
423.398	104.06
423.621	94.06
423.843	92.06
424.066	97.06
424.288	84.06
424.511	96.06
424.733	116.06
424.956	111.06
425.178	93.06
425.401	96.06
425.623	108.06
425.846	88.06
426.068	89.06
426.291	97.06
426.513	92.06
426.735	92.06
426.958	94.06
427.18	102.06
427.402	142.06
427.625	153.06
427.847	159.06
428.069	149.06
428.292	99.06
428.514	102.06
428.736	96.06
428.958	93.06
429.181	90.06
429.403	80.06
429.625	90.06
429.847	93.06
430.069	110.06
430.292	108.06
430.514	98.06
430.736	90.06
430.958	93.06
431.18	90.06
431.402	82.06
431.624	91.06
431.846	98.06
432.068	65.06
432.29	91.06
432.512	103.06
432.734	102.06
432.956	104.06
433.178	95.06
433.4	106.06
433.622	86.06
433.844	85.06
434.066	93.06
434.287	100.06
434.509	88.06
434.731	95.06
434.953	87.06
435.175	87.06
435.397	78.06
435.618	91.06
435.84	98.06
436.062	113.06
436.284	116.06
436.505	103.06
436.727	110.06
436.949	90.06
437.17	75.06
437.392	80.06
437.614	99.06
437.835	98.06
438.057	119.06
438.278	116.06
438.5	101.06
438.721	118.06
438.943	116.06
439.165	87.06
439.386	87.06
439.608	94.06
439.829	89.06
440.05	122.06
440.272	153.06
440.493	93.06
440.715	104.06
440.936	97.06
441.158	90.06
441.379	85.06
441.6	80.06
441.822	84.06
442.043	100.06
442.264	101.06
442.486	104.06
442.707	110.06
442.928	97.06
443.149	126.06
443.371	138.06
443.592	120.06
443.813	111.06
444.034	107.06
444.255	94.06
444.476	81.06
444.698	105.06
444.919	87.06
445.14	129.06
445.361	128.06
445.582	106.06
445.803	159.06
446.024	154.06
446.245	140.06
446.466	122.06
446.687	94.06
446.908	89.06
447.129	87.06
447.35	91.06
447.571	89.06
447.792	79.06
448.013	94.06
448.234	103.06
448.455	104.06
448.675	117.06
448.896	119.06
449.117	93.06
449.338	110.06
449.559	125.06
449.779	123.06
450	92.06
450.221	97.06
450.442	79.06
450.662	106.06
450.883	117.06
451.104	111.06
451.324	87.06
451.545	107.06
451.766	88.06
451.986	84.06
452.207	82.06
452.428	83.06
452.648	100.06
452.869	97.06
453.089	116.06
453.31	114.06
453.53	83.06
453.751	89.06
453.971	95.06
454.192	92.06
454.412	91.06
454.633	89.06
454.853	84.06
455.073	79.06
455.294	95.06
455.514	99.06
455.734	77.06
455.955	80.06
456.175	73.06
456.395	82.06
456.616	87.06
456.836	92.06
457.056	80.06
457.276	89.06
457.497	91.06
457.717	81.06
457.937	92.06
458.157	82.06
458.377	84.06
458.598	102.06
458.818	140.06
459.038	162.06
459.258	110.06
459.478	82.06
459.698	94.06
459.918	96.06
460.138	74.06
460.358	87.06
460.578	81.06
460.798	96.06
461.018	88.06
461.238	83.06
461.458	104.06
461.678	82.06
461.898	79.06
462.118	90.06
462.338	88.06
462.558	91.06
462.777	90.06
462.997	78.06
463.217	103.06
463.437	86.06
463.657	101.06
463.876	106.06
464.096	84.06
464.316	86.06
464.536	90.06
464.755	99.06
464.975	97.06
465.195	161.06
465.414	160.06
465.634	112.06
465.854	72.06
466.073	83.06
466.293	90.06
466.512	76.06
466.732	89.06
466.951	93.06
467.171	108.06
467.391	102.06
467.61	95.06
467.829	120.06
468.049	209.06
468.268	235.06
468.488	119.06
468.707	93.06
468.927	91.06
469.146	88.06
469.365	101.06
469.585	90.06
469.804	94.06
470.023	98.06
470.243	92.06
470.462	100.06
470.681	113.06
470.901	82.06
471.12	76.06
471.339	93.06
471.558	90.06
471.777	99.06
471.997	142.06
472.216	322.06
472.435	660.06
472.654	215.06
472.873	107.06
473.092	82.06
473.311	85.06
473.53	92.06
473.749	87.06
473.968	96.06
474.187	103.06
474.406	101.06
474.625	93.06
474.844	91.06
475.063	90.06
475.282	89.06
475.501	82.06
475.72	86.06
475.939	96.06
476.158	89.06
476.377	76.06
476.596	98.06
476.814	85.06
477.033	93.06
477.252	88.06
477.471	94.06
477.69	92.06
477.908	84.06
478.127	100.06
478.346	93.06
478.564	85.06
478.783	98.06
479.002	100.06
479.22	84.06
479.439	97.06
479.658	108.06
479.876	103.06
480.095	102.06
480.313	107.06
480.532	103.06
480.751	148.06
480.969	323.06
481.188	1086.06
481.406	702.06
481.624	177.06
481.843	103.06
482.061	91.06
482.28	95.06
482.498	85.06
482.717	83.06
482.935	87.06
483.153	80.06
483.372	87.06
483.59	96.06
483.808	76.06
484.027	97.06
484.245	95.06
484.463	74.06
484.681	109.06
484.9	83.06
485.118	90.06
485.336	86.06
485.554	97.06
485.772	106.06
485.99	106.06
486.209	114.06
486.427	111.06
486.645	105.06
486.863	118.06
487.081	91.06
487.299	105.06
487.517	96.06
487.735	103.06
487.953	96.06
488.171	96.06
488.389	80.06
488.607	94.06
488.825	81.06
489.043	89.06
489.261	101.06
489.479	94.06
489.696	98.06
489.914	90.06
490.132	85.06
490.35	82.06
490.568	82.06
490.786	93.06
491.003	82.06
491.221	80.06
491.439	95.06
491.657	94.06
491.874	95.06
492.092	82.06
492.31	100.06
492.527	92.06
492.745	96.06
492.963	113.06
493.18	95.06
493.398	96.06
493.615	89.06
493.833	87.06
494.05	103.06
494.268	81.06
494.485	80.06
494.703	89.06
494.92	98.06
495.138	72.06
495.355	89.06
495.573	88.06
495.79	96.06
496.008	92.06
496.225	82.06
496.442	94.06
496.66	95.06
496.877	88.06
497.094	90.06
497.312	84.06
497.529	101.06
497.746	90.06
497.963	91.06
498.181	73.06
498.398	93.06
498.615	93.06
498.832	112.06
499.049	89.06
499.267	88.06
499.484	98.06
499.701	89.06
499.918	101.06
500.135	97.06
500.352	81.06
500.569	80.06
500.786	99.06
501.003	88.06
501.22	91.06
501.437	98.06
501.654	88.06
501.871	102.06
502.088	96.06
502.305	82.06
502.522	82.06
502.739	82.06
502.956	80.06
503.172	72.06
503.389	85.06
503.606	99.06
503.823	98.06
504.04	82.06
504.256	98.06
504.473	94.06
504.69	88.06
504.907	97.06
505.123	78.06
505.34	89.06
505.557	86.06
505.773	80.06
505.99	90.06
506.207	80.06
506.423	77.06
506.64	96.06
506.856	101.06
507.073	95.06
507.289	102.06
507.506	105.06
507.722	109.06
507.939	120.06
508.155	84.06
508.372	82.06
508.588	78.06
508.805	100.06
509.021	92.06
509.238	94.06
509.454	109.06
509.67	98.06
509.887	102.06
510.103	112.06
510.319	179.06
510.536	589.06
510.752	1895.06
510.968	570.06
511.184	153.06
511.401	120.06
511.617	118.06
511.833	105.06
512.049	117.06
512.265	82.06
512.481	72.06
512.698	95.06
512.914	97.06
513.13	99.06
513.346	95.06
513.562	81.06
513.778	89.06
513.994	93.06
514.21	118.06
514.426	113.06
514.642	143.06
514.858	135.06
515.074	141.06
