Data from Circ_2010_H10_HRD10591_00068.txt Node
Date: Wed Jan 03 10:09:54 EST 2024
User: Yrep
Spectrometer: HR+D1059
Trigger mode: 1
Integration Time (sec): 1.000000E-1
Scans to average: 1
Electric dark correction enabled: true
Nonlinearity correction enabled: false
Boxcar width: 0
XAxis mode: Wavelengths
Number of Pixels in Spectrum: 2048
>>>>>Begin Spectral Data<<<<<
223.165	1.38
223.4	1.38
223.635	1.38
223.869	-3.62
224.104	-21.62
224.338	-15.62
224.573	-13.62
224.808	-21.62
225.042	-14.62
225.277	4.38
225.511	-5.62
225.746	4.38
225.98	11.38
226.215	11.38
226.449	10.38
226.683	12.38
226.918	25.38
227.152	15.38
227.387	42.38
227.621	43.38
227.856	44.38
228.09	36.38
228.324	58.38
228.559	55.38
228.793	68.38
229.027	70.38
229.262	84.38
229.496	80.38
229.73	103.38
229.964	103.38
230.199	83.38
230.433	79.38
230.667	76.38
230.901	71.38
231.136	84.38
231.37	77.38
231.604	85.38
231.838	96.38
232.072	74.38
232.306	87.38
232.541	85.38
232.775	83.38
233.009	71.38
233.243	90.38
233.477	79.38
233.711	93.38
233.945	88.38
234.179	82.38
234.413	78.38
234.647	91.38
234.881	91.38
235.115	81.38
235.349	74.38
235.583	77.38
235.817	81.38
236.051	80.38
236.285	71.38
236.519	79.38
236.753	75.38
236.987	91.38
237.221	79.38
237.455	88.38
237.689	79.38
237.922	81.38
238.156	74.38
238.39	74.38
238.624	65.38
238.858	81.38
239.091	89.38
239.325	89.38
239.559	81.38
239.793	92.38
240.027	90.38
240.26	90.38
240.494	80.38
240.728	80.38
240.961	76.38
241.195	87.38
241.429	66.38
241.662	80.38
241.896	85.38
242.13	78.38
242.363	78.38
242.597	90.38
242.83	62.38
243.064	77.38
243.298	71.38
243.531	74.38
243.765	85.38
243.998	72.38
244.232	78.38
244.465	72.38
244.699	87.38
244.932	86.38
245.166	73.38
245.399	82.38
245.633	89.38
245.866	75.38
246.099	77.38
246.333	70.38
246.566	76.38
246.8	78.38
247.033	72.38
247.266	78.38
247.5	61.38
247.733	83.38
247.966	92.38
248.2	82.38
248.433	87.38
248.666	65.38
248.899	91.38
249.133	79.38
249.366	93.38
249.599	94.38
249.832	82.38
250.066	81.38
250.299	75.38
250.532	78.38
250.765	71.38
250.998	82.38
251.231	78.38
251.465	91.38
251.698	74.38
251.931	71.38
252.164	65.38
252.397	80.38
252.63	88.38
252.863	78.38
253.096	81.38
253.329	88.38
253.562	78.38
253.795	78.38
254.028	90.38
254.261	98.38
254.494	86.38
254.727	84.38
254.96	84.38
255.193	82.38
255.426	90.38
255.659	90.38
255.892	93.38
256.124	110.38
256.357	75.38
256.59	73.38
256.823	90.38
257.056	98.38
257.289	89.38
257.521	101.38
257.754	82.38
257.987	83.38
258.22	100.38
258.452	82.38
258.685	77.38
258.918	88.38
259.151	92.38
259.383	84.38
259.616	76.38
259.849	85.38
260.081	97.38
260.314	94.38
260.547	95.38
260.779	75.38
261.012	82.38
261.244	95.38
261.477	82.38
261.71	95.38
261.942	107.38
262.175	108.38
262.407	106.38
262.64	75.38
262.872	75.38
263.105	88.38
263.337	89.38
263.57	90.38
263.802	98.38
264.035	90.38
264.267	94.38
264.499	93.38
264.732	90.38
264.964	95.38
265.197	72.38
265.429	82.38
265.661	83.38
265.894	94.38
266.126	90.38
266.358	98.38
266.591	74.38
266.823	80.38
267.055	85.38
267.287	78.38
267.52	80.38
267.752	102.38
267.984	90.38
268.216	89.38
268.448	93.38
268.681	91.38
268.913	78.38
269.145	84.38
269.377	88.38
269.609	88.38
269.841	94.38
270.073	90.38
270.306	86.38
270.538	78.38
270.77	87.38
271.002	100.38
271.234	78.38
271.466	84.38
271.698	95.38
271.93	76.38
272.162	66.38
272.394	105.38
272.626	91.38
272.858	82.38
273.09	81.38
273.322	91.38
273.553	86.38
273.785	77.38
274.017	74.38
274.249	81.38
274.481	90.38
274.713	92.38
274.945	97.38
275.176	104.38
275.408	91.38
275.64	104.38
275.872	81.38
276.104	100.38
276.335	95.38
276.567	115.38
276.799	106.38
277.031	108.38
277.262	114.38
277.494	97.38
277.726	77.38
277.957	84.38
278.189	93.38
278.421	93.38
278.652	81.38
278.884	90.38
279.115	76.38
279.347	85.38
279.579	93.38
279.81	84.38
280.042	102.38
280.273	92.38
280.505	96.38
280.736	83.38
280.968	94.38
281.199	82.38
281.431	87.38
281.662	82.38
281.894	83.38
282.125	103.38
282.356	105.38
282.588	139.38
282.819	105.38
283.051	88.38
283.282	84.38
283.513	80.38
283.745	79.38
283.976	86.38
284.207	82.38
284.439	95.38
284.67	82.38
284.901	90.38
285.132	88.38
285.364	99.38
285.595	89.38
285.826	92.38
286.057	93.38
286.288	89.38
286.52	83.38
286.751	77.38
286.982	93.38
287.213	85.38
287.444	88.38
287.675	86.38
287.906	80.38
288.138	98.38
288.369	91.38
288.6	88.38
288.831	76.38
289.062	85.38
289.293	95.38
289.524	88.38
289.755	98.38
289.986	104.38
290.217	99.38
290.448	96.38
290.679	90.38
290.91	102.38
291.141	82.38
291.371	92.38
291.602	92.38
291.833	95.38
292.064	96.38
292.295	96.38
292.526	96.38
292.757	95.38
292.987	104.38
293.218	89.38
293.449	88.38
293.68	84.38
293.91	90.38
294.141	88.38
294.372	71.38
294.603	84.38
294.833	82.38
295.064	92.38
295.295	96.38
295.525	91.38
295.756	114.38
295.987	120.38
296.217	139.38
296.448	118.38
296.679	94.38
296.909	93.38
297.14	104.38
297.37	92.38
297.601	99.38
297.831	82.38
298.062	110.38
298.292	73.38
298.523	93.38
298.753	105.38
298.984	83.38
299.214	95.38
299.445	92.38
299.675	91.38
299.905	111.38
300.136	82.38
300.366	78.38
300.597	75.38
300.827	100.38
301.057	95.38
301.288	102.38
301.518	94.38
301.748	103.38
301.979	98.38
302.209	86.38
302.439	83.38
302.669	84.38
302.9	90.38
303.13	103.38
303.36	107.38
303.59	109.38
303.82	108.38
304.051	86.38
304.281	85.38
304.511	92.38
304.741	80.38
304.971	86.38
305.201	75.38
305.431	90.38
305.661	92.38
305.891	97.38
306.121	100.38
306.352	90.38
306.582	108.38
306.812	108.38
307.042	89.38
307.272	101.38
307.502	111.38
307.731	99.38
307.961	103.38
308.191	95.38
308.421	99.38
308.651	97.38
308.881	95.38
309.111	91.38
309.341	111.38
309.571	95.38
309.8	102.38
310.03	94.38
310.26	89.38
310.49	90.38
310.72	93.38
310.949	99.38
311.179	96.38
311.409	102.38
311.639	98.38
311.868	102.38
312.098	98.38
312.328	102.38
312.557	111.38
312.787	108.38
313.017	107.38
313.246	80.38
313.476	101.38
313.706	83.38
313.935	99.38
314.165	94.38
314.394	94.38
314.624	93.38
314.853	99.38
315.083	90.38
315.312	90.38
315.542	93.38
315.771	90.38
316.001	96.38
316.23	84.38
316.46	96.38
316.689	91.38
316.919	105.38
317.148	82.38
317.377	84.38
317.607	86.38
317.836	105.38
318.065	90.38
318.295	81.38
318.524	96.38
318.753	89.38
318.983	102.38
319.212	102.38
319.441	102.38
319.67	112.38
319.9	97.38
320.129	91.38
320.358	77.38
320.587	90.38
320.816	98.38
321.046	95.38
321.275	101.38
321.504	88.38
321.733	93.38
321.962	102.38
322.191	93.38
322.42	103.38
322.649	112.38
322.878	108.38
323.108	114.38
323.337	135.38
323.566	116.38
323.795	140.38
324.024	191.38
324.253	394.38
324.482	781.38
324.71	1580.38
324.939	2025.38
325.168	781.38
325.397	230.38
325.626	159.38
325.855	130.38
326.084	109.38
326.313	133.38
326.542	150.38
326.77	233.38
326.999	440.38
327.228	888.38
327.457	1590.38
327.686	1257.38
327.914	378.38
328.143	246.38
328.372	250.38
328.6	171.38
328.829	136.38
329.058	147.38
329.287	145.38
329.515	127.38
329.744	145.38
329.972	182.38
330.201	286.38
330.43	380.38
330.658	211.38
330.887	159.38
331.115	138.38
331.344	108.38
331.572	107.38
331.801	102.38
332.03	95.38
332.258	83.38
332.486	102.38
332.715	108.38
332.943	99.38
333.172	107.38
333.4	100.38
333.629	118.38
333.857	142.38
334.085	187.38
334.314	284.38
334.542	484.38
334.771	454.38
334.999	175.38
335.227	115.38
335.455	112.38
335.684	84.38
335.912	105.38
336.14	104.38
336.369	90.38
336.597	103.38
336.825	99.38
337.053	84.38
337.281	88.38
337.51	97.38
337.738	94.38
337.966	94.38
338.194	104.38
338.422	90.38
338.65	111.38
338.878	105.38
339.106	94.38
339.334	93.38
339.562	87.38
339.79	96.38
340.018	99.38
340.246	92.38
340.474	94.38
340.702	82.38
340.93	80.38
341.158	85.38
341.386	89.38
341.614	96.38
341.842	92.38
342.07	89.38
342.298	95.38
342.526	98.38
342.754	82.38
342.981	89.38
343.209	84.38
343.437	105.38
343.665	90.38
343.893	75.38
344.12	75.38
344.348	93.38
344.576	99.38
344.804	102.38
345.031	102.38
345.259	108.38
345.487	95.38
345.714	85.38
345.942	93.38
346.17	91.38
346.397	90.38
346.625	106.38
346.853	85.38
347.08	97.38
347.308	100.38
347.535	102.38
347.763	105.38
347.99	104.38
348.218	102.38
348.445	103.38
348.673	106.38
348.9	105.38
349.128	82.38
349.355	104.38
349.583	96.38
349.81	97.38
350.037	90.38
350.265	111.38
350.492	95.38
350.72	107.38
350.947	103.38
351.174	100.38
351.402	106.38
351.629	100.38
351.856	107.38
352.083	96.38
352.311	100.38
352.538	122.38
352.765	115.38
352.992	104.38
353.22	97.38
353.447	99.38
353.674	102.38
353.901	91.38
354.128	93.38
354.355	108.38
354.583	92.38
354.81	104.38
355.037	104.38
355.264	92.38
355.491	102.38
355.718	89.38
355.945	103.38
356.172	87.38
356.399	92.38
356.626	100.38
356.853	91.38
357.08	97.38
357.307	95.38
357.534	94.38
357.761	102.38
357.988	93.38
358.215	97.38
358.441	104.38
358.668	101.38
358.895	79.38
359.122	88.38
359.349	87.38
359.576	80.38
359.802	107.38
360.029	103.38
360.256	121.38
360.483	97.38
360.709	92.38
360.936	81.38
361.163	90.38
361.39	82.38
361.616	95.38
361.843	102.38
362.07	89.38
362.296	88.38
362.523	104.38
362.749	79.38
362.976	89.38
363.203	91.38
363.429	86.38
363.656	84.38
363.882	84.38
364.109	94.38
364.335	96.38
364.562	86.38
364.788	91.38
365.015	102.38
365.241	92.38
365.468	105.38
365.694	102.38
365.92	105.38
366.147	87.38
366.373	90.38
366.599	93.38
366.826	82.38
367.052	84.38
367.278	96.38
367.505	98.38
367.731	96.38
367.957	93.38
368.184	109.38
368.41	102.38
368.636	108.38
368.862	126.38
369.089	116.38
369.315	81.38
369.541	93.38
369.767	86.38
369.993	108.38
370.219	100.38
370.445	103.38
370.672	87.38
370.898	99.38
371.124	79.38
371.35	93.38
371.576	89.38
371.802	103.38
372.028	88.38
372.254	95.38
372.48	98.38
372.706	73.38
372.932	82.38
373.158	86.38
373.384	89.38
373.61	85.38
373.835	80.38
374.061	80.38
374.287	96.38
374.513	79.38
374.739	82.38
374.965	81.38
375.191	95.38
375.416	84.38
375.642	84.38
375.868	92.38
376.094	94.38
376.319	91.38
376.545	86.38
376.771	71.38
376.997	76.38
377.222	94.38
377.448	94.38
377.674	94.38
377.899	94.38
378.125	97.38
378.35	87.38
378.576	87.38
378.802	95.38
379.027	102.38
379.253	86.38
379.478	84.38
379.704	100.38
379.929	101.38
380.155	89.38
380.38	97.38
380.606	99.38
380.831	100.38
381.057	107.38
381.282	99.38
381.507	89.38
381.733	82.38
381.958	100.38
382.184	99.38
382.409	93.38
382.634	97.38
382.86	105.38
383.085	101.38
383.31	105.38
383.535	96.38
383.761	102.38
383.986	90.38
384.211	104.38
384.436	99.38
384.662	97.38
384.887	91.38
385.112	89.38
385.337	113.38
385.562	103.38
385.787	112.38
386.013	104.38
386.238	122.38
386.463	95.38
386.688	95.38
386.913	105.38
387.138	109.38
387.363	119.38
387.588	112.38
387.813	107.38
388.038	115.38
388.263	115.38
388.488	106.38
388.713	98.38
388.938	94.38
389.163	98.38
389.387	93.38
389.612	102.38
389.837	112.38
390.062	98.38
390.287	103.38
390.512	81.38
390.736	88.38
390.961	87.38
391.186	92.38
391.411	96.38
391.636	93.38
391.86	86.38
392.085	82.38
392.31	97.38
392.534	87.38
392.759	94.38
392.984	95.38
393.208	83.38
393.433	90.38
393.658	90.38
393.882	98.38
394.107	78.38
394.331	83.38
394.556	86.38
394.78	98.38
395.005	98.38
395.229	95.38
395.454	79.38
395.678	84.38
395.903	87.38
396.127	87.38
396.352	95.38
396.576	92.38
396.801	102.38
397.025	98.38
397.249	84.38
397.474	97.38
397.698	82.38
397.922	95.38
398.147	90.38
398.371	63.38
398.595	90.38
398.82	96.38
399.044	87.38
399.268	75.38
399.492	92.38
399.717	80.38
399.941	90.38
400.165	81.38
400.389	88.38
400.613	94.38
400.837	82.38
401.062	85.38
401.286	97.38
401.51	95.38
401.734	95.38
401.958	104.38
402.182	131.38
402.406	139.38
402.63	119.38
402.854	97.38
403.078	99.38
403.302	91.38
403.526	92.38
403.75	91.38
403.974	82.38
404.198	95.38
404.422	98.38
404.645	95.38
404.869	91.38
405.093	107.38
405.317	116.38
405.541	120.38
405.765	94.38
405.988	126.38
406.212	150.38
406.436	220.38
406.66	142.38
406.883	115.38
407.107	96.38
407.331	93.38
407.555	85.38
407.778	104.38
408.002	91.38
408.226	100.38
408.449	76.38
408.673	72.38
408.896	113.38
409.12	107.38
409.344	99.38
409.567	79.38
409.791	97.38
410.014	107.38
410.238	96.38
410.461	79.38
410.685	91.38
410.908	87.38
411.132	96.38
411.355	94.38
411.578	90.38
411.802	96.38
412.025	72.38
412.249	108.38
412.472	98.38
412.695	114.38
412.919	100.38
413.142	92.38
413.365	95.38
413.589	101.38
413.812	87.38
414.035	88.38
414.258	87.38
414.482	94.38
414.705	88.38
414.928	84.38
415.151	92.38
415.374	104.38
415.597	79.38
415.821	89.38
416.044	97.38
416.267	91.38
416.49	83.38
416.713	94.38
416.936	82.38
417.159	91.38
417.382	82.38
417.605	86.38
417.828	117.38
418.051	91.38
418.274	81.38
418.497	83.38
418.72	85.38
418.943	94.38
419.166	96.38
419.389	85.38
419.611	95.38
419.834	111.38
420.057	104.38
420.28	90.38
420.503	90.38
420.726	93.38
420.948	84.38
421.171	94.38
421.394	103.38
421.617	103.38
421.839	94.38
422.062	91.38
422.285	104.38
422.507	106.38
422.73	103.38
422.953	94.38
423.175	97.38
423.398	98.38
423.621	91.38
423.843	96.38
424.066	82.38
424.288	80.38
424.511	92.38
424.733	90.38
424.956	100.38
425.178	96.38
425.401	98.38
425.623	99.38
425.846	94.38
426.068	90.38
426.291	91.38
426.513	96.38
426.735	92.38
426.958	90.38
427.18	89.38
427.402	144.38
427.625	186.38
427.847	175.38
428.069	143.38
428.292	96.38
428.514	82.38
428.736	84.38
428.958	88.38
429.181	82.38
429.403	87.38
429.625	98.38
429.847	89.38
430.069	100.38
430.292	103.38
430.514	102.38
430.736	95.38
430.958	87.38
431.18	84.38
431.402	79.38
431.624	84.38
431.846	90.38
432.068	84.38
432.29	106.38
432.512	104.38
432.734	89.38
432.956	101.38
433.178	103.38
433.4	101.38
433.622	106.38
433.844	99.38
434.066	88.38
434.287	99.38
434.509	89.38
434.731	79.38
434.953	86.38
435.175	84.38
435.397	84.38
435.618	99.38
435.84	100.38
436.062	125.38
436.284	109.38
436.505	110.38
436.727	88.38
436.949	90.38
437.17	93.38
437.392	86.38
437.614	90.38
437.835	108.38
438.057	116.38
438.278	110.38
438.5	96.38
438.721	113.38
438.943	94.38
439.165	83.38
439.386	105.38
439.608	102.38
439.829	106.38
440.05	127.38
440.272	152.38
440.493	119.38
440.715	103.38
440.936	82.38
441.158	79.38
441.379	86.38
441.6	115.38
441.822	93.38
442.043	104.38
442.264	96.38
442.486	94.38
442.707	96.38
442.928	105.38
443.149	140.38
443.371	147.38
443.592	103.38
443.813	130.38
444.034	109.38
444.255	110.38
444.476	88.38
444.698	84.38
444.919	88.38
445.14	144.38
445.361	130.38
445.582	120.38
445.803	153.38
446.024	152.38
446.245	129.38
446.466	127.38
446.687	81.38
446.908	99.38
447.129	95.38
447.35	95.38
447.571	94.38
447.792	90.38
448.013	107.38
448.234	109.38
448.455	95.38
448.675	125.38
448.896	107.38
449.117	99.38
449.338	105.38
449.559	127.38
449.779	145.38
450	82.38
450.221	87.38
450.442	87.38
450.662	105.38
450.883	109.38
451.104	111.38
451.324	104.38
451.545	95.38
451.766	83.38
451.986	88.38
452.207	86.38
452.428	97.38
452.648	97.38
452.869	122.38
453.089	119.38
453.31	122.38
453.53	98.38
453.751	111.38
453.971	102.38
454.192	129.38
454.412	103.38
454.633	94.38
454.853	91.38
455.073	93.38
455.294	97.38
455.514	99.38
455.734	80.38
455.955	88.38
456.175	76.38
456.395	85.38
456.616	94.38
456.836	84.38
457.056	87.38
457.276	84.38
457.497	85.38
457.717	86.38
457.937	95.38
458.157	95.38
458.377	87.38
458.598	119.38
458.818	150.38
459.038	154.38
459.258	132.38
459.478	105.38
459.698	80.38
459.918	91.38
460.138	91.38
460.358	85.38
460.578	95.38
460.798	105.38
461.018	90.38
461.238	89.38
461.458	92.38
461.678	85.38
461.898	90.38
462.118	95.38
462.338	92.38
462.558	92.38
462.777	87.38
462.997	114.38
463.217	97.38
463.437	88.38
463.657	97.38
463.876	90.38
464.096	74.38
464.316	87.38
464.536	103.38
464.755	102.38
464.975	110.38
465.195	144.38
465.414	172.38
465.634	97.38
465.854	97.38
466.073	99.38
466.293	84.38
466.512	95.38
466.732	83.38
466.951	95.38
467.171	93.38
467.391	107.38
467.61	121.38
467.829	115.38
468.049	184.38
468.268	248.38
468.488	115.38
468.707	89.38
468.927	78.38
469.146	87.38
469.365	86.38
469.585	103.38
469.804	104.38
470.023	99.38
470.243	101.38
470.462	107.38
470.681	121.38
470.901	86.38
471.12	90.38
471.339	93.38
471.558	100.38
471.777	104.38
471.997	129.38
472.216	324.38
472.435	665.38
472.654	190.38
472.873	101.38
473.092	84.38
473.311	97.38
473.53	91.38
473.749	103.38
473.968	95.38
474.187	91.38
474.406	93.38
474.625	96.38
474.844	81.38
475.063	90.38
475.282	106.38
475.501	96.38
475.72	95.38
475.939	87.38
476.158	96.38
476.377	89.38
476.596	83.38
476.814	103.38
477.033	98.38
477.252	93.38
477.471	100.38
477.69	96.38
477.908	101.38
478.127	83.38
478.346	93.38
478.564	97.38
478.783	108.38
479.002	103.38
479.22	95.38
479.439	102.38
479.658	116.38
479.876	94.38
480.095	106.38
480.313	95.38
480.532	104.38
480.751	142.38
480.969	321.38
481.188	1048.38
481.406	668.38
481.624	154.38
481.843	102.38
482.061	87.38
482.28	103.38
482.498	90.38
482.717	93.38
482.935	105.38
483.153	91.38
483.372	100.38
483.59	91.38
483.808	112.38
484.027	82.38
484.245	94.38
484.463	90.38
484.681	97.38
484.9	101.38
485.118	95.38
485.336	113.38
485.554	100.38
485.772	98.38
485.99	96.38
486.209	99.38
486.427	114.38
486.645	97.38
486.863	103.38
487.081	104.38
487.299	87.38
487.517	86.38
487.735	99.38
487.953	87.38
488.171	102.38
488.389	99.38
488.607	113.38
488.825	109.38
489.043	97.38
489.261	82.38
489.479	82.38
489.696	97.38
489.914	87.38
490.132	102.38
490.35	83.38
490.568	100.38
490.786	92.38
491.003	90.38
491.221	97.38
491.439	91.38
491.657	87.38
491.874	102.38
492.092	100.38
492.31	99.38
492.527	96.38
492.745	99.38
492.963	92.38
493.18	94.38
493.398	95.38
493.615	97.38
493.833	108.38
494.05	93.38
494.268	97.38
494.485	87.38
494.703	92.38
494.92	107.38
495.138	88.38
495.355	91.38
495.573	111.38
495.79	88.38
496.008	97.38
496.225	74.38
496.442	80.38
496.66	92.38
496.877	81.38
497.094	114.38
497.312	103.38
497.529	82.38
497.746	88.38
497.963	90.38
498.181	82.38
498.398	107.38
498.615	101.38
498.832	103.38
499.049	104.38
499.267	90.38
499.484	88.38
499.701	82.38
499.918	88.38
500.135	82.38
500.352	104.38
500.569	83.38
500.786	87.38
501.003	92.38
501.22	98.38
501.437	83.38
501.654	114.38
501.871	120.38
502.088	108.38
502.305	100.38
502.522	97.38
502.739	78.38
502.956	96.38
503.172	97.38
503.389	103.38
503.606	112.38
503.823	104.38
504.04	94.38
504.256	84.38
504.473	94.38
504.69	94.38
504.907	96.38
505.123	94.38
505.34	90.38
505.557	85.38
505.773	92.38
505.99	96.38
506.207	94.38
506.423	91.38
506.64	95.38
506.856	90.38
507.073	96.38
507.289	97.38
507.506	99.38
507.722	109.38
507.939	111.38
508.155	95.38
508.372	94.38
508.588	96.38
508.805	94.38
509.021	102.38
509.238	96.38
509.454	100.38
509.67	121.38
509.887	99.38
510.103	130.38
510.319	189.38
510.536	652.38
510.752	2031.38
510.968	596.38
511.184	149.38
511.401	107.38
511.617	109.38
511.833	113.38
512.049	100.38
512.265	92.38
512.481	76.38
512.698	89.38
512.914	93.38
513.13	97.38
513.346	91.38
513.562	82.38
513.778	78.38
513.994	92.38
514.21	105.38
514.426	108.38
