Data from Circ_2010_H10_HRD10591_00086.txt Node
Date: Wed Jan 03 10:09:58 EST 2024
User: Yrep
Spectrometer: HR+D1059
Trigger mode: 1
Integration Time (sec): 1.000000E-1
Scans to average: 1
Electric dark correction enabled: true
Nonlinearity correction enabled: false
Boxcar width: 0
XAxis mode: Wavelengths
Number of Pixels in Spectrum: 2048
>>>>>Begin Spectral Data<<<<<
223.165	-18.44
223.4	-18.44
223.635	-18.44
223.869	-24.44
224.104	-25.44
224.338	-7.44
224.573	-20.44
224.808	-5.44
225.042	-23.44
225.277	10.56
225.511	-3.44
225.746	11.56
225.98	3.56
226.215	11.56
226.449	16.56
226.683	29.56
226.918	26.56
227.152	18.56
227.387	31.56
227.621	47.56
227.856	45.56
228.09	58.56
228.324	58.56
228.559	62.56
228.793	55.56
229.027	72.56
229.262	70.56
229.496	74.56
229.73	83.56
229.964	74.56
230.199	69.56
230.433	76.56
230.667	82.56
230.901	75.56
231.136	79.56
231.37	82.56
231.604	71.56
231.838	80.56
232.072	86.56
232.306	88.56
232.541	88.56
232.775	78.56
233.009	82.56
233.243	78.56
233.477	93.56
233.711	81.56
233.945	97.56
234.179	73.56
234.413	75.56
234.647	83.56
234.881	90.56
235.115	87.56
235.349	100.56
235.583	76.56
235.817	72.56
236.051	70.56
236.285	74.56
236.519	81.56
236.753	79.56
236.987	75.56
237.221	79.56
237.455	87.56
237.689	87.56
237.922	82.56
238.156	71.56
238.39	77.56
238.624	53.56
238.858	77.56
239.091	71.56
239.325	75.56
239.559	80.56
239.793	80.56
240.027	88.56
240.26	83.56
240.494	86.56
240.728	69.56
240.961	78.56
241.195	68.56
241.429	82.56
241.662	85.56
241.896	78.56
242.13	67.56
242.363	85.56
242.597	83.56
242.83	83.56
243.064	69.56
243.298	83.56
243.531	75.56
243.765	78.56
243.998	77.56
244.232	80.56
244.465	80.56
244.699	70.56
244.932	80.56
245.166	74.56
245.399	88.56
245.633	75.56
245.866	94.56
246.099	84.56
246.333	74.56
246.566	87.56
246.8	74.56
247.033	87.56
247.266	82.56
247.5	73.56
247.733	85.56
247.966	84.56
248.2	83.56
248.433	73.56
248.666	72.56
248.899	72.56
249.133	82.56
249.366	94.56
249.599	92.56
249.832	89.56
250.066	81.56
250.299	89.56
250.532	90.56
250.765	81.56
250.998	83.56
251.231	80.56
251.465	88.56
251.698	74.56
251.931	83.56
252.164	68.56
252.397	79.56
252.63	82.56
252.863	81.56
253.096	87.56
253.329	93.56
253.562	86.56
253.795	81.56
254.028	85.56
254.261	79.56
254.494	98.56
254.727	87.56
254.96	87.56
255.193	90.56
255.426	83.56
255.659	87.56
255.892	92.56
256.124	78.56
256.357	65.56
256.59	76.56
256.823	85.56
257.056	94.56
257.289	78.56
257.521	76.56
257.754	90.56
257.987	77.56
258.22	76.56
258.452	102.56
258.685	86.56
258.918	79.56
259.151	86.56
259.383	61.56
259.616	84.56
259.849	82.56
260.081	94.56
260.314	78.56
260.547	84.56
260.779	89.56
261.012	91.56
261.244	66.56
261.477	102.56
261.71	97.56
261.942	122.56
262.175	114.56
262.407	98.56
262.64	75.56
262.872	80.56
263.105	78.56
263.337	90.56
263.57	88.56
263.802	76.56
264.035	95.56
264.267	87.56
264.499	81.56
264.732	78.56
264.964	79.56
265.197	76.56
265.429	66.56
265.661	75.56
265.894	93.56
266.126	93.56
266.358	82.56
266.591	77.56
266.823	68.56
267.055	91.56
267.287	79.56
267.52	95.56
267.752	77.56
267.984	87.56
268.216	84.56
268.448	95.56
268.681	94.56
268.913	84.56
269.145	95.56
269.377	89.56
269.609	89.56
269.841	94.56
270.073	65.56
270.306	78.56
270.538	82.56
270.77	86.56
271.002	83.56
271.234	91.56
271.466	85.56
271.698	101.56
271.93	92.56
272.162	70.56
272.394	92.56
272.626	91.56
272.858	95.56
273.09	85.56
273.322	89.56
273.553	77.56
273.785	79.56
274.017	91.56
274.249	87.56
274.481	90.56
274.713	83.56
274.945	77.56
275.176	71.56
275.408	96.56
275.64	103.56
275.872	100.56
276.104	87.56
276.335	84.56
276.567	72.56
276.799	103.56
277.031	105.56
277.262	98.56
277.494	101.56
277.726	103.56
277.957	82.56
278.189	98.56
278.421	111.56
278.652	93.56
278.884	84.56
279.115	93.56
279.347	91.56
279.579	84.56
279.81	85.56
280.042	100.56
280.273	114.56
280.505	123.56
280.736	85.56
280.968	81.56
281.199	92.56
281.431	75.56
281.662	101.56
281.894	87.56
282.125	94.56
282.356	111.56
282.588	130.56
282.819	109.56
283.051	87.56
283.282	94.56
283.513	96.56
283.745	82.56
283.976	88.56
284.207	90.56
284.439	89.56
284.67	87.56
284.901	75.56
285.132	87.56
285.364	97.56
285.595	81.56
285.826	99.56
286.057	93.56
286.288	93.56
286.52	81.56
286.751	84.56
286.982	90.56
287.213	94.56
287.444	91.56
287.675	88.56
287.906	86.56
288.138	88.56
288.369	103.56
288.6	96.56
288.831	98.56
289.062	82.56
289.293	88.56
289.524	94.56
289.755	79.56
289.986	80.56
290.217	90.56
290.448	96.56
290.679	87.56
290.91	86.56
291.141	74.56
291.371	89.56
291.602	84.56
291.833	103.56
292.064	86.56
292.295	99.56
292.526	80.56
292.757	77.56
292.987	75.56
293.218	89.56
293.449	82.56
293.68	91.56
293.91	95.56
294.141	83.56
294.372	101.56
294.603	92.56
294.833	77.56
295.064	88.56
295.295	85.56
295.525	96.56
295.756	103.56
295.987	118.56
296.217	136.56
296.448	108.56
296.679	87.56
296.909	89.56
297.14	87.56
297.37	90.56
297.601	88.56
297.831	88.56
298.062	81.56
298.292	98.56
298.523	86.56
298.753	92.56
298.984	90.56
299.214	95.56
299.445	95.56
299.675	94.56
299.905	94.56
300.136	84.56
300.366	90.56
300.597	82.56
300.827	90.56
301.057	97.56
301.288	108.56
301.518	104.56
301.748	79.56
301.979	106.56
302.209	83.56
302.439	73.56
302.669	89.56
302.9	95.56
303.13	96.56
303.36	95.56
303.59	103.56
303.82	103.56
304.051	99.56
304.281	80.56
304.511	101.56
304.741	90.56
304.971	89.56
305.201	83.56
305.431	91.56
305.661	92.56
305.891	89.56
306.121	106.56
306.352	103.56
306.582	95.56
306.812	76.56
307.042	93.56
307.272	109.56
307.502	110.56
307.731	117.56
307.961	102.56
308.191	98.56
308.421	81.56
308.651	93.56
308.881	114.56
309.111	85.56
309.341	105.56
309.571	102.56
309.8	97.56
310.03	105.56
310.26	103.56
310.49	89.56
310.72	82.56
310.949	94.56
311.179	101.56
311.409	103.56
311.639	95.56
311.868	98.56
312.098	99.56
312.328	107.56
312.557	86.56
312.787	105.56
313.017	111.56
313.246	94.56
313.476	95.56
313.706	107.56
313.935	100.56
314.165	102.56
314.394	110.56
314.624	93.56
314.853	108.56
315.083	102.56
315.312	92.56
315.542	83.56
315.771	95.56
316.001	87.56
316.23	102.56
316.46	83.56
316.689	98.56
316.919	97.56
317.148	103.56
317.377	77.56
317.607	94.56
317.836	102.56
318.065	94.56
318.295	99.56
318.524	79.56
318.753	93.56
318.983	102.56
319.212	87.56
319.441	106.56
319.67	105.56
319.9	94.56
320.129	104.56
320.358	91.56
320.587	107.56
320.816	90.56
321.046	102.56
321.275	99.56
321.504	83.56
321.733	89.56
321.962	90.56
322.191	100.56
322.42	95.56
322.649	109.56
322.878	103.56
323.108	123.56
323.337	106.56
323.566	135.56
323.795	142.56
324.024	199.56
324.253	358.56
324.482	761.56
324.71	1475.56
324.939	1869.56
325.168	719.56
325.397	224.56
325.626	145.56
325.855	116.56
326.084	118.56
326.313	142.56
326.542	142.56
326.77	210.56
326.999	428.56
327.228	817.56
327.457	1462.56
327.686	1167.56
327.914	357.56
328.143	239.56
328.372	216.56
328.6	153.56
328.829	126.56
329.058	121.56
329.287	130.56
329.515	120.56
329.744	142.56
329.972	162.56
330.201	250.56
330.43	316.56
330.658	197.56
330.887	153.56
331.115	133.56
331.344	110.56
331.572	95.56
331.801	134.56
332.03	99.56
332.258	98.56
332.486	87.56
332.715	99.56
332.943	99.56
333.172	97.56
333.4	102.56
333.629	111.56
333.857	113.56
334.085	172.56
334.314	238.56
334.542	401.56
334.771	373.56
334.999	152.56
335.227	121.56
335.455	89.56
335.684	93.56
335.912	87.56
336.14	103.56
336.369	102.56
336.597	93.56
336.825	92.56
337.053	98.56
337.281	94.56
337.51	91.56
337.738	84.56
337.966	94.56
338.194	93.56
338.422	91.56
338.65	101.56
338.878	86.56
339.106	96.56
339.334	83.56
339.562	94.56
339.79	105.56
340.018	95.56
340.246	87.56
340.474	95.56
340.702	102.56
340.93	99.56
341.158	88.56
341.386	102.56
341.614	98.56
341.842	101.56
342.07	86.56
342.298	91.56
342.526	97.56
342.754	89.56
342.981	92.56
343.209	107.56
343.437	102.56
343.665	90.56
343.893	95.56
344.12	99.56
344.348	92.56
344.576	91.56
344.804	82.56
345.031	97.56
345.259	91.56
345.487	105.56
345.714	95.56
345.942	100.56
346.17	74.56
346.397	90.56
346.625	89.56
346.853	102.56
347.08	81.56
347.308	107.56
347.535	111.56
347.763	101.56
347.99	96.56
348.218	107.56
348.445	111.56
348.673	91.56
348.9	107.56
349.128	98.56
349.355	93.56
349.583	94.56
349.81	95.56
350.037	90.56
350.265	81.56
350.492	83.56
350.72	94.56
350.947	104.56
351.174	110.56
351.402	110.56
351.629	98.56
351.856	88.56
352.083	99.56
352.311	101.56
352.538	96.56
352.765	104.56
352.992	112.56
353.22	113.56
353.447	95.56
353.674	107.56
353.901	95.56
354.128	94.56
354.355	89.56
354.583	109.56
354.81	78.56
355.037	88.56
355.264	95.56
355.491	84.56
355.718	101.56
355.945	76.56
356.172	101.56
356.399	95.56
356.626	94.56
356.853	88.56
357.08	96.56
357.307	95.56
357.534	92.56
357.761	78.56
357.988	96.56
358.215	90.56
358.441	89.56
358.668	86.56
358.895	92.56
359.122	88.56
359.349	82.56
359.576	98.56
359.802	96.56
360.029	98.56
360.256	93.56
360.483	108.56
360.709	89.56
360.936	80.56
361.163	101.56
361.39	96.56
361.616	94.56
361.843	104.56
362.07	85.56
362.296	88.56
362.523	87.56
362.749	97.56
362.976	96.56
363.203	79.56
363.429	88.56
363.656	90.56
363.882	93.56
364.109	103.56
364.335	108.56
364.562	94.56
364.788	92.56
365.015	88.56
365.241	85.56
365.468	108.56
365.694	112.56
365.92	77.56
366.147	90.56
366.373	93.56
366.599	101.56
366.826	95.56
367.052	92.56
367.278	85.56
367.505	85.56
367.731	97.56
367.957	103.56
368.184	92.56
368.41	83.56
368.636	92.56
368.862	112.56
369.089	109.56
369.315	89.56
369.541	98.56
369.767	96.56
369.993	94.56
370.219	90.56
370.445	93.56
370.672	89.56
370.898	85.56
371.124	100.56
371.35	89.56
371.576	68.56
371.802	83.56
372.028	95.56
372.254	85.56
372.48	88.56
372.706	95.56
372.932	77.56
373.158	77.56
373.384	90.56
373.61	87.56
373.835	99.56
374.061	96.56
374.287	86.56
374.513	96.56
374.739	89.56
374.965	88.56
375.191	98.56
375.416	97.56
375.642	103.56
375.868	108.56
376.094	81.56
376.319	90.56
376.545	91.56
376.771	78.56
376.997	78.56
377.222	97.56
377.448	90.56
377.674	110.56
377.899	88.56
378.125	93.56
378.35	91.56
378.576	93.56
378.802	102.56
379.027	92.56
379.253	95.56
379.478	91.56
379.704	97.56
379.929	97.56
380.155	85.56
380.38	96.56
380.606	92.56
380.831	97.56
381.057	82.56
381.282	75.56
381.507	95.56
381.733	104.56
381.958	81.56
382.184	97.56
382.409	102.56
382.634	105.56
382.86	113.56
383.085	93.56
383.31	105.56
383.535	98.56
383.761	91.56
383.986	79.56
384.211	94.56
384.436	103.56
384.662	89.56
384.887	91.56
385.112	98.56
385.337	101.56
385.562	94.56
385.787	93.56
386.013	114.56
386.238	101.56
386.463	103.56
386.688	101.56
386.913	112.56
387.138	94.56
387.363	87.56
387.588	99.56
387.813	94.56
388.038	103.56
388.263	96.56
388.488	92.56
388.713	107.56
388.938	91.56
389.163	79.56
389.387	109.56
389.612	99.56
389.837	93.56
390.062	90.56
390.287	98.56
390.512	97.56
390.736	87.56
390.961	97.56
391.186	87.56
391.411	83.56
391.636	99.56
391.86	86.56
392.085	88.56
392.31	84.56
392.534	81.56
392.759	90.56
392.984	81.56
393.208	84.56
393.433	101.56
393.658	99.56
393.882	80.56
394.107	81.56
394.331	102.56
394.556	85.56
394.78	98.56
395.005	85.56
395.229	85.56
395.454	92.56
395.678	81.56
395.903	82.56
396.127	83.56
396.352	79.56
396.576	79.56
396.801	93.56
397.025	97.56
397.249	89.56
397.474	84.56
397.698	102.56
397.922	95.56
398.147	99.56
398.371	82.56
398.595	87.56
398.82	84.56
399.044	97.56
399.268	88.56
399.492	93.56
399.717	95.56
399.941	91.56
400.165	96.56
400.389	80.56
400.613	85.56
400.837	82.56
401.062	89.56
401.286	91.56
401.51	90.56
401.734	87.56
401.958	92.56
402.182	114.56
402.406	141.56
402.63	116.56
402.854	89.56
403.078	99.56
403.302	96.56
403.526	87.56
403.75	82.56
403.974	83.56
404.198	93.56
404.422	90.56
404.645	88.56
404.869	90.56
405.093	107.56
405.317	106.56
405.541	112.56
405.765	109.56
405.988	102.56
406.212	158.56
406.436	198.56
406.66	127.56
406.883	89.56
407.107	79.56
407.331	97.56
407.555	96.56
407.778	103.56
408.002	91.56
408.226	89.56
408.449	101.56
408.673	95.56
408.896	94.56
409.12	87.56
409.344	97.56
409.567	90.56
409.791	101.56
410.014	84.56
410.238	96.56
410.461	80.56
410.685	91.56
410.908	97.56
411.132	90.56
411.355	93.56
411.578	96.56
411.802	90.56
412.025	88.56
412.249	87.56
412.472	109.56
412.695	101.56
412.919	102.56
413.142	91.56
413.365	90.56
413.589	90.56
413.812	90.56
414.035	86.56
414.258	94.56
414.482	104.56
414.705	91.56
414.928	86.56
415.151	93.56
415.374	80.56
415.597	87.56
415.821	96.56
416.044	95.56
416.267	87.56
416.49	90.56
416.713	84.56
416.936	91.56
417.159	93.56
417.382	83.56
417.605	91.56
417.828	93.56
418.051	104.56
418.274	103.56
418.497	89.56
418.72	85.56
418.943	108.56
419.166	76.56
419.389	88.56
419.611	98.56
419.834	88.56
420.057	89.56
420.28	93.56
420.503	85.56
420.726	91.56
420.948	94.56
421.171	93.56
421.394	85.56
421.617	104.56
421.839	83.56
422.062	88.56
422.285	94.56
422.507	108.56
422.73	105.56
422.953	102.56
423.175	93.56
423.398	93.56
423.621	89.56
423.843	87.56
424.066	95.56
424.288	100.56
424.511	93.56
424.733	98.56
424.956	110.56
425.178	91.56
425.401	94.56
425.623	104.56
425.846	88.56
426.068	101.56
426.291	101.56
426.513	88.56
426.735	96.56
426.958	97.56
427.18	118.56
427.402	137.56
427.625	176.56
427.847	142.56
428.069	139.56
428.292	114.56
428.514	88.56
428.736	74.56
428.958	94.56
429.181	88.56
429.403	96.56
429.625	81.56
429.847	79.56
430.069	95.56
430.292	94.56
430.514	102.56
430.736	86.56
430.958	88.56
431.18	80.56
431.402	89.56
431.624	79.56
431.846	87.56
432.068	81.56
432.29	79.56
432.512	80.56
432.734	77.56
432.956	93.56
433.178	89.56
433.4	93.56
433.622	82.56
433.844	95.56
434.066	87.56
434.287	93.56
434.509	89.56
434.731	95.56
434.953	88.56
435.175	80.56
435.397	86.56
435.618	94.56
435.84	91.56
436.062	102.56
436.284	107.56
436.505	102.56
436.727	93.56
436.949	88.56
437.17	78.56
437.392	101.56
437.614	103.56
437.835	102.56
438.057	108.56
438.278	104.56
438.5	107.56
438.721	112.56
438.943	90.56
439.165	84.56
439.386	100.56
439.608	111.56
439.829	100.56
440.05	114.56
440.272	137.56
440.493	89.56
440.715	101.56
440.936	74.56
441.158	89.56
441.379	82.56
441.6	75.56
441.822	99.56
442.043	104.56
442.264	109.56
442.486	101.56
442.707	101.56
442.928	102.56
443.149	111.56
443.371	128.56
443.592	104.56
443.813	107.56
444.034	117.56
444.255	91.56
444.476	83.56
444.698	99.56
444.919	87.56
445.14	142.56
445.361	133.56
445.582	108.56
445.803	121.56
446.024	130.56
446.245	131.56
446.466	104.56
446.687	99.56
446.908	85.56
447.129	101.56
447.35	95.56
447.571	83.56
447.792	90.56
448.013	96.56
448.234	121.56
448.455	99.56
448.675	114.56
448.896	132.56
449.117	105.56
449.338	103.56
449.559	136.56
449.779	126.56
450	99.56
450.221	83.56
450.442	79.56
450.662	76.56
450.883	101.56
451.104	102.56
451.324	93.56
451.545	85.56
451.766	92.56
451.986	99.56
452.207	91.56
452.428	88.56
452.648	99.56
452.869	95.56
453.089	116.56
453.31	111.56
453.53	93.56
453.751	97.56
453.971	112.56
454.192	102.56
454.412	94.56
454.633	85.56
454.853	92.56
455.073	85.56
455.294	83.56
455.514	107.56
455.734	85.56
455.955	86.56
456.175	86.56
456.395	93.56
456.616	100.56
456.836	92.56
457.056	75.56
457.276	83.56
457.497	81.56
457.717	91.56
457.937	87.56
458.157	90.56
458.377	94.56
458.598	107.56
458.818	140.56
459.038	145.56
459.258	114.56
459.478	87.56
459.698	83.56
459.918	88.56
460.138	83.56
460.358	83.56
460.578	92.56
460.798	95.56
461.018	93.56
461.238	90.56
461.458	92.56
461.678	108.56
461.898	76.56
462.118	78.56
462.338	93.56
462.558	86.56
462.777	91.56
462.997	98.56
463.217	74.56
463.437	94.56
463.657	87.56
463.876	99.56
464.096	88.56
464.316	88.56
464.536	90.56
464.755	91.56
464.975	102.56
465.195	148.56
465.414	162.56
465.634	93.56
465.854	82.56
466.073	105.56
466.293	98.56
466.512	77.56
466.732	78.56
466.951	88.56
467.171	95.56
467.391	89.56
467.61	103.56
467.829	121.56
468.049	173.56
468.268	212.56
468.488	109.56
468.707	101.56
468.927	89.56
469.146	99.56
469.365	89.56
469.585	75.56
469.804	104.56
470.023	105.56
470.243	95.56
470.462	96.56
470.681	99.56
470.901	86.56
471.12	91.56
471.339	102.56
471.558	106.56
471.777	95.56
471.997	133.56
472.216	301.56
472.435	544.56
472.654	173.56
472.873	95.56
473.092	87.56
473.311	82.56
473.53	78.56
473.749	86.56
473.968	94.56
474.187	98.56
474.406	106.56
474.625	95.56
474.844	91.56
475.063	94.56
475.282	101.56
475.501	85.56
475.72	101.56
475.939	89.56
476.158	79.56
476.377	103.56
476.596	96.56
476.814	82.56
477.033	93.56
477.252	82.56
477.471	91.56
477.69	87.56
477.908	93.56
478.127	74.56
478.346	97.56
478.564	98.56
478.783	110.56
479.002	101.56
479.22	98.56
479.439	99.56
479.658	100.56
479.876	103.56
480.095	92.56
480.313	98.56
480.532	110.56
480.751	125.56
480.969	287.56
481.188	914.56
481.406	587.56
481.624	144.56
481.843	85.56
482.061	98.56
482.28	92.56
482.498	90.56
482.717	87.56
482.935	105.56
483.153	98.56
483.372	91.56
483.59	100.56
483.808	85.56
484.027	85.56
484.245	93.56
484.463	93.56
484.681	97.56
484.9	94.56
485.118	97.56
485.336	97.56
485.554	87.56
485.772	98.56
485.99	95.56
486.209	100.56
486.427	110.56
486.645	108.56
486.863	104.56
487.081	107.56
487.299	90.56
487.517	89.56
487.735	90.56
487.953	86.56
488.171	88.56
488.389	91.56
488.607	99.56
488.825	95.56
489.043	87.56
489.261	92.56
489.479	95.56
489.696	97.56
489.914	83.56
490.132	80.56
490.35	99.56
490.568	110.56
490.786	78.56
491.003	99.56
491.221	79.56
491.439	88.56
491.657	95.56
491.874	89.56
492.092	98.56
492.31	88.56
492.527	96.56
492.745	86.56
492.963	95.56
493.18	96.56
493.398	92.56
493.615	93.56
493.833	107.56
494.05	108.56
494.268	93.56
494.485	89.56
494.703	105.56
494.92	86.56
495.138	85.56
495.355	74.56
495.573	90.56
495.79	97.56
496.008	93.56
496.225	92.56
496.442	94.56
496.66	102.56
496.877	97.56
497.094	89.56
497.312	98.56
497.529	93.56
497.746	98.56
497.963	89.56
498.181	82.56
498.398	89.56
498.615	107.56
498.832	101.56
499.049	103.56
499.267	83.56
499.484	96.56
499.701	108.56
499.918	99.56
500.135	89.56
500.352	106.56
500.569	94.56
500.786	95.56
501.003	91.56
501.22	81.56
501.437	95.56
501.654	101.56
501.871	110.56
502.088	101.56
502.305	72.56
502.522	85.56
502.739	80.56
502.956	95.56
503.172	95.56
503.389	88.56
503.606	96.56
503.823	109.56
504.04	82.56
504.256	96.56
504.473	86.56
504.69	100.56
504.907	104.56
505.123	99.56
505.34	104.56
505.557	107.56
505.773	90.56
505.99	76.56
506.207	95.56
506.423	72.56
506.64	86.56
506.856	87.56
507.073	104.56
507.289	88.56
507.506	89.56
507.722	114.56
507.939	98.56
508.155	101.56
508.372	95.56
508.588	93.56
508.805	101.56
509.021	94.56
509.238	99.56
509.454	105.56
509.67	87.56
509.887	114.56
510.103	121.56
510.319	197.56
510.536	666.56
510.752	2129.56
510.968	613.56
511.184	151.56
511.401	110.56
511.617	105.56
511.833	86.56
512.049	89.56
512.265	94.56
512.481	101.56
512.698	95.56
512.914	97.56
513.13	97.56
513.346	105.56
513.562	79.56
513.778	103.56
513.994	92.56
514.21	105.56
514.426	111.56
514.642	139.56
514.858	133.56
515.074	161.56
