Data from Circ_2010_H10_HRD10591_00015.txt Node
Date: Wed Jan 03 10:09:44 EST 2024
User: Yrep
Spectrometer: HR+D1059
Trigger mode: 1
Integration Time (sec): 1.000000E-1
Scans to average: 1
Electric dark correction enabled: true
Nonlinearity correction enabled: false
Boxcar width: 0
XAxis mode: Wavelengths
Number of Pixels in Spectrum: 2048
>>>>>Begin Spectral Data<<<<<
223.165	-12.81
223.4	-12.81
223.635	-12.81
223.869	-24.81
224.104	-20.81
224.338	-13.81
224.573	-16.81
224.808	-21.81
225.042	8.19
225.277	-1.81
225.511	-0.81
225.746	0.19
225.98	8.19
226.215	2.19
226.449	17.19
226.683	17.19
226.918	30.19
227.152	30.19
227.387	37.19
227.621	33.19
227.856	56.19
228.09	46.19
228.324	45.19
228.559	62.19
228.793	62.19
229.027	56.19
229.262	67.19
229.496	64.19
229.73	74.19
229.964	83.19
230.199	81.19
230.433	80.19
230.667	80.19
230.901	78.19
231.136	82.19
231.37	80.19
231.604	76.19
231.838	86.19
232.072	78.19
232.306	79.19
232.541	73.19
232.775	71.19
233.009	79.19
233.243	78.19
233.477	83.19
233.711	78.19
233.945	67.19
234.179	87.19
234.413	85.19
234.647	81.19
234.881	80.19
235.115	80.19
235.349	75.19
235.583	79.19
235.817	75.19
236.051	75.19
236.285	73.19
236.519	86.19
236.753	94.19
236.987	70.19
237.221	71.19
237.455	96.19
237.689	80.19
237.922	81.19
238.156	75.19
238.39	65.19
238.624	70.19
238.858	71.19
239.091	74.19
239.325	71.19
239.559	90.19
239.793	92.19
240.027	77.19
240.26	67.19
240.494	80.19
240.728	75.19
240.961	70.19
241.195	82.19
241.429	71.19
241.662	70.19
241.896	77.19
242.13	71.19
242.363	85.19
242.597	78.19
242.83	84.19
243.064	86.19
243.298	85.19
243.531	81.19
243.765	75.19
243.998	86.19
244.232	73.19
244.465	84.19
244.699	76.19
244.932	70.19
245.166	75.19
245.399	79.19
245.633	73.19
245.866	91.19
246.099	76.19
246.333	67.19
246.566	80.19
246.8	64.19
247.033	94.19
247.266	76.19
247.5	78.19
247.733	77.19
247.966	77.19
248.2	95.19
248.433	77.19
248.666	82.19
248.899	80.19
249.133	77.19
249.366	97.19
249.599	99.19
249.832	85.19
250.066	89.19
250.299	84.19
250.532	84.19
250.765	85.19
250.998	80.19
251.231	70.19
251.465	80.19
251.698	75.19
251.931	87.19
252.164	77.19
252.397	90.19
252.63	65.19
252.863	92.19
253.096	79.19
253.329	65.19
253.562	82.19
253.795	79.19
254.028	77.19
254.261	69.19
254.494	73.19
254.727	74.19
254.96	80.19
255.193	80.19
255.426	80.19
255.659	75.19
255.892	76.19
256.124	91.19
256.357	85.19
256.59	71.19
256.823	84.19
257.056	79.19
257.289	67.19
257.521	93.19
257.754	77.19
257.987	87.19
258.22	81.19
258.452	91.19
258.685	84.19
258.918	70.19
259.151	64.19
259.383	92.19
259.616	85.19
259.849	86.19
260.081	83.19
260.314	87.19
260.547	75.19
260.779	75.19
261.012	94.19
261.244	73.19
261.477	72.19
261.71	89.19
261.942	102.19
262.175	107.19
262.407	90.19
262.64	84.19
262.872	81.19
263.105	98.19
263.337	77.19
263.57	75.19
263.802	89.19
264.035	82.19
264.267	74.19
264.499	72.19
264.732	78.19
264.964	91.19
265.197	79.19
265.429	90.19
265.661	81.19
265.894	81.19
266.126	86.19
266.358	89.19
266.591	83.19
266.823	77.19
267.055	81.19
267.287	83.19
267.52	71.19
267.752	79.19
267.984	94.19
268.216	90.19
268.448	79.19
268.681	89.19
268.913	88.19
269.145	88.19
269.377	79.19
269.609	74.19
269.841	80.19
270.073	79.19
270.306	86.19
270.538	87.19
270.77	85.19
271.002	68.19
271.234	78.19
271.466	95.19
271.698	90.19
271.93	83.19
272.162	88.19
272.394	83.19
272.626	87.19
272.858	73.19
273.09	74.19
273.322	83.19
273.553	85.19
273.785	69.19
274.017	80.19
274.249	91.19
274.481	93.19
274.713	78.19
274.945	91.19
275.176	78.19
275.408	87.19
275.64	94.19
275.872	88.19
276.104	83.19
276.335	79.19
276.567	99.19
276.799	90.19
277.031	88.19
277.262	98.19
277.494	92.19
277.726	83.19
277.957	72.19
278.189	82.19
278.421	79.19
278.652	72.19
278.884	87.19
279.115	72.19
279.347	88.19
279.579	83.19
279.81	87.19
280.042	101.19
280.273	87.19
280.505	89.19
280.736	83.19
280.968	84.19
281.199	88.19
281.431	81.19
281.662	83.19
281.894	88.19
282.125	94.19
282.356	115.19
282.588	128.19
282.819	117.19
283.051	81.19
283.282	96.19
283.513	89.19
283.745	88.19
283.976	84.19
284.207	92.19
284.439	80.19
284.67	83.19
284.901	90.19
285.132	86.19
285.364	77.19
285.595	84.19
285.826	79.19
286.057	95.19
286.288	99.19
286.52	95.19
286.751	93.19
286.982	80.19
287.213	87.19
287.444	72.19
287.675	106.19
287.906	104.19
288.138	102.19
288.369	77.19
288.6	87.19
288.831	82.19
289.062	81.19
289.293	93.19
289.524	98.19
289.755	78.19
289.986	91.19
290.217	82.19
290.448	77.19
290.679	83.19
290.91	79.19
291.141	76.19
291.371	95.19
291.602	89.19
291.833	84.19
292.064	83.19
292.295	70.19
292.526	81.19
292.757	93.19
292.987	90.19
293.218	97.19
293.449	88.19
293.68	87.19
293.91	102.19
294.141	93.19
294.372	87.19
294.603	69.19
294.833	93.19
295.064	77.19
295.295	86.19
295.525	90.19
295.756	106.19
295.987	122.19
296.217	148.19
296.448	110.19
296.679	104.19
296.909	109.19
297.14	84.19
297.37	100.19
297.601	101.19
297.831	93.19
298.062	87.19
298.292	87.19
298.523	75.19
298.753	87.19
298.984	82.19
299.214	92.19
299.445	89.19
299.675	93.19
299.905	79.19
300.136	96.19
300.366	101.19
300.597	92.19
300.827	79.19
301.057	95.19
301.288	99.19
301.518	78.19
301.748	74.19
301.979	86.19
302.209	85.19
302.439	90.19
302.669	84.19
302.9	76.19
303.13	95.19
303.36	88.19
303.59	106.19
303.82	98.19
304.051	88.19
304.281	93.19
304.511	79.19
304.741	98.19
304.971	93.19
305.201	87.19
305.431	83.19
305.661	92.19
305.891	97.19
306.121	107.19
306.352	100.19
306.582	102.19
306.812	91.19
307.042	98.19
307.272	95.19
307.502	95.19
307.731	89.19
307.961	82.19
308.191	89.19
308.421	72.19
308.651	89.19
308.881	90.19
309.111	114.19
309.341	101.19
309.571	93.19
309.8	94.19
310.03	94.19
310.26	87.19
310.49	94.19
310.72	104.19
310.949	111.19
311.179	91.19
311.409	92.19
311.639	104.19
311.868	99.19
312.098	100.19
312.328	111.19
312.557	94.19
312.787	106.19
313.017	96.19
313.246	90.19
313.476	88.19
313.706	83.19
313.935	92.19
314.165	103.19
314.394	102.19
314.624	106.19
314.853	97.19
315.083	96.19
315.312	104.19
315.542	86.19
315.771	94.19
316.001	94.19
316.23	101.19
316.46	91.19
316.689	80.19
316.919	85.19
317.148	104.19
317.377	102.19
317.607	86.19
317.836	90.19
318.065	102.19
318.295	88.19
318.524	94.19
318.753	78.19
318.983	93.19
319.212	99.19
319.441	101.19
319.67	111.19
319.9	89.19
320.129	90.19
320.358	92.19
320.587	95.19
320.816	96.19
321.046	102.19
321.275	98.19
321.504	99.19
321.733	87.19
321.962	87.19
322.191	106.19
322.42	117.19
322.649	107.19
322.878	110.19
323.108	105.19
323.337	113.19
323.566	142.19
323.795	153.19
324.024	205.19
324.253	396.19
324.482	820.19
324.71	1597.19
324.939	2122.19
325.168	794.19
325.397	239.19
325.626	140.19
325.855	132.19
326.084	125.19
326.313	130.19
326.542	150.19
326.77	231.19
326.999	450.19
327.228	911.19
327.457	1648.19
327.686	1311.19
327.914	365.19
328.143	193.19
328.372	157.19
328.6	121.19
328.829	128.19
329.058	108.19
329.287	115.19
329.515	106.19
329.744	119.19
329.972	120.19
330.201	148.19
330.43	156.19
330.658	132.19
330.887	140.19
331.115	124.19
331.344	101.19
331.572	114.19
331.801	91.19
332.03	102.19
332.258	102.19
332.486	89.19
332.715	108.19
332.943	84.19
333.172	93.19
333.4	91.19
333.629	84.19
333.857	118.19
334.085	114.19
334.314	145.19
334.542	198.19
334.771	173.19
334.999	110.19
335.227	117.19
335.455	100.19
335.684	103.19
335.912	91.19
336.14	89.19
336.369	94.19
336.597	99.19
336.825	94.19
337.053	93.19
337.281	82.19
337.51	99.19
337.738	92.19
337.966	94.19
338.194	84.19
338.422	87.19
338.65	89.19
338.878	91.19
339.106	98.19
339.334	91.19
339.562	84.19
339.79	85.19
340.018	95.19
340.246	92.19
340.474	81.19
340.702	104.19
340.93	101.19
341.158	94.19
341.386	92.19
341.614	97.19
341.842	99.19
342.07	92.19
342.298	98.19
342.526	78.19
342.754	87.19
342.981	85.19
343.209	93.19
343.437	106.19
343.665	88.19
343.893	85.19
344.12	94.19
344.348	84.19
344.576	85.19
344.804	86.19
345.031	105.19
345.259	98.19
345.487	95.19
345.714	96.19
345.942	83.19
346.17	84.19
346.397	91.19
346.625	93.19
346.853	101.19
347.08	91.19
347.308	97.19
347.535	92.19
347.763	106.19
347.99	97.19
348.218	79.19
348.445	111.19
348.673	105.19
348.9	98.19
349.128	88.19
349.355	96.19
349.583	88.19
349.81	92.19
350.037	100.19
350.265	104.19
350.492	93.19
350.72	95.19
350.947	99.19
351.174	102.19
351.402	105.19
351.629	110.19
351.856	107.19
352.083	114.19
352.311	100.19
352.538	111.19
352.765	106.19
352.992	105.19
353.22	111.19
353.447	99.19
353.674	86.19
353.901	76.19
354.128	100.19
354.355	100.19
354.583	98.19
354.81	87.19
355.037	102.19
355.264	92.19
355.491	86.19
355.718	82.19
355.945	99.19
356.172	93.19
356.399	101.19
356.626	84.19
356.853	91.19
357.08	90.19
357.307	91.19
357.534	85.19
357.761	72.19
357.988	105.19
358.215	109.19
358.441	107.19
358.668	102.19
358.895	103.19
359.122	84.19
359.349	85.19
359.576	93.19
359.802	89.19
360.029	86.19
360.256	95.19
360.483	87.19
360.709	95.19
360.936	91.19
361.163	87.19
361.39	89.19
361.616	103.19
361.843	83.19
362.07	91.19
362.296	97.19
362.523	92.19
362.749	89.19
362.976	89.19
363.203	87.19
363.429	88.19
363.656	96.19
363.882	82.19
364.109	83.19
364.335	78.19
364.562	97.19
364.788	90.19
365.015	78.19
365.241	100.19
365.468	108.19
365.694	106.19
365.92	96.19
366.147	84.19
366.373	84.19
366.599	103.19
366.826	92.19
367.052	91.19
367.278	95.19
367.505	87.19
367.731	94.19
367.957	89.19
368.184	78.19
368.41	91.19
368.636	106.19
368.862	94.19
369.089	79.19
369.315	87.19
369.541	95.19
369.767	86.19
369.993	92.19
370.219	77.19
370.445	90.19
370.672	90.19
370.898	106.19
371.124	94.19
371.35	74.19
371.576	93.19
371.802	84.19
372.028	88.19
372.254	91.19
372.48	98.19
372.706	84.19
372.932	78.19
373.158	92.19
373.384	91.19
373.61	96.19
373.835	91.19
374.061	97.19
374.287	88.19
374.513	98.19
374.739	82.19
374.965	86.19
375.191	75.19
375.416	92.19
375.642	90.19
375.868	96.19
376.094	84.19
376.319	86.19
376.545	99.19
376.771	89.19
376.997	71.19
377.222	86.19
377.448	84.19
377.674	81.19
377.899	88.19
378.125	108.19
378.35	97.19
378.576	98.19
378.802	92.19
379.027	98.19
379.253	83.19
379.478	98.19
379.704	86.19
379.929	102.19
380.155	67.19
380.38	80.19
380.606	109.19
380.831	96.19
381.057	94.19
381.282	107.19
381.507	95.19
381.733	75.19
381.958	97.19
382.184	102.19
382.409	103.19
382.634	103.19
382.86	100.19
383.085	93.19
383.31	92.19
383.535	100.19
383.761	94.19
383.986	102.19
384.211	106.19
384.436	99.19
384.662	104.19
384.887	104.19
385.112	113.19
385.337	99.19
385.562	99.19
385.787	99.19
386.013	118.19
386.238	110.19
386.463	110.19
386.688	115.19
386.913	113.19
387.138	105.19
387.363	98.19
387.588	102.19
387.813	106.19
388.038	114.19
388.263	132.19
388.488	112.19
388.713	99.19
388.938	88.19
389.163	88.19
389.387	108.19
389.612	95.19
389.837	80.19
390.062	93.19
390.287	91.19
390.512	92.19
390.736	89.19
390.961	87.19
391.186	78.19
391.411	81.19
391.636	96.19
391.86	80.19
392.085	97.19
392.31	91.19
392.534	84.19
392.759	83.19
392.984	93.19
393.208	86.19
393.433	109.19
393.658	127.19
393.882	80.19
394.107	86.19
394.331	99.19
394.556	86.19
394.78	79.19
395.005	87.19
395.229	88.19
395.454	87.19
395.678	100.19
395.903	88.19
396.127	83.19
396.352	72.19
396.576	95.19
396.801	92.19
397.025	95.19
397.249	89.19
397.474	103.19
397.698	87.19
397.922	83.19
398.147	87.19
398.371	86.19
398.595	92.19
398.82	94.19
399.044	87.19
399.268	79.19
399.492	93.19
399.717	85.19
399.941	84.19
400.165	95.19
400.389	94.19
400.613	86.19
400.837	93.19
401.062	78.19
401.286	73.19
401.51	91.19
401.734	87.19
401.958	101.19
402.182	130.19
402.406	153.19
402.63	125.19
402.854	95.19
403.078	86.19
403.302	84.19
403.526	77.19
403.75	91.19
403.974	80.19
404.198	99.19
404.422	89.19
404.645	94.19
404.869	89.19
405.093	101.19
405.317	121.19
405.541	91.19
405.765	96.19
405.988	108.19
406.212	158.19
406.436	214.19
406.66	144.19
406.883	91.19
407.107	89.19
407.331	84.19
407.555	106.19
407.778	93.19
408.002	93.19
408.226	94.19
408.449	69.19
408.673	84.19
408.896	88.19
409.12	99.19
409.344	85.19
409.567	92.19
409.791	84.19
410.014	83.19
410.238	107.19
410.461	92.19
410.685	102.19
410.908	105.19
411.132	103.19
411.355	98.19
411.578	85.19
411.802	95.19
412.025	92.19
412.249	80.19
412.472	95.19
412.695	100.19
412.919	80.19
413.142	89.19
413.365	74.19
413.589	87.19
413.812	92.19
414.035	84.19
414.258	107.19
414.482	99.19
414.705	98.19
414.928	84.19
415.151	86.19
415.374	112.19
415.597	91.19
415.821	87.19
416.044	95.19
416.267	79.19
416.49	81.19
416.713	82.19
416.936	92.19
417.159	84.19
417.382	74.19
417.605	89.19
417.828	103.19
418.051	95.19
418.274	93.19
418.497	85.19
418.72	94.19
418.943	65.19
419.166	88.19
419.389	94.19
419.611	87.19
419.834	95.19
420.057	99.19
420.28	85.19
420.503	78.19
420.726	85.19
420.948	84.19
421.171	84.19
421.394	94.19
421.617	90.19
421.839	84.19
422.062	93.19
422.285	76.19
422.507	91.19
422.73	116.19
422.953	107.19
423.175	91.19
423.398	99.19
423.621	89.19
423.843	80.19
424.066	90.19
424.288	93.19
424.511	90.19
424.733	87.19
424.956	109.19
425.178	96.19
425.401	99.19
425.623	88.19
425.846	99.19
426.068	95.19
426.291	94.19
426.513	94.19
426.735	70.19
426.958	103.19
427.18	108.19
427.402	132.19
427.625	143.19
427.847	135.19
428.069	115.19
428.292	87.19
428.514	87.19
428.736	88.19
428.958	77.19
429.181	79.19
429.403	90.19
429.625	86.19
429.847	82.19
430.069	89.19
430.292	96.19
430.514	82.19
430.736	98.19
430.958	75.19
431.18	76.19
431.402	93.19
431.624	89.19
431.846	89.19
432.068	89.19
432.29	102.19
432.512	85.19
432.734	89.19
432.956	97.19
433.178	118.19
433.4	87.19
433.622	86.19
433.844	83.19
434.066	93.19
434.287	87.19
434.509	93.19
434.731	94.19
434.953	87.19
435.175	80.19
435.397	105.19
435.618	99.19
435.84	101.19
436.062	134.19
436.284	107.19
436.505	96.19
436.727	99.19
436.949	89.19
437.17	80.19
437.392	88.19
437.614	89.19
437.835	114.19
438.057	102.19
438.278	105.19
438.5	96.19
438.721	96.19
438.943	108.19
439.165	90.19
439.386	82.19
439.608	100.19
439.829	110.19
440.05	138.19
440.272	143.19
440.493	99.19
440.715	88.19
440.936	93.19
441.158	86.19
441.379	72.19
441.6	80.19
441.822	100.19
442.043	94.19
442.264	96.19
442.486	99.19
442.707	90.19
442.928	96.19
443.149	117.19
443.371	123.19
443.592	102.19
443.813	111.19
444.034	104.19
444.255	90.19
444.476	72.19
444.698	80.19
444.919	67.19
445.14	111.19
445.361	112.19
445.582	122.19
445.803	126.19
446.024	122.19
446.245	117.19
446.466	105.19
446.687	71.19
446.908	94.19
447.129	82.19
447.35	90.19
447.571	81.19
447.792	90.19
448.013	78.19
448.234	98.19
448.455	109.19
448.675	110.19
448.896	121.19
449.117	102.19
449.338	117.19
449.559	119.19
449.779	112.19
450	85.19
450.221	78.19
450.442	92.19
450.662	104.19
450.883	117.19
451.104	120.19
451.324	99.19
451.545	89.19
451.766	94.19
451.986	89.19
452.207	87.19
452.428	83.19
452.648	100.19
452.869	93.19
453.089	114.19
453.31	106.19
453.53	92.19
453.751	97.19
453.971	100.19
454.192	97.19
454.412	91.19
454.633	90.19
454.853	80.19
455.073	87.19
455.294	92.19
455.514	88.19
455.734	94.19
455.955	93.19
456.175	73.19
456.395	87.19
456.616	94.19
456.836	72.19
457.056	95.19
457.276	88.19
457.497	92.19
457.717	94.19
457.937	95.19
458.157	89.19
458.377	95.19
458.598	103.19
458.818	143.19
459.038	138.19
459.258	117.19
459.478	99.19
459.698	90.19
459.918	99.19
460.138	80.19
460.358	83.19
460.578	83.19
460.798	94.19
461.018	95.19
461.238	74.19
461.458	80.19
461.678	71.19
461.898	81.19
462.118	87.19
462.338	95.19
462.558	93.19
462.777	92.19
462.997	79.19
463.217	74.19
463.437	82.19
463.657	91.19
463.876	93.19
464.096	91.19
464.316	90.19
464.536	76.19
464.755	88.19
464.975	99.19
465.195	149.19
465.414	140.19
465.634	85.19
465.854	84.19
466.073	88.19
466.293	89.19
466.512	79.19
466.732	90.19
466.951	98.19
467.171	82.19
467.391	99.19
467.61	93.19
467.829	106.19
468.049	103.19
468.268	121.19
468.488	80.19
468.707	94.19
468.927	83.19
469.146	72.19
469.365	90.19
469.585	94.19
469.804	106.19
470.023	101.19
470.243	88.19
470.462	90.19
470.681	111.19
470.901	76.19
471.12	92.19
471.339	87.19
471.558	102.19
471.777	88.19
471.997	106.19
472.216	156.19
472.435	222.19
472.654	114.19
472.873	89.19
473.092	86.19
473.311	96.19
473.53	77.19
473.749	87.19
473.968	85.19
474.187	106.19
474.406	80.19
474.625	76.19
474.844	85.19
475.063	78.19
475.282	72.19
475.501	83.19
475.72	82.19
475.939	90.19
476.158	83.19
476.377	79.19
476.596	86.19
476.814	96.19
477.033	97.19
477.252	93.19
477.471	78.19
477.69	93.19
477.908	92.19
478.127	81.19
478.346	86.19
478.564	83.19
478.783	88.19
479.002	76.19
479.22	105.19
479.439	106.19
479.658	95.19
479.876	87.19
480.095	87.19
480.313	99.19
480.532	86.19
480.751	110.19
480.969	154.19
481.188	327.19
481.406	234.19
481.624	99.19
481.843	89.19
482.061	88.19
482.28	82.19
482.498	85.19
482.717	92.19
482.935	98.19
483.153	108.19
483.372	89.19
483.59	91.19
483.808	87.19
484.027	88.19
484.245	87.19
484.463	98.19
484.681	106.19
484.9	85.19
485.118	86.19
485.336	74.19
485.554	85.19
485.772	93.19
485.99	105.19
486.209	104.19
486.427	116.19
486.645	106.19
486.863	117.19
487.081	111.19
487.299	96.19
487.517	99.19
487.735	94.19
487.953	86.19
488.171	76.19
488.389	82.19
488.607	83.19
488.825	90.19
489.043	85.19
489.261	75.19
489.479	88.19
489.696	93.19
489.914	95.19
490.132	108.19
490.35	72.19
490.568	89.19
490.786	90.19
491.003	89.19
491.221	103.19
491.439	84.19
491.657	94.19
491.874	77.19
492.092	99.19
492.31	87.19
492.527	98.19
492.745	95.19
492.963	92.19
493.18	90.19
493.398	85.19
493.615	81.19
493.833	94.19
494.05	80.19
494.268	83.19
494.485	93.19
494.703	88.19
494.92	96.19
495.138	83.19
495.355	94.19
495.573	91.19
495.79	93.19
496.008	74.19
496.225	96.19
496.442	90.19
496.66	100.19
496.877	86.19
497.094	86.19
497.312	81.19
497.529	99.19
497.746	88.19
497.963	88.19
498.181	91.19
498.398	88.19
498.615	98.19
498.832	108.19
499.049	96.19
499.267	84.19
499.484	99.19
499.701	86.19
499.918	85.19
500.135	94.19
500.352	94.19
500.569	83.19
500.786	96.19
501.003	86.19
501.22	85.19
501.437	78.19
501.654	102.19
501.871	107.19
502.088	77.19
502.305	85.19
502.522	86.19
502.739	94.19
502.956	85.19
503.172	87.19
503.389	77.19
503.606	98.19
503.823	92.19
504.04	92.19
504.256	96.19
504.473	88.19
504.69	89.19
504.907	90.19
505.123	86.19
505.34	87.19
505.557	82.19
505.773	82.19
505.99	91.19
506.207	92.19
506.423	89.19
506.64	96.19
506.856	95.19
507.073	79.19
507.289	95.19
507.506	90.19
507.722	100.19
507.939	112.19
508.155	85.19
508.372	83.19
508.588	86.19
508.805	101.19
509.021	91.19
509.238	97.19
509.454	99.19
509.67	109.19
509.887	105.19
510.103	116.19
510.319	203.19
510.536	680.19
510.752	2235.19
510.968	631.19
511.184	158.19
511.401	112.19
511.617	102.19
511.833	92.19
512.049	98.19
512.265	91.19
512.481	84.19
512.698	96.19
512.914	91.19
513.13	91.19
513.346	86.19
513.562	95.19
513.778	94.19
513.994	99.19
514.21	101.19
514.426	104.19
514.642	116.19
514.858	116.19
515.074	175.19
515.29	426.19
515.506	1338.19
515.721	519.19
515.937	149.19
