Data from Circ_2010_H10_HRD10591_00010.txt Node
Date: Wed Jan 03 10:09:43 EST 2024
User: Yrep
Spectrometer: HR+D1059
Trigger mode: 1
Integration Time (sec): 1.000000E-1
Scans to average: 1
Electric dark correction enabled: true
Nonlinearity correction enabled: false
Boxcar width: 0
XAxis mode: Wavelengths
Number of Pixels in Spectrum: 2048
>>>>>Begin Spectral Data<<<<<
223.165	-16.5
223.4	-16.5
223.635	-16.5
223.869	-14.5
224.104	-24.5
224.338	-15.5
224.573	-12.5
224.808	-7.5
225.042	-9.5
225.277	-0.5
225.511	2.5
225.746	6.5
225.98	6.5
226.215	8.5
226.449	12.5
226.683	19.5
226.918	17.5
227.152	27.5
227.387	45.5
227.621	45.5
227.856	61.5
228.09	49.5
228.324	58.5
228.559	59.5
228.793	67.5
229.027	70.5
229.262	61.5
229.496	56.5
229.73	85.5
229.964	86.5
230.199	75.5
230.433	70.5
230.667	85.5
230.901	70.5
231.136	75.5
231.37	89.5
231.604	84.5
231.838	71.5
232.072	78.5
232.306	87.5
232.541	102.5
232.775	82.5
233.009	76.5
233.243	87.5
233.477	95.5
233.711	87.5
233.945	78.5
234.179	82.5
234.413	70.5
234.647	77.5
234.881	91.5
235.115	82.5
235.349	67.5
235.583	77.5
235.817	84.5
236.051	68.5
236.285	77.5
236.519	75.5
236.753	79.5
236.987	87.5
237.221	81.5
237.455	78.5
237.689	89.5
237.922	80.5
238.156	70.5
238.39	92.5
238.624	66.5
238.858	86.5
239.091	67.5
239.325	81.5
239.559	78.5
239.793	84.5
240.027	72.5
240.26	78.5
240.494	67.5
240.728	82.5
240.961	87.5
241.195	73.5
241.429	77.5
241.662	73.5
241.896	79.5
242.13	96.5
242.363	73.5
242.597	74.5
242.83	87.5
243.064	86.5
243.298	82.5
243.531	90.5
243.765	78.5
243.998	76.5
244.232	98.5
244.465	89.5
244.699	74.5
244.932	71.5
245.166	95.5
245.399	82.5
245.633	85.5
245.866	89.5
246.099	72.5
246.333	83.5
246.566	84.5
246.8	92.5
247.033	73.5
247.266	70.5
247.5	87.5
247.733	78.5
247.966	95.5
248.2	77.5
248.433	88.5
248.666	66.5
248.899	82.5
249.133	84.5
249.366	90.5
249.599	99.5
249.832	85.5
250.066	91.5
250.299	79.5
250.532	80.5
250.765	98.5
250.998	92.5
251.231	76.5
251.465	95.5
251.698	85.5
251.931	72.5
252.164	78.5
252.397	75.5
252.63	84.5
252.863	88.5
253.096	82.5
253.329	78.5
253.562	90.5
253.795	83.5
254.028	77.5
254.261	78.5
254.494	75.5
254.727	69.5
254.96	90.5
255.193	84.5
255.426	86.5
255.659	78.5
255.892	94.5
256.124	78.5
256.357	87.5
256.59	84.5
256.823	78.5
257.056	83.5
257.289	84.5
257.521	72.5
257.754	72.5
257.987	76.5
258.22	80.5
258.452	78.5
258.685	77.5
258.918	92.5
259.151	66.5
259.383	78.5
259.616	78.5
259.849	82.5
260.081	70.5
260.314	84.5
260.547	80.5
260.779	79.5
261.012	86.5
261.244	96.5
261.477	91.5
261.71	116.5
261.942	117.5
262.175	137.5
262.407	82.5
262.64	84.5
262.872	84.5
263.105	96.5
263.337	74.5
263.57	95.5
263.802	88.5
264.035	85.5
264.267	87.5
264.499	84.5
264.732	71.5
264.964	92.5
265.197	89.5
265.429	84.5
265.661	89.5
265.894	80.5
266.126	90.5
266.358	68.5
266.591	76.5
266.823	88.5
267.055	82.5
267.287	82.5
267.52	94.5
267.752	103.5
267.984	96.5
268.216	95.5
268.448	99.5
268.681	83.5
268.913	88.5
269.145	83.5
269.377	86.5
269.609	86.5
269.841	92.5
270.073	80.5
270.306	79.5
270.538	89.5
270.77	89.5
271.002	78.5
271.234	81.5
271.466	78.5
271.698	93.5
271.93	95.5
272.162	97.5
272.394	81.5
272.626	88.5
272.858	77.5
273.09	82.5
273.322	77.5
273.553	103.5
273.785	93.5
274.017	78.5
274.249	91.5
274.481	87.5
274.713	83.5
274.945	95.5
275.176	89.5
275.408	77.5
275.64	86.5
275.872	97.5
276.104	91.5
276.335	90.5
276.567	118.5
276.799	144.5
277.031	104.5
277.262	82.5
277.494	92.5
277.726	88.5
277.957	94.5
278.189	85.5
278.421	80.5
278.652	74.5
278.884	78.5
279.115	84.5
279.347	102.5
279.579	91.5
279.81	98.5
280.042	115.5
280.273	96.5
280.505	100.5
280.736	96.5
280.968	103.5
281.199	95.5
281.431	93.5
281.662	98.5
281.894	102.5
282.125	108.5
282.356	152.5
282.588	163.5
282.819	120.5
283.051	104.5
283.282	81.5
283.513	88.5
283.745	88.5
283.976	93.5
284.207	102.5
284.439	96.5
284.67	84.5
284.901	100.5
285.132	102.5
285.364	92.5
285.595	103.5
285.826	87.5
286.057	89.5
286.288	103.5
286.52	84.5
286.751	87.5
286.982	89.5
287.213	85.5
287.444	96.5
287.675	88.5
287.906	88.5
288.138	90.5
288.369	96.5
288.6	89.5
288.831	89.5
289.062	89.5
289.293	95.5
289.524	83.5
289.755	93.5
289.986	97.5
290.217	90.5
290.448	92.5
290.679	89.5
290.91	100.5
291.141	96.5
291.371	95.5
291.602	85.5
291.833	80.5
292.064	75.5
292.295	104.5
292.526	78.5
292.757	84.5
292.987	91.5
293.218	89.5
293.449	81.5
293.68	90.5
293.91	88.5
294.141	94.5
294.372	79.5
294.603	81.5
294.833	92.5
295.064	81.5
295.295	89.5
295.525	108.5
295.756	113.5
295.987	135.5
296.217	173.5
296.448	155.5
296.679	110.5
296.909	94.5
297.14	85.5
297.37	80.5
297.601	88.5
297.831	84.5
298.062	92.5
298.292	89.5
298.523	86.5
298.753	92.5
298.984	81.5
299.214	90.5
299.445	98.5
299.675	104.5
299.905	101.5
300.136	88.5
300.366	90.5
300.597	81.5
300.827	97.5
301.057	111.5
301.288	128.5
301.518	111.5
301.748	99.5
301.979	119.5
302.209	102.5
302.439	86.5
302.669	92.5
302.9	98.5
303.13	112.5
303.36	87.5
303.59	109.5
303.82	124.5
304.051	105.5
304.281	98.5
304.511	73.5
304.741	83.5
304.971	95.5
305.201	92.5
305.431	87.5
305.661	95.5
305.891	90.5
306.121	95.5
306.352	109.5
306.582	110.5
306.812	100.5
307.042	100.5
307.272	98.5
307.502	110.5
307.731	104.5
307.961	95.5
308.191	99.5
308.421	90.5
308.651	77.5
308.881	90.5
309.111	101.5
309.341	104.5
309.571	106.5
309.8	112.5
310.03	98.5
310.26	116.5
310.49	92.5
310.72	92.5
310.949	108.5
311.179	92.5
311.409	94.5
311.639	96.5
311.868	109.5
312.098	95.5
312.328	98.5
312.557	117.5
312.787	109.5
313.017	91.5
313.246	89.5
313.476	99.5
313.706	90.5
313.935	113.5
314.165	95.5
314.394	100.5
314.624	102.5
314.853	96.5
315.083	99.5
315.312	94.5
315.542	99.5
315.771	91.5
316.001	88.5
316.23	89.5
316.46	90.5
316.689	99.5
316.919	95.5
317.148	101.5
317.377	90.5
317.607	96.5
317.836	90.5
318.065	101.5
318.295	106.5
318.524	88.5
318.753	97.5
318.983	108.5
319.212	99.5
319.441	115.5
319.67	136.5
319.9	93.5
320.129	98.5
320.358	97.5
320.587	105.5
320.816	109.5
321.046	108.5
321.275	98.5
321.504	86.5
321.733	88.5
321.962	90.5
322.191	99.5
322.42	115.5
322.649	128.5
322.878	122.5
323.108	114.5
323.337	134.5
323.566	145.5
323.795	165.5
324.024	230.5
324.253	439.5
324.482	892.5
324.71	1730.5
324.939	2090.5
325.168	860.5
325.397	268.5
325.626	158.5
325.855	138.5
326.084	139.5
326.313	128.5
326.542	163.5
326.77	264.5
326.999	462.5
327.228	906.5
327.457	1529.5
327.686	1215.5
327.914	404.5
328.143	264.5
328.372	217.5
328.6	171.5
328.829	138.5
329.058	153.5
329.287	137.5
329.515	114.5
329.744	116.5
329.972	125.5
330.201	180.5
330.43	215.5
330.658	168.5
330.887	177.5
331.115	151.5
331.344	111.5
331.572	115.5
331.801	141.5
332.03	116.5
332.258	96.5
332.486	104.5
332.715	87.5
332.943	95.5
333.172	105.5
333.4	121.5
333.629	128.5
333.857	154.5
334.085	127.5
334.314	181.5
334.542	226.5
334.771	212.5
334.999	123.5
335.227	103.5
335.455	96.5
335.684	102.5
335.912	115.5
336.14	115.5
336.369	97.5
336.597	101.5
336.825	111.5
337.053	92.5
337.281	102.5
337.51	98.5
337.738	94.5
337.966	98.5
338.194	104.5
338.422	111.5
338.65	98.5
338.878	106.5
339.106	89.5
339.334	96.5
339.562	86.5
339.79	83.5
340.018	95.5
340.246	96.5
340.474	101.5
340.702	98.5
340.93	98.5
341.158	96.5
341.386	110.5
341.614	104.5
341.842	92.5
342.07	94.5
342.298	93.5
342.526	97.5
342.754	90.5
342.981	97.5
343.209	83.5
343.437	90.5
343.665	85.5
343.893	86.5
344.12	109.5
344.348	96.5
344.576	78.5
344.804	113.5
345.031	116.5
345.259	102.5
345.487	108.5
345.714	109.5
345.942	106.5
346.17	89.5
346.397	87.5
346.625	97.5
346.853	97.5
347.08	95.5
347.308	91.5
347.535	94.5
347.763	106.5
347.99	90.5
348.218	106.5
348.445	109.5
348.673	106.5
348.9	102.5
349.128	107.5
349.355	99.5
349.583	96.5
349.81	79.5
350.037	105.5
350.265	98.5
350.492	94.5
350.72	85.5
350.947	104.5
351.174	110.5
351.402	124.5
351.629	102.5
351.856	105.5
352.083	107.5
352.311	120.5
352.538	121.5
352.765	104.5
352.992	108.5
353.22	131.5
353.447	92.5
353.674	81.5
353.901	95.5
354.128	87.5
354.355	88.5
354.583	96.5
354.81	75.5
355.037	89.5
355.264	90.5
355.491	98.5
355.718	99.5
355.945	86.5
356.172	95.5
356.399	97.5
356.626	88.5
356.853	80.5
357.08	102.5
357.307	82.5
357.534	87.5
357.761	92.5
357.988	84.5
358.215	96.5
358.441	84.5
358.668	98.5
358.895	89.5
359.122	103.5
359.349	93.5
359.576	90.5
359.802	115.5
360.029	140.5
360.256	110.5
360.483	109.5
360.709	99.5
360.936	95.5
361.163	93.5
361.39	98.5
361.616	94.5
361.843	98.5
362.07	91.5
362.296	93.5
362.523	90.5
362.749	107.5
362.976	92.5
363.203	95.5
363.429	92.5
363.656	98.5
363.882	91.5
364.109	94.5
364.335	106.5
364.562	105.5
364.788	92.5
365.015	106.5
365.241	107.5
365.468	111.5
365.694	117.5
365.92	112.5
366.147	90.5
366.373	93.5
366.599	76.5
366.826	84.5
367.052	84.5
367.278	98.5
367.505	98.5
367.731	91.5
367.957	91.5
368.184	108.5
368.41	115.5
368.636	130.5
368.862	137.5
369.089	132.5
369.315	104.5
369.541	78.5
369.767	98.5
369.993	94.5
370.219	87.5
370.445	84.5
370.672	91.5
370.898	86.5
371.124	88.5
371.35	89.5
371.576	91.5
371.802	92.5
372.028	91.5
372.254	87.5
372.48	81.5
372.706	100.5
372.932	83.5
373.158	79.5
373.384	88.5
373.61	83.5
373.835	95.5
374.061	80.5
374.287	88.5
374.513	76.5
374.739	82.5
374.965	81.5
375.191	79.5
375.416	83.5
375.642	91.5
375.868	92.5
376.094	82.5
376.319	106.5
376.545	92.5
376.771	83.5
376.997	91.5
377.222	89.5
377.448	83.5
377.674	86.5
377.899	103.5
378.125	90.5
378.35	96.5
378.576	87.5
378.802	89.5
379.027	87.5
379.253	83.5
379.478	95.5
379.704	89.5
379.929	98.5
380.155	94.5
380.38	95.5
380.606	103.5
380.831	84.5
381.057	96.5
381.282	91.5
381.507	98.5
381.733	94.5
381.958	93.5
382.184	90.5
382.409	111.5
382.634	102.5
382.86	88.5
383.085	97.5
383.31	94.5
383.535	95.5
383.761	109.5
383.986	103.5
384.211	83.5
384.436	101.5
384.662	94.5
384.887	92.5
385.112	103.5
385.337	102.5
385.562	105.5
385.787	114.5
386.013	123.5
386.238	118.5
386.463	110.5
386.688	99.5
386.913	95.5
387.138	109.5
387.363	109.5
387.588	108.5
387.813	84.5
388.038	92.5
388.263	116.5
388.488	102.5
388.713	87.5
388.938	102.5
389.163	83.5
389.387	83.5
389.612	101.5
389.837	97.5
390.062	105.5
390.287	94.5
390.512	96.5
390.736	94.5
390.961	91.5
391.186	84.5
391.411	89.5
391.636	97.5
391.86	96.5
392.085	89.5
392.31	95.5
392.534	97.5
392.759	112.5
392.984	118.5
393.208	223.5
393.433	377.5
393.658	286.5
393.882	113.5
394.107	96.5
394.331	93.5
394.556	96.5
394.78	87.5
395.005	94.5
395.229	98.5
395.454	87.5
395.678	94.5
395.903	102.5
396.127	94.5
396.352	111.5
396.576	132.5
396.801	234.5
397.025	302.5
397.249	143.5
397.474	103.5
397.698	90.5
397.922	94.5
398.147	82.5
398.371	85.5
398.595	75.5
398.82	72.5
399.044	82.5
399.268	99.5
399.492	97.5
399.717	93.5
399.941	101.5
400.165	92.5
400.389	100.5
400.613	100.5
400.837	73.5
401.062	90.5
401.286	104.5
401.51	82.5
401.734	95.5
401.958	114.5
402.182	154.5
402.406	225.5
402.63	160.5
402.854	95.5
403.078	91.5
403.302	80.5
403.526	82.5
403.75	86.5
403.974	88.5
404.198	89.5
404.422	99.5
404.645	87.5
404.869	118.5
405.093	96.5
405.317	109.5
405.541	97.5
405.765	114.5
405.988	158.5
406.212	260.5
406.436	367.5
406.66	198.5
406.883	111.5
407.107	95.5
407.331	105.5
407.555	108.5
407.778	94.5
408.002	100.5
408.226	89.5
408.449	88.5
408.673	95.5
408.896	83.5
409.12	97.5
409.344	95.5
409.567	85.5
409.791	106.5
410.014	86.5
410.238	78.5
410.461	86.5
410.685	83.5
410.908	93.5
411.132	82.5
411.355	89.5
411.578	90.5
411.802	100.5
412.025	88.5
412.249	82.5
412.472	96.5
412.695	97.5
412.919	90.5
413.142	87.5
413.365	91.5
413.589	95.5
413.812	86.5
414.035	92.5
414.258	84.5
414.482	90.5
414.705	90.5
414.928	102.5
415.151	84.5
415.374	88.5
415.597	99.5
415.821	93.5
416.044	90.5
416.267	89.5
416.49	91.5
416.713	84.5
416.936	81.5
417.159	87.5
417.382	84.5
417.605	79.5
417.828	84.5
418.051	93.5
418.274	90.5
418.497	78.5
418.72	91.5
418.943	92.5
419.166	82.5
419.389	96.5
419.611	87.5
419.834	97.5
420.057	90.5
420.28	79.5
420.503	88.5
420.726	79.5
420.948	90.5
421.171	102.5
421.394	92.5
421.617	84.5
421.839	112.5
422.062	90.5
422.285	99.5
422.507	166.5
422.73	242.5
422.953	238.5
423.175	124.5
423.398	82.5
423.621	79.5
423.843	77.5
424.066	85.5
424.288	96.5
424.511	103.5
424.733	97.5
424.956	118.5
425.178	100.5
425.401	108.5
425.623	92.5
425.846	88.5
426.068	98.5
426.291	108.5
426.513	93.5
426.735	90.5
426.958	83.5
427.18	107.5
427.402	145.5
427.625	198.5
427.847	159.5
428.069	113.5
428.292	91.5
428.514	97.5
428.736	94.5
428.958	93.5
429.181	85.5
429.403	90.5
429.625	87.5
429.847	104.5
430.069	107.5
430.292	107.5
430.514	95.5
430.736	94.5
430.958	77.5
431.18	101.5
431.402	83.5
431.624	81.5
431.846	101.5
432.068	100.5
432.29	77.5
432.512	92.5
432.734	101.5
432.956	87.5
433.178	101.5
433.4	96.5
433.622	85.5
433.844	81.5
434.066	92.5
434.287	93.5
434.509	98.5
434.731	102.5
434.953	92.5
435.175	92.5
435.397	93.5
435.618	93.5
435.84	100.5
436.062	107.5
436.284	106.5
436.505	103.5
436.727	96.5
436.949	77.5
437.17	77.5
437.392	88.5
437.614	105.5
437.835	117.5
438.057	129.5
438.278	108.5
438.5	91.5
438.721	92.5
438.943	108.5
439.165	86.5
439.386	84.5
439.608	83.5
439.829	105.5
440.05	116.5
440.272	143.5
440.493	114.5
440.715	90.5
440.936	83.5
441.158	84.5
441.379	90.5
441.6	96.5
441.822	106.5
442.043	85.5
442.264	106.5
442.486	87.5
442.707	98.5
442.928	120.5
443.149	148.5
443.371	143.5
443.592	116.5
443.813	118.5
444.034	90.5
444.255	76.5
444.476	94.5
444.698	102.5
444.919	85.5
445.14	136.5
445.361	150.5
445.582	122.5
445.803	156.5
446.024	110.5
446.245	123.5
446.466	115.5
446.687	76.5
446.908	90.5
447.129	89.5
447.35	84.5
447.571	101.5
447.792	98.5
448.013	102.5
448.234	128.5
448.455	95.5
448.675	110.5
448.896	108.5
449.117	96.5
449.338	113.5
449.559	103.5
449.779	113.5
450	97.5
450.221	97.5
450.442	80.5
450.662	99.5
450.883	122.5
451.104	131.5
451.324	89.5
451.545	96.5
451.766	74.5
451.986	82.5
452.207	84.5
452.428	90.5
452.648	102.5
452.869	120.5
453.089	147.5
453.31	140.5
453.53	94.5
453.751	82.5
453.971	105.5
454.192	132.5
454.412	107.5
454.633	101.5
454.853	103.5
455.073	88.5
455.294	93.5
455.514	110.5
455.734	92.5
455.955	95.5
456.175	83.5
456.395	95.5
456.616	84.5
456.836	89.5
457.056	80.5
457.276	84.5
457.497	88.5
457.717	86.5
457.937	74.5
458.157	88.5
458.377	89.5
458.598	126.5
458.818	211.5
459.038	193.5
459.258	121.5
459.478	81.5
459.698	80.5
459.918	79.5
460.138	74.5
460.358	89.5
460.578	79.5
460.798	100.5
461.018	96.5
461.238	86.5
461.458	96.5
461.678	70.5
461.898	83.5
462.118	79.5
462.338	84.5
462.558	81.5
462.777	83.5
462.997	89.5
463.217	102.5
463.437	94.5
463.657	89.5
463.876	104.5
464.096	86.5
464.316	109.5
464.536	107.5
464.755	103.5
464.975	116.5
465.195	230.5
465.414	213.5
465.634	110.5
465.854	90.5
466.073	93.5
466.293	83.5
466.512	92.5
466.732	74.5
466.951	92.5
467.171	83.5
467.391	93.5
467.61	123.5
467.829	114.5
468.049	125.5
468.268	138.5
468.488	100.5
468.707	81.5
468.927	86.5
469.146	80.5
469.365	73.5
469.585	92.5
469.804	95.5
470.023	104.5
470.243	86.5
470.462	104.5
470.681	127.5
470.901	90.5
471.12	79.5
471.339	75.5
471.558	81.5
471.777	84.5
471.997	98.5
472.216	184.5
472.435	280.5
472.654	126.5
472.873	94.5
473.092	91.5
473.311	95.5
473.53	85.5
473.749	78.5
473.968	98.5
474.187	91.5
474.406	85.5
474.625	98.5
474.844	94.5
475.063	88.5
475.282	90.5
475.501	80.5
475.72	78.5
475.939	91.5
476.158	82.5
476.377	82.5
476.596	89.5
476.814	93.5
477.033	105.5
477.252	73.5
477.471	95.5
477.69	102.5
477.908	102.5
478.127	97.5
478.346	95.5
478.564	89.5
478.783	92.5
479.002	90.5
479.22	107.5
479.439	120.5
479.658	105.5
479.876	93.5
480.095	75.5
480.313	88.5
480.532	97.5
480.751	107.5
480.969	177.5
481.188	427.5
481.406	281.5
481.624	106.5
481.843	95.5
482.061	99.5
482.28	76.5
482.498	90.5
482.717	86.5
482.935	97.5
483.153	93.5
483.372	92.5
483.59	97.5
483.808	76.5
484.027	98.5
484.245	87.5
484.463	104.5
484.681	100.5
484.9	91.5
485.118	89.5
485.336	94.5
485.554	89.5
485.772	81.5
485.99	85.5
486.209	101.5
486.427	102.5
486.645	99.5
486.863	99.5
487.081	96.5
487.299	94.5
487.517	93.5
487.735	83.5
487.953	107.5
488.171	96.5
488.389	98.5
488.607	101.5
488.825	93.5
489.043	90.5
489.261	85.5
489.479	79.5
489.696	94.5
489.914	98.5
490.132	87.5
490.35	91.5
490.568	87.5
490.786	83.5
491.003	88.5
491.221	75.5
491.439	90.5
491.657	99.5
491.874	93.5
492.092	95.5
492.31	87.5
492.527	87.5
492.745	90.5
492.963	91.5
493.18	74.5
493.398	100.5
493.615	90.5
493.833	91.5
494.05	82.5
494.268	90.5
494.485	71.5
494.703	97.5
494.92	89.5
495.138	90.5
495.355	101.5
495.573	86.5
495.79	94.5
496.008	96.5
496.225	96.5
496.442	93.5
496.66	95.5
496.877	90.5
497.094	80.5
497.312	98.5
497.529	82.5
497.746	102.5
497.963	108.5
498.181	99.5
498.398	88.5
498.615	104.5
498.832	92.5
499.049	83.5
499.267	91.5
499.484	88.5
499.701	100.5
499.918	97.5
500.135	94.5
500.352	89.5
500.569	89.5
500.786	97.5
501.003	79.5
501.22	88.5
501.437	91.5
501.654	90.5
501.871	122.5
502.088	102.5
502.305	81.5
502.522	96.5
502.739	98.5
502.956	99.5
503.172	84.5
503.389	89.5
503.606	124.5
503.823	94.5
504.04	97.5
504.256	89.5
504.473	90.5
504.69	86.5
504.907	79.5
505.123	82.5
505.34	92.5
505.557	85.5
505.773	85.5
505.99	94.5
506.207	87.5
506.423	87.5
506.64	87.5
506.856	91.5
507.073	96.5
507.289	100.5
507.506	102.5
507.722	123.5
507.939	110.5
508.155	87.5
508.372	102.5
508.588	90.5
508.805	91.5
509.021	98.5
509.238	110.5
509.454	95.5
509.67	105.5
509.887	129.5
510.103	163.5
510.319	317.5
510.536	1291.5
510.752	4430.5
510.968	1144.5
511.184	237.5
511.401	154.5
511.617	106.5
511.833	83.5
512.049	94.5
512.265	87.5
512.481	106.5
512.698	101.5
512.914	97.5
513.13	95.5
513.346	101.5
513.562	110.5
513.778	104.5
513.994	104.5
514.21	112.5
514.426	137.5
514.642	154.5
514.858	172.5
515.074	258.5
515.29	871.5
515.506	3138.5
515.721	1055.5
515.937	217.5
516.153	122.5
516.369	88.5
516.585	96.5
516.801	104.5
517.016	97.5
517.232	91.5
517.448	103.5
517.664	85.5
517.879	91.5
518.095	91.5
518.311	88.5
518.527	96.5
518.742	104.5
518.958	100.5
519.173	96.5
519.389	98.5
519.605	83.5
519.82	99.5
520.036	116.5
520.251	156.5
520.467	137.5
520.682	124.5
520.898	125.5
521.113	134.5
521.329	192.5
521.544	329.5
521.76	1096.5
521.975	5022.5
522.19	3003.5
522.406	564.5
522.621	174.5
522.836	131.5
523.052	107.5
523.267	92.5
523.482	111.5
523.698	100.5
523.913	153.5
524.128	128.5
524.343	90.5
524.559	100.5
524.774	84.5
524.989	123.5
525.204	124.5
525.419	112.5
525.634	102.5
525.849	106.5
526.064	90.5
526.28	91.5
526.495	108.5
526.71	96.5
526.925	92.5
527.14	113.5
527.355	99.5
527.57	96.5
527.785	84.5
527.999	82.5
528.214	81.5
528.429	102.5
528.644	100.5
528.859	98.5
529.074	109.5
529.289	164.5
529.503	252.5
529.718	131.5
529.933	102.5
530.148	100.5
530.363	82.5
530.577	90.5
530.792	91.5
531.007	104.5
531.221	89.5
531.436	96.5
531.651	98.5
531.865	89.5
532.08	101.5
532.295	94.5
532.509	96.5
532.724	91.5
532.938	94.5
533.153	86.5
533.367	79.5
533.582	104.5
533.796	98.5
