Data from Circ_2010_H10_HRD10591_00028.txt Node
Date: Wed Jan 03 10:09:46 EST 2024
User: Yrep
Spectrometer: HR+D1059
Trigger mode: 1
Integration Time (sec): 1.000000E-1
Scans to average: 1
Electric dark correction enabled: true
Nonlinearity correction enabled: false
Boxcar width: 0
XAxis mode: Wavelengths
Number of Pixels in Spectrum: 2048
>>>>>Begin Spectral Data<<<<<
223.165	-11.38
223.4	-11.38
223.635	-11.38
223.869	-33.38
224.104	-13.38
224.338	-20.38
224.573	-10.38
224.808	-9.38
225.042	-16.38
225.277	1.62
225.511	-2.38
225.746	16.62
225.98	1.62
226.215	6.62
226.449	25.62
226.683	27.62
226.918	15.62
227.152	21.62
227.387	17.62
227.621	30.62
227.856	45.62
228.09	35.62
228.324	45.62
228.559	46.62
228.793	51.62
229.027	75.62
229.262	78.62
229.496	69.62
229.73	71.62
229.964	78.62
230.199	70.62
230.433	83.62
230.667	80.62
230.901	60.62
231.136	81.62
231.37	70.62
231.604	79.62
231.838	75.62
232.072	81.62
232.306	71.62
232.541	69.62
232.775	81.62
233.009	81.62
233.243	92.62
233.477	76.62
233.711	68.62
233.945	94.62
234.179	80.62
234.413	90.62
234.647	86.62
234.881	85.62
235.115	84.62
235.349	80.62
235.583	76.62
235.817	79.62
236.051	87.62
236.285	85.62
236.519	79.62
236.753	70.62
236.987	68.62
237.221	80.62
237.455	83.62
237.689	81.62
237.922	74.62
238.156	71.62
238.39	79.62
238.624	76.62
238.858	65.62
239.091	80.62
239.325	77.62
239.559	70.62
239.793	67.62
240.027	81.62
240.26	65.62
240.494	89.62
240.728	73.62
240.961	85.62
241.195	89.62
241.429	86.62
241.662	77.62
241.896	83.62
242.13	79.62
242.363	73.62
242.597	91.62
242.83	75.62
243.064	67.62
243.298	101.62
243.531	88.62
243.765	83.62
243.998	79.62
244.232	76.62
244.465	80.62
244.699	81.62
244.932	80.62
245.166	78.62
245.399	76.62
245.633	78.62
245.866	84.62
246.099	85.62
246.333	71.62
246.566	80.62
246.8	83.62
247.033	78.62
247.266	80.62
247.5	74.62
247.733	71.62
247.966	79.62
248.2	70.62
248.433	70.62
248.666	91.62
248.899	77.62
249.133	76.62
249.366	95.62
249.599	87.62
249.832	81.62
250.066	79.62
250.299	71.62
250.532	85.62
250.765	82.62
250.998	81.62
251.231	80.62
251.465	85.62
251.698	77.62
251.931	69.62
252.164	88.62
252.397	80.62
252.63	80.62
252.863	77.62
253.096	73.62
253.329	85.62
253.562	84.62
253.795	86.62
254.028	82.62
254.261	90.62
254.494	77.62
254.727	87.62
254.96	89.62
255.193	77.62
255.426	77.62
255.659	73.62
255.892	92.62
256.124	83.62
256.357	84.62
256.59	73.62
256.823	82.62
257.056	80.62
257.289	71.62
257.521	64.62
257.754	76.62
257.987	91.62
258.22	76.62
258.452	81.62
258.685	93.62
258.918	80.62
259.151	67.62
259.383	87.62
259.616	94.62
259.849	91.62
260.081	81.62
260.314	86.62
260.547	91.62
260.779	78.62
261.012	87.62
261.244	80.62
261.477	96.62
261.71	83.62
261.942	91.62
262.175	124.62
262.407	99.62
262.64	83.62
262.872	72.62
263.105	76.62
263.337	77.62
263.57	85.62
263.802	94.62
264.035	76.62
264.267	75.62
264.499	86.62
264.732	83.62
264.964	77.62
265.197	77.62
265.429	92.62
265.661	89.62
265.894	109.62
266.126	94.62
266.358	93.62
266.591	92.62
266.823	91.62
267.055	86.62
267.287	89.62
267.52	81.62
267.752	69.62
267.984	70.62
268.216	87.62
268.448	81.62
268.681	70.62
268.913	86.62
269.145	72.62
269.377	87.62
269.609	76.62
269.841	84.62
270.073	79.62
270.306	80.62
270.538	96.62
270.77	87.62
271.002	88.62
271.234	76.62
271.466	88.62
271.698	74.62
271.93	88.62
272.162	88.62
272.394	82.62
272.626	84.62
272.858	91.62
273.09	73.62
273.322	89.62
273.553	82.62
273.785	87.62
274.017	85.62
274.249	87.62
274.481	76.62
274.713	76.62
274.945	86.62
275.176	85.62
275.408	87.62
275.64	79.62
275.872	84.62
276.104	81.62
276.335	91.62
276.567	98.62
276.799	97.62
277.031	91.62
277.262	96.62
277.494	68.62
277.726	85.62
277.957	77.62
278.189	86.62
278.421	100.62
278.652	84.62
278.884	85.62
279.115	78.62
279.347	88.62
279.579	84.62
279.81	96.62
280.042	80.62
280.273	89.62
280.505	85.62
280.736	88.62
280.968	86.62
281.199	85.62
281.431	87.62
281.662	97.62
281.894	95.62
282.125	92.62
282.356	100.62
282.588	129.62
282.819	101.62
283.051	80.62
283.282	87.62
283.513	79.62
283.745	84.62
283.976	95.62
284.207	86.62
284.439	85.62
284.67	93.62
284.901	93.62
285.132	84.62
285.364	80.62
285.595	89.62
285.826	116.62
286.057	95.62
286.288	85.62
286.52	99.62
286.751	95.62
286.982	72.62
287.213	81.62
287.444	88.62
287.675	96.62
287.906	89.62
288.138	97.62
288.369	91.62
288.6	88.62
288.831	82.62
289.062	78.62
289.293	80.62
289.524	90.62
289.755	81.62
289.986	94.62
290.217	89.62
290.448	89.62
290.679	103.62
290.91	86.62
291.141	102.62
291.371	93.62
291.602	93.62
291.833	87.62
292.064	93.62
292.295	67.62
292.526	89.62
292.757	91.62
292.987	79.62
293.218	93.62
293.449	96.62
293.68	77.62
293.91	97.62
294.141	87.62
294.372	72.62
294.603	97.62
294.833	77.62
295.064	85.62
295.295	101.62
295.525	70.62
295.756	102.62
295.987	105.62
296.217	121.62
296.448	113.62
296.679	100.62
296.909	81.62
297.14	105.62
297.37	83.62
297.601	107.62
297.831	81.62
298.062	87.62
298.292	78.62
298.523	87.62
298.753	93.62
298.984	82.62
299.214	89.62
299.445	91.62
299.675	88.62
299.905	90.62
300.136	86.62
300.366	77.62
300.597	86.62
300.827	75.62
301.057	84.62
301.288	105.62
301.518	89.62
301.748	105.62
301.979	91.62
302.209	86.62
302.439	87.62
302.669	84.62
302.9	86.62
303.13	81.62
303.36	100.62
303.59	90.62
303.82	104.62
304.051	79.62
304.281	89.62
304.511	102.62
304.741	78.62
304.971	86.62
305.201	80.62
305.431	93.62
305.661	105.62
305.891	85.62
306.121	75.62
306.352	104.62
306.582	122.62
306.812	93.62
307.042	81.62
307.272	94.62
307.502	103.62
307.731	105.62
307.961	95.62
308.191	86.62
308.421	102.62
308.651	86.62
308.881	96.62
309.111	105.62
309.341	80.62
309.571	92.62
309.8	103.62
310.03	69.62
310.26	102.62
310.49	103.62
310.72	87.62
310.949	92.62
311.179	90.62
311.409	96.62
311.639	97.62
311.868	91.62
312.098	96.62
312.328	110.62
312.557	94.62
312.787	94.62
313.017	91.62
313.246	94.62
313.476	94.62
313.706	87.62
313.935	82.62
314.165	88.62
314.394	104.62
314.624	90.62
314.853	100.62
315.083	95.62
315.312	95.62
315.542	92.62
315.771	104.62
316.001	92.62
316.23	88.62
316.46	76.62
316.689	88.62
316.919	80.62
317.148	91.62
317.377	106.62
317.607	104.62
317.836	83.62
318.065	87.62
318.295	92.62
318.524	91.62
318.753	97.62
318.983	99.62
319.212	96.62
319.441	81.62
319.67	97.62
319.9	104.62
320.129	76.62
320.358	91.62
320.587	92.62
320.816	78.62
321.046	84.62
321.275	85.62
321.504	93.62
321.733	94.62
321.962	97.62
322.191	82.62
322.42	96.62
322.649	99.62
322.878	108.62
323.108	111.62
323.337	105.62
323.566	116.62
323.795	135.62
324.024	172.62
324.253	332.62
324.482	637.62
324.71	1295.62
324.939	1703.62
325.168	662.62
325.397	223.62
325.626	135.62
325.855	140.62
326.084	119.62
326.313	127.62
326.542	150.62
326.77	200.62
326.999	372.62
327.228	775.62
327.457	1351.62
327.686	1084.62
327.914	316.62
328.143	176.62
328.372	161.62
328.6	116.62
328.829	107.62
329.058	115.62
329.287	117.62
329.515	105.62
329.744	117.62
329.972	112.62
330.201	165.62
330.43	189.62
330.658	137.62
330.887	119.62
331.115	122.62
331.344	103.62
331.572	108.62
331.801	99.62
332.03	82.62
332.258	96.62
332.486	91.62
332.715	92.62
332.943	95.62
333.172	98.62
333.4	93.62
333.629	109.62
333.857	116.62
334.085	121.62
334.314	159.62
334.542	223.62
334.771	204.62
334.999	103.62
335.227	110.62
335.455	88.62
335.684	96.62
335.912	94.62
336.14	109.62
336.369	65.62
336.597	89.62
336.825	98.62
337.053	97.62
337.281	104.62
337.51	100.62
337.738	78.62
337.966	92.62
338.194	82.62
338.422	93.62
338.65	85.62
338.878	89.62
339.106	96.62
339.334	84.62
339.562	91.62
339.79	91.62
340.018	80.62
340.246	78.62
340.474	95.62
340.702	98.62
340.93	83.62
341.158	87.62
341.386	86.62
341.614	108.62
341.842	84.62
342.07	71.62
342.298	85.62
342.526	82.62
342.754	88.62
342.981	77.62
343.209	82.62
343.437	99.62
343.665	88.62
343.893	94.62
344.12	81.62
344.348	87.62
344.576	86.62
344.804	82.62
345.031	95.62
345.259	94.62
345.487	101.62
345.714	90.62
345.942	90.62
346.17	75.62
346.397	77.62
346.625	95.62
346.853	93.62
347.08	99.62
347.308	103.62
347.535	96.62
347.763	87.62
347.99	101.62
348.218	98.62
348.445	98.62
348.673	103.62
348.9	80.62
349.128	90.62
349.355	89.62
349.583	97.62
349.81	91.62
350.037	87.62
350.265	89.62
350.492	94.62
350.72	94.62
350.947	99.62
351.174	109.62
351.402	107.62
351.629	95.62
351.856	104.62
352.083	108.62
352.311	96.62
352.538	99.62
352.765	115.62
352.992	115.62
353.22	95.62
353.447	88.62
353.674	97.62
353.901	89.62
354.128	108.62
354.355	92.62
354.583	81.62
354.81	92.62
355.037	110.62
355.264	107.62
355.491	103.62
355.718	99.62
355.945	90.62
356.172	99.62
356.399	87.62
356.626	92.62
356.853	98.62
357.08	104.62
357.307	88.62
357.534	99.62
357.761	97.62
357.988	100.62
358.215	86.62
358.441	89.62
358.668	99.62
358.895	88.62
359.122	86.62
359.349	96.62
359.576	89.62
359.802	106.62
360.029	104.62
360.256	111.62
360.483	100.62
360.709	84.62
360.936	98.62
361.163	91.62
361.39	79.62
361.616	78.62
361.843	93.62
362.07	100.62
362.296	88.62
362.523	79.62
362.749	86.62
362.976	84.62
363.203	95.62
363.429	80.62
363.656	84.62
363.882	83.62
364.109	95.62
364.335	99.62
364.562	85.62
364.788	91.62
365.015	90.62
365.241	84.62
365.468	110.62
365.694	80.62
365.92	83.62
366.147	79.62
366.373	87.62
366.599	91.62
366.826	90.62
367.052	84.62
367.278	89.62
367.505	90.62
367.731	88.62
367.957	92.62
368.184	92.62
368.41	105.62
368.636	103.62
368.862	115.62
369.089	104.62
369.315	96.62
369.541	98.62
369.767	90.62
369.993	89.62
370.219	91.62
370.445	89.62
370.672	80.62
370.898	86.62
371.124	90.62
371.35	87.62
371.576	86.62
371.802	91.62
372.028	97.62
372.254	92.62
372.48	85.62
372.706	87.62
372.932	68.62
373.158	83.62
373.384	83.62
373.61	95.62
373.835	100.62
374.061	104.62
374.287	79.62
374.513	89.62
374.739	89.62
374.965	89.62
375.191	91.62
375.416	90.62
375.642	87.62
375.868	105.62
376.094	93.62
376.319	89.62
376.545	87.62
376.771	94.62
376.997	91.62
377.222	85.62
377.448	81.62
377.674	84.62
377.899	91.62
378.125	80.62
378.35	103.62
378.576	87.62
378.802	81.62
379.027	96.62
379.253	100.62
379.478	92.62
379.704	83.62
379.929	93.62
380.155	86.62
380.38	94.62
380.606	90.62
380.831	90.62
381.057	92.62
381.282	95.62
381.507	101.62
381.733	106.62
381.958	100.62
382.184	104.62
382.409	109.62
382.634	99.62
382.86	102.62
383.085	100.62
383.31	116.62
383.535	99.62
383.761	104.62
383.986	93.62
384.211	111.62
384.436	100.62
384.662	103.62
384.887	102.62
385.112	117.62
385.337	95.62
385.562	99.62
385.787	96.62
386.013	112.62
386.238	119.62
386.463	106.62
386.688	118.62
386.913	113.62
387.138	102.62
387.363	111.62
387.588	87.62
387.813	85.62
388.038	106.62
388.263	111.62
388.488	110.62
388.713	108.62
388.938	87.62
389.163	92.62
389.387	97.62
389.612	85.62
389.837	96.62
390.062	96.62
390.287	97.62
390.512	75.62
390.736	78.62
390.961	89.62
391.186	88.62
391.411	94.62
391.636	93.62
391.86	93.62
392.085	93.62
392.31	91.62
392.534	79.62
392.759	92.62
392.984	98.62
393.208	72.62
393.433	91.62
393.658	93.62
393.882	81.62
394.107	72.62
394.331	82.62
394.556	92.62
394.78	80.62
395.005	85.62
395.229	87.62
395.454	103.62
395.678	98.62
395.903	91.62
396.127	87.62
396.352	80.62
396.576	80.62
396.801	82.62
397.025	91.62
397.249	86.62
397.474	86.62
397.698	91.62
397.922	87.62
398.147	81.62
398.371	81.62
398.595	71.62
398.82	86.62
399.044	85.62
399.268	86.62
399.492	91.62
399.717	78.62
399.941	76.62
400.165	88.62
400.389	82.62
400.613	82.62
400.837	78.62
401.062	88.62
401.286	96.62
401.51	80.62
401.734	86.62
401.958	82.62
402.182	110.62
402.406	134.62
402.63	88.62
402.854	98.62
403.078	88.62
403.302	74.62
403.526	90.62
403.75	86.62
403.974	105.62
404.198	82.62
404.422	81.62
404.645	102.62
404.869	88.62
405.093	88.62
405.317	100.62
405.541	100.62
405.765	94.62
405.988	103.62
406.212	143.62
406.436	187.62
406.66	128.62
406.883	100.62
407.107	96.62
407.331	91.62
407.555	97.62
407.778	98.62
408.002	80.62
408.226	93.62
408.449	83.62
408.673	79.62
408.896	83.62
409.12	104.62
409.344	91.62
409.567	87.62
409.791	107.62
410.014	94.62
410.238	93.62
410.461	92.62
410.685	84.62
410.908	90.62
411.132	80.62
411.355	103.62
411.578	98.62
411.802	79.62
412.025	76.62
412.249	76.62
412.472	81.62
412.695	96.62
412.919	92.62
413.142	92.62
413.365	93.62
413.589	76.62
413.812	109.62
414.035	91.62
414.258	96.62
414.482	89.62
414.705	95.62
414.928	93.62
415.151	84.62
415.374	100.62
415.597	109.62
415.821	80.62
416.044	91.62
416.267	94.62
416.49	93.62
416.713	77.62
416.936	86.62
417.159	88.62
417.382	89.62
417.605	96.62
417.828	101.62
418.051	80.62
418.274	92.62
418.497	91.62
418.72	88.62
418.943	97.62
419.166	79.62
419.389	91.62
419.611	93.62
419.834	101.62
420.057	98.62
420.28	70.62
420.503	91.62
420.726	83.62
420.948	80.62
421.171	96.62
421.394	89.62
421.617	91.62
421.839	85.62
422.062	82.62
422.285	82.62
422.507	107.62
422.73	107.62
422.953	90.62
423.175	89.62
423.398	99.62
423.621	81.62
423.843	88.62
424.066	96.62
424.288	86.62
424.511	93.62
424.733	93.62
424.956	110.62
425.178	105.62
425.401	95.62
425.623	95.62
425.846	97.62
426.068	93.62
426.291	78.62
426.513	86.62
426.735	91.62
426.958	80.62
427.18	88.62
427.402	111.62
427.625	139.62
427.847	110.62
428.069	109.62
428.292	96.62
428.514	102.62
428.736	87.62
428.958	98.62
429.181	89.62
429.403	91.62
429.625	83.62
429.847	81.62
430.069	97.62
430.292	88.62
430.514	91.62
430.736	81.62
430.958	85.62
431.18	77.62
431.402	87.62
431.624	74.62
431.846	87.62
432.068	87.62
432.29	85.62
432.512	91.62
432.734	99.62
432.956	91.62
433.178	89.62
433.4	96.62
433.622	91.62
433.844	87.62
434.066	80.62
434.287	95.62
434.509	88.62
434.731	90.62
434.953	100.62
435.175	73.62
435.397	99.62
435.618	87.62
435.84	106.62
436.062	106.62
436.284	106.62
436.505	97.62
436.727	106.62
436.949	96.62
437.17	82.62
437.392	85.62
437.614	80.62
437.835	103.62
438.057	100.62
438.278	107.62
438.5	105.62
438.721	106.62
438.943	90.62
439.165	90.62
439.386	82.62
439.608	98.62
439.829	96.62
440.05	93.62
440.272	122.62
440.493	91.62
440.715	95.62
440.936	75.62
441.158	86.62
441.379	80.62
441.6	88.62
441.822	117.62
442.043	84.62
442.264	78.62
442.486	108.62
442.707	104.62
442.928	105.62
443.149	117.62
443.371	115.62
443.592	103.62
443.813	92.62
444.034	98.62
444.255	92.62
444.476	80.62
444.698	82.62
444.919	96.62
445.14	123.62
445.361	111.62
445.582	111.62
445.803	119.62
446.024	115.62
446.245	122.62
446.466	109.62
446.687	83.62
446.908	93.62
447.129	87.62
447.35	99.62
447.571	86.62
447.792	89.62
448.013	108.62
448.234	106.62
448.455	110.62
448.675	106.62
448.896	99.62
449.117	92.62
449.338	87.62
449.559	124.62
449.779	118.62
450	91.62
450.221	100.62
450.442	84.62
450.662	100.62
450.883	110.62
451.104	108.62
451.324	95.62
451.545	80.62
451.766	83.62
451.986	92.62
452.207	83.62
452.428	88.62
452.648	95.62
452.869	104.62
453.089	93.62
453.31	97.62
453.53	98.62
453.751	96.62
453.971	86.62
454.192	110.62
454.412	93.62
454.633	76.62
454.853	72.62
455.073	89.62
455.294	85.62
455.514	88.62
455.734	106.62
455.955	85.62
456.175	87.62
456.395	83.62
456.616	94.62
456.836	105.62
457.056	71.62
457.276	80.62
457.497	96.62
457.717	82.62
457.937	89.62
458.157	97.62
458.377	84.62
458.598	99.62
458.818	132.62
459.038	126.62
459.258	111.62
459.478	87.62
459.698	86.62
459.918	99.62
460.138	88.62
460.358	88.62
460.578	88.62
460.798	86.62
461.018	95.62
461.238	84.62
461.458	87.62
461.678	94.62
461.898	72.62
462.118	82.62
462.338	82.62
462.558	96.62
462.777	88.62
462.997	92.62
463.217	101.62
463.437	79.62
463.657	78.62
463.876	87.62
464.096	76.62
464.316	80.62
464.536	94.62
464.755	85.62
464.975	108.62
465.195	140.62
465.414	124.62
465.634	97.62
465.854	75.62
466.073	82.62
466.293	101.62
466.512	97.62
466.732	91.62
466.951	88.62
467.171	93.62
467.391	93.62
467.61	104.62
467.829	101.62
468.049	127.62
468.268	128.62
468.488	91.62
468.707	103.62
468.927	83.62
469.146	94.62
469.365	84.62
469.585	77.62
469.804	99.62
470.023	92.62
470.243	97.62
470.462	88.62
470.681	90.62
470.901	92.62
471.12	89.62
471.339	85.62
471.558	88.62
471.777	67.62
471.997	111.62
472.216	157.62
472.435	253.62
472.654	128.62
472.873	98.62
473.092	91.62
473.311	68.62
473.53	91.62
473.749	91.62
473.968	100.62
474.187	103.62
474.406	102.62
474.625	87.62
474.844	88.62
475.063	89.62
475.282	94.62
475.501	80.62
475.72	94.62
475.939	95.62
476.158	95.62
476.377	96.62
476.596	90.62
476.814	105.62
477.033	93.62
477.252	84.62
477.471	80.62
477.69	101.62
477.908	81.62
478.127	97.62
478.346	111.62
478.564	70.62
478.783	82.62
479.002	88.62
479.22	79.62
479.439	97.62
479.658	89.62
479.876	93.62
480.095	94.62
480.313	92.62
480.532	86.62
480.751	101.62
480.969	189.62
481.188	399.62
481.406	270.62
481.624	94.62
481.843	93.62
482.061	78.62
482.28	99.62
482.498	83.62
482.717	83.62
482.935	100.62
483.153	96.62
483.372	91.62
483.59	79.62
483.808	90.62
484.027	94.62
484.245	91.62
484.463	82.62
484.681	88.62
484.9	93.62
485.118	84.62
485.336	93.62
485.554	103.62
485.772	110.62
485.99	91.62
486.209	101.62
486.427	109.62
486.645	97.62
486.863	87.62
487.081	107.62
487.299	91.62
487.517	103.62
487.735	96.62
487.953	93.62
488.171	94.62
488.389	92.62
488.607	93.62
488.825	86.62
489.043	89.62
489.261	94.62
489.479	95.62
489.696	76.62
489.914	73.62
490.132	84.62
490.35	96.62
490.568	94.62
490.786	85.62
491.003	85.62
491.221	86.62
491.439	88.62
491.657	86.62
491.874	92.62
492.092	98.62
492.31	88.62
492.527	93.62
492.745	96.62
492.963	90.62
493.18	110.62
493.398	83.62
493.615	99.62
493.833	84.62
494.05	105.62
494.268	78.62
494.485	87.62
494.703	102.62
494.92	96.62
495.138	80.62
495.355	76.62
495.573	90.62
495.79	88.62
496.008	80.62
496.225	98.62
496.442	65.62
496.66	108.62
496.877	90.62
497.094	90.62
497.312	81.62
497.529	107.62
497.746	88.62
497.963	98.62
498.181	86.62
498.398	105.62
498.615	108.62
498.832	91.62
499.049	100.62
499.267	108.62
499.484	81.62
499.701	84.62
499.918	80.62
500.135	71.62
500.352	80.62
500.569	87.62
500.786	91.62
501.003	78.62
501.22	82.62
501.437	89.62
501.654	89.62
501.871	115.62
502.088	71.62
502.305	74.62
502.522	83.62
502.739	77.62
502.956	85.62
503.172	82.62
503.389	86.62
503.606	99.62
503.823	99.62
504.04	93.62
504.256	85.62
504.473	96.62
504.69	76.62
504.907	92.62
505.123	91.62
505.34	92.62
505.557	92.62
505.773	94.62
505.99	83.62
506.207	87.62
506.423	96.62
506.64	95.62
506.856	91.62
507.073	87.62
507.289	99.62
507.506	91.62
507.722	101.62
507.939	102.62
508.155	86.62
508.372	97.62
508.588	82.62
508.805	91.62
509.021	89.62
509.238	79.62
509.454	99.62
509.67	104.62
509.887	91.62
510.103	119.62
510.319	181.62
510.536	591.62
510.752	1854.62
510.968	544.62
511.184	139.62
511.401	110.62
511.617	91.62
511.833	95.62
512.049	84.62
512.265	91.62
512.481	79.62
512.698	84.62
512.914	103.62
513.13	102.62
513.346	92.62
513.562	95.62
513.778	81.62
513.994	90.62
514.21	102.62
514.426	124.62
514.642	127.62
514.858	123.62
515.074	126.62
515.29	343.62
515.506	1132.62
515.721	437.62
515.937	145.62
516.153	114.62
