Data from Circ_2010_H10_HRD10591_00062.txt Node
Date: Wed Jan 03 10:09:53 EST 2024
User: Yrep
Spectrometer: HR+D1059
Trigger mode: 1
Integration Time (sec): 1.000000E-1
Scans to average: 1
Electric dark correction enabled: true
Nonlinearity correction enabled: false
Boxcar width: 0
XAxis mode: Wavelengths
Number of Pixels in Spectrum: 2048
>>>>>Begin Spectral Data<<<<<
223.165	-38.69
223.4	-38.69
223.635	-38.69
223.869	-17.69
224.104	-15.69
224.338	-13.69
224.573	-19.69
224.808	-6.69
225.042	-4.69
225.277	-3.69
225.511	-2.69
225.746	4.31
225.98	-4.69
226.215	26.31
226.449	19.31
226.683	23.31
226.918	14.31
227.152	40.31
227.387	34.31
227.621	44.31
227.856	37.31
228.09	52.31
228.324	36.31
228.559	37.31
228.793	50.31
229.027	49.31
229.262	59.31
229.496	75.31
229.73	67.31
229.964	67.31
230.199	69.31
230.433	83.31
230.667	84.31
230.901	83.31
231.136	63.31
231.37	74.31
231.604	80.31
231.838	82.31
232.072	76.31
232.306	76.31
232.541	73.31
232.775	77.31
233.009	72.31
233.243	80.31
233.477	86.31
233.711	78.31
233.945	73.31
234.179	78.31
234.413	69.31
234.647	84.31
234.881	63.31
235.115	77.31
235.349	88.31
235.583	78.31
235.817	70.31
236.051	70.31
236.285	58.31
236.519	78.31
236.753	88.31
236.987	78.31
237.221	69.31
237.455	74.31
237.689	61.31
237.922	72.31
238.156	78.31
238.39	75.31
238.624	73.31
238.858	77.31
239.091	68.31
239.325	66.31
239.559	65.31
239.793	65.31
240.027	87.31
240.26	75.31
240.494	78.31
240.728	79.31
240.961	69.31
241.195	85.31
241.429	71.31
241.662	73.31
241.896	68.31
242.13	86.31
242.363	76.31
242.597	67.31
242.83	57.31
243.064	73.31
243.298	69.31
243.531	88.31
243.765	76.31
243.998	67.31
244.232	69.31
244.465	76.31
244.699	73.31
244.932	76.31
245.166	81.31
245.399	75.31
245.633	58.31
245.866	73.31
246.099	78.31
246.333	78.31
246.566	66.31
246.8	91.31
247.033	84.31
247.266	72.31
247.5	72.31
247.733	91.31
247.966	76.31
248.2	84.31
248.433	81.31
248.666	74.31
248.899	82.31
249.133	78.31
249.366	90.31
249.599	81.31
249.832	79.31
250.066	89.31
250.299	82.31
250.532	81.31
250.765	83.31
250.998	86.31
251.231	79.31
251.465	67.31
251.698	72.31
251.931	66.31
252.164	69.31
252.397	62.31
252.63	75.31
252.863	76.31
253.096	57.31
253.329	72.31
253.562	65.31
253.795	80.31
254.028	69.31
254.261	74.31
254.494	76.31
254.727	78.31
254.96	75.31
255.193	78.31
255.426	84.31
255.659	71.31
255.892	80.31
256.124	85.31
256.357	67.31
256.59	92.31
256.823	72.31
257.056	65.31
257.289	64.31
257.521	68.31
257.754	88.31
257.987	82.31
258.22	79.31
258.452	76.31
258.685	83.31
258.918	83.31
259.151	86.31
259.383	85.31
259.616	79.31
259.849	79.31
260.081	73.31
260.314	75.31
260.547	84.31
260.779	81.31
261.012	92.31
261.244	80.31
261.477	89.31
261.71	74.31
261.942	90.31
262.175	93.31
262.407	74.31
262.64	71.31
262.872	77.31
263.105	78.31
263.337	85.31
263.57	76.31
263.802	75.31
264.035	85.31
264.267	86.31
264.499	76.31
264.732	86.31
264.964	82.31
265.197	79.31
265.429	78.31
265.661	75.31
265.894	74.31
266.126	72.31
266.358	62.31
266.591	89.31
266.823	87.31
267.055	83.31
267.287	85.31
267.52	83.31
267.752	77.31
267.984	87.31
268.216	75.31
268.448	74.31
268.681	87.31
268.913	88.31
269.145	83.31
269.377	73.31
269.609	81.31
269.841	86.31
270.073	78.31
270.306	79.31
270.538	70.31
270.77	74.31
271.002	76.31
271.234	78.31
271.466	103.31
271.698	78.31
271.93	86.31
272.162	84.31
272.394	85.31
272.626	81.31
272.858	72.31
273.09	79.31
273.322	85.31
273.553	70.31
273.785	77.31
274.017	74.31
274.249	89.31
274.481	90.31
274.713	98.31
274.945	84.31
275.176	65.31
275.408	79.31
275.64	80.31
275.872	83.31
276.104	79.31
276.335	87.31
276.567	81.31
276.799	106.31
277.031	109.31
277.262	101.31
277.494	85.31
277.726	87.31
277.957	84.31
278.189	82.31
278.421	95.31
278.652	73.31
278.884	75.31
279.115	73.31
279.347	72.31
279.579	96.31
279.81	78.31
280.042	97.31
280.273	100.31
280.505	95.31
280.736	82.31
280.968	90.31
281.199	78.31
281.431	92.31
281.662	84.31
281.894	86.31
282.125	90.31
282.356	102.31
282.588	120.31
282.819	88.31
283.051	96.31
283.282	86.31
283.513	83.31
283.745	83.31
283.976	88.31
284.207	77.31
284.439	88.31
284.67	87.31
284.901	78.31
285.132	88.31
285.364	75.31
285.595	83.31
285.826	85.31
286.057	89.31
286.288	89.31
286.52	83.31
286.751	85.31
286.982	67.31
287.213	86.31
287.444	84.31
287.675	71.31
287.906	84.31
288.138	89.31
288.369	88.31
288.6	82.31
288.831	82.31
289.062	81.31
289.293	84.31
289.524	77.31
289.755	83.31
289.986	72.31
290.217	87.31
290.448	73.31
290.679	83.31
290.91	88.31
291.141	78.31
291.371	65.31
291.602	81.31
291.833	66.31
292.064	89.31
292.295	93.31
292.526	87.31
292.757	89.31
292.987	87.31
293.218	78.31
293.449	86.31
293.68	84.31
293.91	86.31
294.141	87.31
294.372	87.31
294.603	87.31
294.833	83.31
295.064	77.31
295.295	94.31
295.525	77.31
295.756	97.31
295.987	117.31
296.217	114.31
296.448	120.31
296.679	89.31
296.909	87.31
297.14	75.31
297.37	85.31
297.601	84.31
297.831	82.31
298.062	98.31
298.292	78.31
298.523	84.31
298.753	75.31
298.984	83.31
299.214	84.31
299.445	68.31
299.675	95.31
299.905	85.31
300.136	74.31
300.366	82.31
300.597	98.31
300.827	89.31
301.057	96.31
301.288	100.31
301.518	100.31
301.748	84.31
301.979	93.31
302.209	80.31
302.439	79.31
302.669	95.31
302.9	77.31
303.13	81.31
303.36	92.31
303.59	86.31
303.82	78.31
304.051	86.31
304.281	75.31
304.511	84.31
304.741	87.31
304.971	89.31
305.201	83.31
305.431	87.31
305.661	86.31
305.891	84.31
306.121	92.31
306.352	101.31
306.582	89.31
306.812	90.31
307.042	93.31
307.272	83.31
307.502	102.31
307.731	86.31
307.961	98.31
308.191	98.31
308.421	86.31
308.651	96.31
308.881	90.31
309.111	93.31
309.341	93.31
309.571	100.31
309.8	98.31
310.03	78.31
310.26	67.31
310.49	94.31
310.72	99.31
310.949	97.31
311.179	94.31
311.409	91.31
311.639	75.31
311.868	89.31
312.098	91.31
312.328	87.31
312.557	101.31
312.787	85.31
313.017	93.31
313.246	81.31
313.476	70.31
313.706	82.31
313.935	85.31
314.165	92.31
314.394	93.31
314.624	85.31
314.853	95.31
315.083	80.31
315.312	92.31
315.542	70.31
315.771	94.31
316.001	91.31
316.23	94.31
316.46	83.31
316.689	88.31
316.919	86.31
317.148	85.31
317.377	89.31
317.607	102.31
317.836	88.31
318.065	85.31
318.295	89.31
318.524	85.31
318.753	82.31
318.983	105.31
319.212	98.31
319.441	83.31
319.67	91.31
319.9	81.31
320.129	87.31
320.358	99.31
320.587	88.31
320.816	97.31
321.046	84.31
321.275	96.31
321.504	62.31
321.733	91.31
321.962	114.31
322.191	94.31
322.42	96.31
322.649	84.31
322.878	98.31
323.108	103.31
323.337	97.31
323.566	119.31
323.795	143.31
324.024	181.31
324.253	309.31
324.482	629.31
324.71	1297.31
324.939	1725.31
325.168	647.31
325.397	206.31
325.626	140.31
325.855	123.31
326.084	123.31
326.313	135.31
326.542	142.31
326.77	190.31
326.999	374.31
327.228	747.31
327.457	1332.31
327.686	1031.31
327.914	288.31
328.143	184.31
328.372	161.31
328.6	132.31
328.829	114.31
329.058	107.31
329.287	118.31
329.515	118.31
329.744	116.31
329.972	145.31
330.201	207.31
330.43	225.31
330.658	148.31
330.887	134.31
331.115	95.31
331.344	83.31
331.572	107.31
331.801	84.31
332.03	89.31
332.258	86.31
332.486	85.31
332.715	86.31
332.943	107.31
333.172	97.31
333.4	95.31
333.629	111.31
333.857	123.31
334.085	134.31
334.314	197.31
334.542	279.31
334.771	249.31
334.999	121.31
335.227	98.31
335.455	98.31
335.684	105.31
335.912	86.31
336.14	91.31
336.369	105.31
336.597	84.31
336.825	95.31
337.053	70.31
337.281	82.31
337.51	85.31
337.738	88.31
337.966	95.31
338.194	96.31
338.422	93.31
338.65	101.31
338.878	91.31
339.106	82.31
339.334	85.31
339.562	89.31
339.79	94.31
340.018	81.31
340.246	80.31
340.474	84.31
340.702	92.31
340.93	85.31
341.158	74.31
341.386	86.31
341.614	87.31
341.842	102.31
342.07	89.31
342.298	90.31
342.526	91.31
342.754	93.31
342.981	80.31
343.209	87.31
343.437	93.31
343.665	84.31
343.893	79.31
344.12	94.31
344.348	86.31
344.576	90.31
344.804	92.31
345.031	102.31
345.259	85.31
345.487	82.31
345.714	90.31
345.942	87.31
346.17	81.31
346.397	85.31
346.625	91.31
346.853	78.31
347.08	81.31
347.308	74.31
347.535	105.31
347.763	98.31
347.99	95.31
348.218	104.31
348.445	108.31
348.673	92.31
348.9	93.31
349.128	93.31
349.355	105.31
349.583	99.31
349.81	93.31
350.037	87.31
350.265	82.31
350.492	99.31
350.72	101.31
350.947	90.31
351.174	92.31
351.402	108.31
351.629	100.31
351.856	92.31
352.083	98.31
352.311	78.31
352.538	101.31
352.765	103.31
352.992	110.31
353.22	91.31
353.447	107.31
353.674	85.31
353.901	74.31
354.128	102.31
354.355	102.31
354.583	98.31
354.81	98.31
355.037	97.31
355.264	90.31
355.491	82.31
355.718	85.31
355.945	86.31
356.172	86.31
356.399	91.31
356.626	93.31
356.853	70.31
357.08	95.31
357.307	101.31
357.534	97.31
357.761	83.31
357.988	92.31
358.215	81.31
358.441	91.31
358.668	98.31
358.895	98.31
359.122	82.31
359.349	87.31
359.576	103.31
359.802	99.31
360.029	94.31
360.256	105.31
360.483	80.31
360.709	72.31
360.936	81.31
361.163	76.31
361.39	90.31
361.616	91.31
361.843	90.31
362.07	85.31
362.296	91.31
362.523	82.31
362.749	84.31
362.976	80.31
363.203	87.31
363.429	90.31
363.656	77.31
363.882	74.31
364.109	92.31
364.335	84.31
364.562	97.31
364.788	95.31
365.015	100.31
365.241	94.31
365.468	97.31
365.694	96.31
365.92	88.31
366.147	86.31
366.373	75.31
366.599	102.31
366.826	89.31
367.052	87.31
367.278	87.31
367.505	90.31
367.731	102.31
367.957	82.31
368.184	86.31
368.41	88.31
368.636	96.31
368.862	114.31
369.089	96.31
369.315	80.31
369.541	78.31
369.767	77.31
369.993	76.31
370.219	87.31
370.445	76.31
370.672	90.31
370.898	81.31
371.124	86.31
371.35	69.31
371.576	89.31
371.802	74.31
372.028	79.31
372.254	87.31
372.48	76.31
372.706	83.31
372.932	93.31
373.158	93.31
373.384	83.31
373.61	91.31
373.835	96.31
374.061	83.31
374.287	79.31
374.513	67.31
374.739	85.31
374.965	92.31
375.191	87.31
375.416	86.31
375.642	90.31
375.868	80.31
376.094	77.31
376.319	78.31
376.545	100.31
376.771	70.31
376.997	84.31
377.222	81.31
377.448	86.31
377.674	96.31
377.899	93.31
378.125	93.31
378.35	94.31
378.576	96.31
378.802	88.31
379.027	87.31
379.253	93.31
379.478	88.31
379.704	86.31
379.929	88.31
380.155	76.31
380.38	96.31
380.606	94.31
380.831	93.31
381.057	114.31
381.282	94.31
381.507	98.31
381.733	96.31
381.958	91.31
382.184	88.31
382.409	96.31
382.634	102.31
382.86	93.31
383.085	95.31
383.31	97.31
383.535	95.31
383.761	90.31
383.986	79.31
384.211	95.31
384.436	96.31
384.662	88.31
384.887	105.31
385.112	89.31
385.337	87.31
385.562	108.31
385.787	89.31
386.013	107.31
386.238	116.31
386.463	100.31
386.688	105.31
386.913	98.31
387.138	95.31
387.363	101.31
387.588	87.31
387.813	92.31
388.038	99.31
388.263	116.31
388.488	91.31
388.713	100.31
388.938	100.31
389.163	83.31
389.387	87.31
389.612	89.31
389.837	90.31
390.062	93.31
390.287	94.31
390.512	89.31
390.736	79.31
390.961	96.31
391.186	92.31
391.411	90.31
391.636	95.31
391.86	81.31
392.085	78.31
392.31	79.31
392.534	88.31
392.759	68.31
392.984	101.31
393.208	98.31
393.433	100.31
393.658	101.31
393.882	105.31
394.107	86.31
394.331	89.31
394.556	84.31
394.78	85.31
395.005	81.31
395.229	92.31
395.454	75.31
395.678	68.31
395.903	79.31
396.127	98.31
396.352	86.31
396.576	98.31
396.801	84.31
397.025	83.31
397.249	84.31
397.474	74.31
397.698	90.31
397.922	79.31
398.147	86.31
398.371	80.31
398.595	82.31
398.82	82.31
399.044	78.31
399.268	84.31
399.492	82.31
399.717	82.31
399.941	75.31
400.165	91.31
400.389	83.31
400.613	85.31
400.837	80.31
401.062	77.31
401.286	81.31
401.51	93.31
401.734	79.31
401.958	102.31
402.182	107.31
402.406	123.31
402.63	92.31
402.854	98.31
403.078	84.31
403.302	89.31
403.526	87.31
403.75	87.31
403.974	68.31
404.198	78.31
404.422	91.31
404.645	85.31
404.869	79.31
405.093	98.31
405.317	104.31
405.541	103.31
405.765	98.31
405.988	107.31
406.212	148.31
406.436	172.31
406.66	113.31
406.883	93.31
407.107	76.31
407.331	90.31
407.555	77.31
407.778	93.31
408.002	97.31
408.226	86.31
408.449	84.31
408.673	85.31
408.896	85.31
409.12	80.31
409.344	88.31
409.567	87.31
409.791	93.31
410.014	94.31
410.238	88.31
410.461	92.31
410.685	100.31
410.908	99.31
411.132	94.31
411.355	102.31
411.578	96.31
411.802	82.31
412.025	89.31
412.249	88.31
412.472	91.31
412.695	85.31
412.919	89.31
413.142	88.31
413.365	70.31
413.589	83.31
413.812	88.31
414.035	103.31
414.258	87.31
414.482	88.31
414.705	84.31
414.928	86.31
415.151	78.31
415.374	99.31
415.597	99.31
415.821	78.31
416.044	91.31
416.267	87.31
416.49	83.31
416.713	89.31
416.936	73.31
417.159	84.31
417.382	81.31
417.605	74.31
417.828	89.31
418.051	87.31
418.274	92.31
418.497	86.31
418.72	82.31
418.943	76.31
419.166	78.31
419.389	84.31
419.611	82.31
419.834	84.31
420.057	82.31
420.28	80.31
420.503	73.31
420.726	85.31
420.948	88.31
421.171	98.31
421.394	92.31
421.617	85.31
421.839	84.31
422.062	74.31
422.285	82.31
422.507	96.31
422.73	89.31
422.953	78.31
423.175	84.31
423.398	89.31
423.621	89.31
423.843	85.31
424.066	93.31
424.288	81.31
424.511	82.31
424.733	78.31
424.956	102.31
425.178	115.31
425.401	101.31
425.623	90.31
425.846	93.31
426.068	88.31
426.291	82.31
426.513	85.31
426.735	89.31
426.958	101.31
427.18	92.31
427.402	116.31
427.625	133.31
427.847	109.31
428.069	130.31
428.292	79.31
428.514	86.31
428.736	69.31
428.958	85.31
429.181	93.31
429.403	91.31
429.625	86.31
429.847	79.31
430.069	94.31
430.292	81.31
430.514	81.31
430.736	97.31
430.958	94.31
431.18	74.31
431.402	69.31
431.624	78.31
431.846	83.31
432.068	93.31
432.29	78.31
432.512	85.31
432.734	94.31
432.956	89.31
433.178	93.31
433.4	87.31
433.622	77.31
433.844	89.31
434.066	94.31
434.287	80.31
434.509	78.31
434.731	89.31
434.953	90.31
435.175	75.31
435.397	84.31
435.618	96.31
435.84	86.31
436.062	109.31
436.284	100.31
436.505	102.31
436.727	84.31
436.949	82.31
437.17	83.31
437.392	75.31
437.614	92.31
437.835	80.31
438.057	93.31
438.278	94.31
438.5	91.31
438.721	133.31
438.943	115.31
439.165	78.31
439.386	98.31
439.608	73.31
439.829	83.31
440.05	103.31
440.272	113.31
440.493	110.31
440.715	84.31
440.936	94.31
441.158	89.31
441.379	83.31
441.6	95.31
441.822	78.31
442.043	82.31
442.264	100.31
442.486	117.31
442.707	80.31
442.928	82.31
443.149	109.31
443.371	102.31
443.592	102.31
443.813	99.31
444.034	94.31
444.255	87.31
444.476	90.31
444.698	91.31
444.919	90.31
445.14	131.31
445.361	112.31
445.582	116.31
445.803	119.31
446.024	108.31
446.245	126.31
446.466	100.31
446.687	86.31
446.908	88.31
447.129	86.31
447.35	77.31
447.571	89.31
447.792	86.31
448.013	89.31
448.234	89.31
448.455	97.31
448.675	93.31
448.896	91.31
449.117	86.31
449.338	101.31
449.559	106.31
449.779	124.31
450	83.31
450.221	69.31
450.442	87.31
450.662	89.31
450.883	92.31
451.104	101.31
451.324	89.31
451.545	82.31
451.766	97.31
451.986	82.31
452.207	90.31
452.428	75.31
452.648	85.31
452.869	83.31
453.089	98.31
453.31	90.31
453.53	83.31
453.751	72.31
453.971	99.31
454.192	100.31
454.412	86.31
454.633	82.31
454.853	76.31
455.073	90.31
455.294	86.31
455.514	76.31
455.734	86.31
455.955	76.31
456.175	86.31
456.395	75.31
456.616	86.31
456.836	73.31
457.056	81.31
457.276	78.31
457.497	100.31
457.717	82.31
457.937	92.31
458.157	83.31
458.377	93.31
458.598	89.31
458.818	120.31
459.038	131.31
459.258	107.31
459.478	82.31
459.698	69.31
459.918	78.31
460.138	76.31
460.358	82.31
460.578	96.31
460.798	72.31
461.018	86.31
461.238	70.31
461.458	91.31
461.678	68.31
461.898	76.31
462.118	96.31
462.338	84.31
462.558	88.31
462.777	84.31
462.997	89.31
463.217	81.31
463.437	79.31
463.657	67.31
463.876	96.31
464.096	82.31
464.316	79.31
464.536	86.31
464.755	89.31
464.975	95.31
465.195	133.31
465.414	126.31
465.634	97.31
465.854	85.31
466.073	89.31
466.293	92.31
466.512	84.31
466.732	92.31
466.951	68.31
467.171	93.31
467.391	100.31
467.61	98.31
467.829	89.31
468.049	137.31
468.268	157.31
468.488	92.31
468.707	89.31
468.927	82.31
469.146	82.31
469.365	90.31
469.585	77.31
469.804	74.31
470.023	85.31
470.243	81.31
470.462	95.31
470.681	106.31
470.901	88.31
471.12	79.31
471.339	75.31
471.558	83.31
471.777	77.31
471.997	100.31
472.216	224.31
472.435	361.31
472.654	124.31
472.873	88.31
473.092	77.31
473.311	85.31
473.53	91.31
473.749	91.31
473.968	89.31
474.187	89.31
474.406	93.31
474.625	82.31
474.844	84.31
475.063	86.31
475.282	113.31
475.501	84.31
475.72	82.31
475.939	87.31
476.158	98.31
476.377	78.31
476.596	87.31
476.814	109.31
477.033	95.31
477.252	78.31
477.471	87.31
477.69	75.31
477.908	82.31
478.127	92.31
478.346	72.31
478.564	95.31
478.783	92.31
479.002	88.31
479.22	95.31
479.439	81.31
479.658	81.31
479.876	84.31
480.095	89.31
480.313	97.31
480.532	96.31
480.751	107.31
480.969	203.31
481.188	589.31
481.406	356.31
481.624	116.31
481.843	77.31
482.061	97.31
482.28	83.31
482.498	77.31
482.717	93.31
482.935	88.31
483.153	75.31
483.372	81.31
483.59	93.31
483.808	82.31
484.027	87.31
484.245	70.31
484.463	92.31
484.681	94.31
484.9	90.31
485.118	89.31
485.336	81.31
485.554	86.31
485.772	104.31
485.99	107.31
486.209	104.31
486.427	107.31
486.645	107.31
486.863	96.31
487.081	106.31
487.299	93.31
487.517	89.31
487.735	80.31
487.953	93.31
488.171	100.31
488.389	85.31
488.607	97.31
488.825	94.31
489.043	72.31
489.261	86.31
489.479	96.31
489.696	86.31
489.914	80.31
490.132	75.31
490.35	88.31
490.568	100.31
490.786	87.31
491.003	89.31
491.221	93.31
491.439	87.31
491.657	88.31
491.874	81.31
492.092	79.31
492.31	93.31
492.527	91.31
492.745	82.31
492.963	88.31
493.18	85.31
493.398	95.31
493.615	85.31
493.833	86.31
494.05	89.31
494.268	82.31
494.485	81.31
494.703	76.31
494.92	75.31
495.138	87.31
495.355	93.31
495.573	100.31
495.79	82.31
496.008	88.31
496.225	85.31
496.442	80.31
496.66	81.31
496.877	86.31
497.094	97.31
497.312	75.31
497.529	83.31
497.746	96.31
497.963	102.31
498.181	89.31
498.398	78.31
498.615	93.31
498.832	100.31
499.049	88.31
499.267	92.31
499.484	85.31
499.701	82.31
499.918	86.31
500.135	88.31
500.352	99.31
500.569	85.31
500.786	100.31
501.003	82.31
501.22	92.31
501.437	88.31
501.654	77.31
501.871	77.31
502.088	88.31
502.305	96.31
502.522	87.31
502.739	85.31
502.956	91.31
503.172	110.31
503.389	77.31
503.606	91.31
503.823	76.31
504.04	88.31
504.256	85.31
504.473	87.31
504.69	85.31
504.907	83.31
505.123	80.31
505.34	84.31
505.557	86.31
505.773	83.31
505.99	88.31
506.207	89.31
506.423	83.31
506.64	82.31
506.856	89.31
507.073	83.31
507.289	101.31
507.506	76.31
507.722	100.31
507.939	99.31
508.155	92.31
508.372	94.31
508.588	87.31
508.805	98.31
509.021	84.31
509.238	83.31
509.454	85.31
509.67	94.31
509.887	90.31
510.103	98.31
510.319	174.31
510.536	521.31
510.752	1618.31
510.968	488.31
511.184	140.31
511.401	93.31
511.617	101.31
511.833	84.31
512.049	69.31
512.265	87.31
512.481	89.31
512.698	91.31
512.914	75.31
513.13	90.31
513.346	76.31
513.562	83.31
513.778	85.31
513.994	104.31
514.21	104.31
514.426	95.31
514.642	98.31
514.858	116.31
515.074	139.31
515.29	312.31
515.506	987.31
515.721	386.31
515.937	134.31
516.153	110.31
516.369	101.31
516.585	85.31
516.801	84.31
517.016	92.31
517.232	87.31
