Data from Circ_2010_H10_HRD10591_00044.txt Node
Date: Wed Jan 03 10:09:50 EST 2024
User: Yrep
Spectrometer: HR+D1059
Trigger mode: 1
Integration Time (sec): 1.000000E-1
Scans to average: 1
Electric dark correction enabled: true
Nonlinearity correction enabled: false
Boxcar width: 0
XAxis mode: Wavelengths
Number of Pixels in Spectrum: 2048
>>>>>Begin Spectral Data<<<<<
223.165	-21.19
223.4	-21.19
223.635	-21.19
223.869	-19.19
224.104	-21.19
224.338	-19.19
224.573	2.81
224.808	-4.19
225.042	-5.19
225.277	-6.19
225.511	-6.19
225.746	-6.19
225.98	-2.19
226.215	6.81
226.449	15.81
226.683	28.81
226.918	31.81
227.152	24.81
227.387	37.81
227.621	40.81
227.856	44.81
228.09	48.81
228.324	56.81
228.559	57.81
228.793	61.81
229.027	56.81
229.262	65.81
229.496	75.81
229.73	87.81
229.964	73.81
230.199	61.81
230.433	67.81
230.667	84.81
230.901	80.81
231.136	74.81
231.37	88.81
231.604	62.81
231.838	73.81
232.072	79.81
232.306	82.81
232.541	73.81
232.775	93.81
233.009	76.81
233.243	75.81
233.477	74.81
233.711	86.81
233.945	88.81
234.179	81.81
234.413	70.81
234.647	77.81
234.881	98.81
235.115	89.81
235.349	93.81
235.583	78.81
235.817	83.81
236.051	70.81
236.285	55.81
236.519	70.81
236.753	86.81
236.987	70.81
237.221	77.81
237.455	67.81
237.689	80.81
237.922	79.81
238.156	69.81
238.39	85.81
238.624	77.81
238.858	74.81
239.091	76.81
239.325	79.81
239.559	78.81
239.793	89.81
240.027	77.81
240.26	67.81
240.494	85.81
240.728	81.81
240.961	77.81
241.195	81.81
241.429	81.81
241.662	78.81
241.896	75.81
242.13	83.81
242.363	85.81
242.597	78.81
242.83	74.81
243.064	77.81
243.298	79.81
243.531	58.81
243.765	77.81
243.998	72.81
244.232	67.81
244.465	85.81
244.699	73.81
244.932	75.81
245.166	82.81
245.399	73.81
245.633	72.81
245.866	64.81
246.099	69.81
246.333	73.81
246.566	73.81
246.8	82.81
247.033	84.81
247.266	66.81
247.5	88.81
247.733	83.81
247.966	77.81
248.2	80.81
248.433	85.81
248.666	84.81
248.899	82.81
249.133	79.81
249.366	90.81
249.599	94.81
249.832	78.81
250.066	94.81
250.299	80.81
250.532	79.81
250.765	74.81
250.998	70.81
251.231	64.81
251.465	77.81
251.698	73.81
251.931	72.81
252.164	78.81
252.397	72.81
252.63	83.81
252.863	87.81
253.096	69.81
253.329	76.81
253.562	89.81
253.795	84.81
254.028	73.81
254.261	78.81
254.494	93.81
254.727	79.81
254.96	86.81
255.193	82.81
255.426	86.81
255.659	80.81
255.892	95.81
256.124	87.81
256.357	85.81
256.59	84.81
256.823	82.81
257.056	89.81
257.289	98.81
257.521	76.81
257.754	80.81
257.987	79.81
258.22	72.81
258.452	90.81
258.685	73.81
258.918	73.81
259.151	72.81
259.383	86.81
259.616	94.81
259.849	68.81
260.081	76.81
260.314	80.81
260.547	89.81
260.779	85.81
261.012	69.81
261.244	89.81
261.477	88.81
261.71	89.81
261.942	103.81
262.175	109.81
262.407	82.81
262.64	77.81
262.872	98.81
263.105	79.81
263.337	88.81
263.57	76.81
263.802	83.81
264.035	77.81
264.267	86.81
264.499	77.81
264.732	73.81
264.964	84.81
265.197	68.81
265.429	84.81
265.661	81.81
265.894	94.81
266.126	84.81
266.358	98.81
266.591	89.81
266.823	89.81
267.055	98.81
267.287	93.81
267.52	87.81
267.752	85.81
267.984	92.81
268.216	86.81
268.448	86.81
268.681	77.81
268.913	84.81
269.145	86.81
269.377	95.81
269.609	96.81
269.841	88.81
270.073	83.81
270.306	66.81
270.538	85.81
270.77	92.81
271.002	79.81
271.234	81.81
271.466	90.81
271.698	77.81
271.93	85.81
272.162	87.81
272.394	78.81
272.626	93.81
272.858	66.81
273.09	73.81
273.322	74.81
273.553	87.81
273.785	93.81
274.017	86.81
274.249	81.81
274.481	82.81
274.713	88.81
274.945	90.81
275.176	82.81
275.408	83.81
275.64	78.81
275.872	82.81
276.104	92.81
276.335	86.81
276.567	100.81
276.799	104.81
277.031	105.81
277.262	95.81
277.494	93.81
277.726	87.81
277.957	86.81
278.189	95.81
278.421	78.81
278.652	82.81
278.884	100.81
279.115	84.81
279.347	85.81
279.579	92.81
279.81	97.81
280.042	105.81
280.273	95.81
280.505	100.81
280.736	96.81
280.968	91.81
281.199	89.81
281.431	98.81
281.662	82.81
281.894	88.81
282.125	91.81
282.356	108.81
282.588	127.81
282.819	120.81
283.051	111.81
283.282	86.81
283.513	93.81
283.745	92.81
283.976	76.81
284.207	87.81
284.439	78.81
284.67	91.81
284.901	89.81
285.132	84.81
285.364	80.81
285.595	102.81
285.826	86.81
286.057	78.81
286.288	81.81
286.52	84.81
286.751	79.81
286.982	79.81
287.213	88.81
287.444	96.81
287.675	88.81
287.906	77.81
288.138	84.81
288.369	99.81
288.6	92.81
288.831	81.81
289.062	88.81
289.293	99.81
289.524	103.81
289.755	96.81
289.986	101.81
290.217	77.81
290.448	86.81
290.679	89.81
290.91	78.81
291.141	83.81
291.371	86.81
291.602	86.81
291.833	96.81
292.064	93.81
292.295	87.81
292.526	109.81
292.757	95.81
292.987	95.81
293.218	90.81
293.449	76.81
293.68	89.81
293.91	78.81
294.141	83.81
294.372	87.81
294.603	97.81
294.833	81.81
295.064	105.81
295.295	104.81
295.525	97.81
295.756	93.81
295.987	112.81
296.217	129.81
296.448	132.81
296.679	87.81
296.909	86.81
297.14	78.81
297.37	81.81
297.601	95.81
297.831	76.81
298.062	92.81
298.292	93.81
298.523	105.81
298.753	93.81
298.984	101.81
299.214	105.81
299.445	98.81
299.675	94.81
299.905	91.81
300.136	87.81
300.366	84.81
300.597	92.81
300.827	94.81
301.057	88.81
301.288	83.81
301.518	87.81
301.748	81.81
301.979	103.81
302.209	80.81
302.439	91.81
302.669	109.81
302.9	85.81
303.13	95.81
303.36	93.81
303.59	97.81
303.82	100.81
304.051	98.81
304.281	93.81
304.511	90.81
304.741	93.81
304.971	93.81
305.201	89.81
305.431	78.81
305.661	85.81
305.891	85.81
306.121	97.81
306.352	103.81
306.582	101.81
306.812	97.81
307.042	98.81
307.272	94.81
307.502	93.81
307.731	109.81
307.961	96.81
308.191	90.81
308.421	86.81
308.651	97.81
308.881	90.81
309.111	98.81
309.341	92.81
309.571	103.81
309.8	95.81
310.03	89.81
310.26	92.81
310.49	81.81
310.72	92.81
310.949	86.81
311.179	100.81
311.409	88.81
311.639	91.81
311.868	88.81
312.098	91.81
312.328	99.81
312.557	94.81
312.787	101.81
313.017	96.81
313.246	93.81
313.476	88.81
313.706	97.81
313.935	86.81
314.165	84.81
314.394	89.81
314.624	81.81
314.853	94.81
315.083	100.81
315.312	89.81
315.542	96.81
315.771	73.81
316.001	94.81
316.23	100.81
316.46	90.81
316.689	90.81
316.919	103.81
317.148	80.81
317.377	91.81
317.607	91.81
317.836	94.81
318.065	104.81
318.295	99.81
318.524	93.81
318.753	97.81
318.983	90.81
319.212	82.81
319.441	98.81
319.67	117.81
319.9	94.81
320.129	98.81
320.358	84.81
320.587	101.81
320.816	109.81
321.046	107.81
321.275	112.81
321.504	97.81
321.733	93.81
321.962	107.81
322.191	98.81
322.42	92.81
322.649	105.81
322.878	103.81
323.108	112.81
323.337	115.81
323.566	126.81
323.795	147.81
324.024	190.81
324.253	351.81
324.482	765.81
324.71	1490.81
324.939	1909.81
325.168	708.81
325.397	219.81
325.626	142.81
325.855	112.81
326.084	119.81
326.313	119.81
326.542	137.81
326.77	210.81
326.999	417.81
327.228	870.81
327.457	1504.81
327.686	1194.81
327.914	353.81
328.143	217.81
328.372	175.81
328.6	145.81
328.829	122.81
329.058	125.81
329.287	123.81
329.515	117.81
329.744	128.81
329.972	147.81
330.201	210.81
330.43	249.81
330.658	170.81
330.887	135.81
331.115	106.81
331.344	103.81
331.572	111.81
331.801	103.81
332.03	82.81
332.258	112.81
332.486	107.81
332.715	86.81
332.943	94.81
333.172	100.81
333.4	97.81
333.629	107.81
333.857	124.81
334.085	149.81
334.314	202.81
334.542	283.81
334.771	272.81
334.999	134.81
335.227	91.81
335.455	87.81
335.684	103.81
335.912	103.81
336.14	98.81
336.369	97.81
336.597	98.81
336.825	96.81
337.053	109.81
337.281	92.81
337.51	79.81
337.738	84.81
337.966	97.81
338.194	101.81
338.422	103.81
338.65	92.81
338.878	89.81
339.106	83.81
339.334	101.81
339.562	85.81
339.79	98.81
340.018	80.81
340.246	105.81
340.474	97.81
340.702	109.81
340.93	88.81
341.158	94.81
341.386	80.81
341.614	90.81
341.842	81.81
342.07	93.81
342.298	86.81
342.526	87.81
342.754	97.81
342.981	93.81
343.209	86.81
343.437	95.81
343.665	93.81
343.893	95.81
344.12	99.81
344.348	99.81
344.576	87.81
344.804	91.81
345.031	105.81
345.259	101.81
345.487	101.81
345.714	89.81
345.942	87.81
346.17	86.81
346.397	93.81
346.625	85.81
346.853	100.81
347.08	91.81
347.308	88.81
347.535	93.81
347.763	108.81
347.99	90.81
348.218	99.81
348.445	115.81
348.673	103.81
348.9	93.81
349.128	97.81
349.355	89.81
349.583	96.81
349.81	97.81
350.037	109.81
350.265	102.81
350.492	102.81
350.72	83.81
350.947	101.81
351.174	101.81
351.402	97.81
351.629	113.81
351.856	111.81
352.083	101.81
352.311	103.81
352.538	110.81
352.765	106.81
352.992	116.81
353.22	110.81
353.447	116.81
353.674	98.81
353.901	94.81
354.128	105.81
354.355	110.81
354.583	94.81
354.81	92.81
355.037	93.81
355.264	100.81
355.491	95.81
355.718	89.81
355.945	104.81
356.172	108.81
356.399	94.81
356.626	85.81
356.853	88.81
357.08	87.81
357.307	88.81
357.534	88.81
357.761	104.81
357.988	101.81
358.215	100.81
358.441	78.81
358.668	95.81
358.895	92.81
359.122	89.81
359.349	80.81
359.576	73.81
359.802	95.81
360.029	110.81
360.256	118.81
360.483	99.81
360.709	86.81
360.936	91.81
361.163	78.81
361.39	86.81
361.616	102.81
361.843	86.81
362.07	87.81
362.296	93.81
362.523	95.81
362.749	92.81
362.976	93.81
363.203	94.81
363.429	81.81
363.656	97.81
363.882	80.81
364.109	100.81
364.335	95.81
364.562	91.81
364.788	71.81
365.015	87.81
365.241	98.81
365.468	89.81
365.694	95.81
365.92	94.81
366.147	86.81
366.373	79.81
366.599	97.81
366.826	105.81
367.052	88.81
367.278	87.81
367.505	97.81
367.731	92.81
367.957	96.81
368.184	92.81
368.41	103.81
368.636	108.81
368.862	112.81
369.089	102.81
369.315	94.81
369.541	93.81
369.767	100.81
369.993	89.81
370.219	84.81
370.445	84.81
370.672	96.81
370.898	87.81
371.124	86.81
371.35	90.81
371.576	96.81
371.802	78.81
372.028	94.81
372.254	101.81
372.48	93.81
372.706	92.81
372.932	89.81
373.158	89.81
373.384	98.81
373.61	103.81
373.835	84.81
374.061	86.81
374.287	99.81
374.513	89.81
374.739	78.81
374.965	89.81
375.191	85.81
375.416	85.81
375.642	89.81
375.868	88.81
376.094	83.81
376.319	85.81
376.545	92.81
376.771	105.81
376.997	90.81
377.222	82.81
377.448	87.81
377.674	84.81
377.899	94.81
378.125	86.81
378.35	97.81
378.576	94.81
378.802	78.81
379.027	93.81
379.253	96.81
379.478	97.81
379.704	101.81
379.929	95.81
380.155	103.81
380.38	91.81
380.606	112.81
380.831	95.81
381.057	98.81
381.282	100.81
381.507	97.81
381.733	104.81
381.958	97.81
382.184	101.81
382.409	96.81
382.634	98.81
382.86	97.81
383.085	113.81
383.31	113.81
383.535	99.81
383.761	90.81
383.986	96.81
384.211	85.81
384.436	101.81
384.662	98.81
384.887	101.81
385.112	97.81
385.337	96.81
385.562	96.81
385.787	106.81
386.013	97.81
386.238	103.81
386.463	100.81
386.688	113.81
386.913	99.81
387.138	109.81
387.363	99.81
387.588	103.81
387.813	95.81
388.038	90.81
388.263	109.81
388.488	103.81
388.713	103.81
388.938	92.81
389.163	101.81
389.387	95.81
389.612	108.81
389.837	105.81
390.062	110.81
390.287	101.81
390.512	107.81
390.736	98.81
390.961	95.81
391.186	91.81
391.411	84.81
391.636	96.81
391.86	94.81
392.085	94.81
392.31	73.81
392.534	78.81
392.759	100.81
392.984	85.81
393.208	93.81
393.433	112.81
393.658	104.81
393.882	92.81
394.107	96.81
394.331	94.81
394.556	95.81
394.78	95.81
395.005	89.81
395.229	79.81
395.454	92.81
395.678	82.81
395.903	94.81
396.127	87.81
396.352	102.81
396.576	95.81
396.801	97.81
397.025	99.81
397.249	98.81
397.474	102.81
397.698	108.81
397.922	93.81
398.147	93.81
398.371	81.81
398.595	92.81
398.82	91.81
399.044	94.81
399.268	82.81
399.492	84.81
399.717	79.81
399.941	95.81
400.165	107.81
400.389	88.81
400.613	78.81
400.837	86.81
401.062	92.81
401.286	82.81
401.51	78.81
401.734	103.81
401.958	99.81
402.182	125.81
402.406	139.81
402.63	113.81
402.854	104.81
403.078	88.81
403.302	83.81
403.526	70.81
403.75	91.81
403.974	90.81
404.198	76.81
404.422	81.81
404.645	96.81
404.869	102.81
405.093	100.81
405.317	105.81
405.541	92.81
405.765	108.81
405.988	122.81
406.212	154.81
406.436	193.81
406.66	130.81
406.883	93.81
407.107	82.81
407.331	93.81
407.555	99.81
407.778	99.81
408.002	91.81
408.226	95.81
408.449	94.81
408.673	84.81
408.896	87.81
409.12	85.81
409.344	94.81
409.567	80.81
409.791	99.81
410.014	108.81
410.238	101.81
410.461	96.81
410.685	96.81
410.908	86.81
411.132	96.81
411.355	92.81
411.578	90.81
411.802	94.81
412.025	90.81
412.249	105.81
412.472	85.81
412.695	114.81
412.919	100.81
413.142	97.81
413.365	85.81
413.589	93.81
413.812	75.81
414.035	94.81
414.258	87.81
414.482	85.81
414.705	102.81
414.928	89.81
415.151	88.81
415.374	85.81
415.597	97.81
415.821	88.81
416.044	80.81
416.267	95.81
416.49	91.81
416.713	96.81
416.936	78.81
417.159	92.81
417.382	90.81
417.605	91.81
417.828	82.81
418.051	103.81
418.274	88.81
418.497	93.81
418.72	94.81
418.943	93.81
419.166	85.81
419.389	92.81
419.611	79.81
419.834	83.81
420.057	82.81
420.28	90.81
420.503	85.81
420.726	82.81
420.948	94.81
421.171	83.81
421.394	95.81
421.617	93.81
421.839	93.81
422.062	97.81
422.285	106.81
422.507	82.81
422.73	106.81
422.953	92.81
423.175	84.81
423.398	98.81
423.621	89.81
423.843	94.81
424.066	74.81
424.288	98.81
424.511	76.81
424.733	86.81
424.956	95.81
425.178	100.81
425.401	103.81
425.623	92.81
425.846	95.81
426.068	102.81
426.291	97.81
426.513	98.81
426.735	88.81
426.958	92.81
427.18	111.81
427.402	124.81
427.625	150.81
427.847	149.81
428.069	136.81
428.292	108.81
428.514	78.81
428.736	92.81
428.958	88.81
429.181	89.81
429.403	94.81
429.625	69.81
429.847	94.81
430.069	89.81
430.292	87.81
430.514	89.81
430.736	88.81
430.958	73.81
431.18	86.81
431.402	90.81
431.624	93.81
431.846	91.81
432.068	90.81
432.29	88.81
432.512	88.81
432.734	86.81
432.956	102.81
433.178	105.81
433.4	86.81
433.622	108.81
433.844	89.81
434.066	95.81
434.287	89.81
434.509	88.81
434.731	79.81
434.953	104.81
435.175	90.81
435.397	94.81
435.618	102.81
435.84	100.81
436.062	110.81
436.284	98.81
436.505	88.81
436.727	95.81
436.949	92.81
437.17	74.81
437.392	78.81
437.614	87.81
437.835	90.81
438.057	117.81
438.278	105.81
438.5	102.81
438.721	115.81
438.943	94.81
439.165	82.81
439.386	100.81
439.608	94.81
439.829	105.81
440.05	117.81
440.272	137.81
440.493	103.81
440.715	89.81
440.936	88.81
441.158	86.81
441.379	103.81
441.6	101.81
441.822	96.81
442.043	89.81
442.264	104.81
442.486	101.81
442.707	88.81
442.928	98.81
443.149	122.81
443.371	121.81
443.592	103.81
443.813	102.81
444.034	93.81
444.255	92.81
444.476	95.81
444.698	82.81
444.919	91.81
445.14	115.81
445.361	100.81
445.582	118.81
445.803	119.81
446.024	134.81
446.245	140.81
446.466	112.81
446.687	94.81
446.908	95.81
447.129	83.81
447.35	80.81
447.571	99.81
447.792	94.81
448.013	87.81
448.234	101.81
448.455	93.81
448.675	112.81
448.896	126.81
449.117	85.81
449.338	103.81
449.559	120.81
449.779	133.81
450	97.81
450.221	92.81
450.442	97.81
450.662	90.81
450.883	103.81
451.104	100.81
451.324	76.81
451.545	97.81
451.766	82.81
451.986	89.81
452.207	92.81
452.428	104.81
452.648	100.81
452.869	110.81
453.089	101.81
453.31	110.81
453.53	94.81
453.751	94.81
453.971	98.81
454.192	90.81
454.412	98.81
454.633	85.81
454.853	86.81
455.073	92.81
455.294	82.81
455.514	90.81
455.734	81.81
455.955	82.81
456.175	101.81
456.395	93.81
456.616	75.81
456.836	86.81
457.056	81.81
457.276	81.81
457.497	85.81
457.717	94.81
457.937	93.81
458.157	85.81
458.377	85.81
458.598	111.81
458.818	152.81
459.038	151.81
459.258	104.81
459.478	88.81
459.698	89.81
459.918	88.81
460.138	89.81
460.358	88.81
460.578	80.81
460.798	92.81
461.018	86.81
461.238	81.81
461.458	86.81
461.678	93.81
461.898	98.81
462.118	87.81
462.338	88.81
462.558	94.81
462.777	93.81
462.997	76.81
463.217	69.81
463.437	84.81
463.657	64.81
463.876	86.81
464.096	100.81
464.316	97.81
464.536	103.81
464.755	79.81
464.975	116.81
465.195	145.81
465.414	151.81
465.634	88.81
465.854	78.81
466.073	96.81
466.293	85.81
466.512	88.81
466.732	77.81
466.951	96.81
467.171	105.81
467.391	88.81
467.61	101.81
467.829	93.81
468.049	146.81
468.268	155.81
468.488	94.81
468.707	88.81
468.927	89.81
469.146	91.81
469.365	75.81
469.585	88.81
469.804	106.81
470.023	80.81
470.243	83.81
470.462	87.81
470.681	111.81
470.901	79.81
471.12	87.81
471.339	101.81
471.558	107.81
471.777	92.81
471.997	126.81
472.216	223.81
472.435	373.81
472.654	152.81
472.873	91.81
473.092	99.81
473.311	95.81
473.53	85.81
473.749	83.81
473.968	95.81
474.187	102.81
474.406	117.81
474.625	81.81
474.844	85.81
475.063	99.81
475.282	100.81
475.501	78.81
475.72	94.81
475.939	86.81
476.158	76.81
476.377	73.81
476.596	84.81
476.814	88.81
477.033	103.81
477.252	97.81
477.471	98.81
477.69	87.81
477.908	86.81
478.127	102.81
478.346	103.81
478.564	90.81
478.783	95.81
479.002	101.81
479.22	85.81
479.439	96.81
479.658	95.81
479.876	97.81
480.095	97.81
480.313	94.81
480.532	95.81
480.751	122.81
480.969	224.81
481.188	612.81
481.406	408.81
481.624	125.81
481.843	110.81
482.061	96.81
482.28	103.81
482.498	89.81
482.717	82.81
482.935	79.81
483.153	94.81
483.372	72.81
483.59	86.81
483.808	88.81
484.027	92.81
484.245	96.81
484.463	109.81
484.681	102.81
484.9	92.81
485.118	89.81
485.336	97.81
485.554	94.81
485.772	97.81
485.99	101.81
486.209	107.81
486.427	104.81
486.645	110.81
486.863	129.81
487.081	101.81
487.299	99.81
487.517	99.81
487.735	93.81
487.953	95.81
488.171	100.81
488.389	86.81
488.607	109.81
488.825	96.81
489.043	76.81
489.261	86.81
489.479	100.81
489.696	93.81
489.914	102.81
490.132	92.81
490.35	89.81
490.568	100.81
490.786	80.81
491.003	94.81
491.221	105.81
491.439	93.81
491.657	82.81
491.874	104.81
492.092	94.81
492.31	83.81
492.527	84.81
492.745	96.81
492.963	88.81
493.18	92.81
493.398	93.81
493.615	95.81
493.833	107.81
494.05	95.81
494.268	95.81
494.485	84.81
494.703	85.81
494.92	92.81
495.138	85.81
495.355	96.81
495.573	94.81
495.79	85.81
496.008	108.81
496.225	88.81
496.442	80.81
496.66	89.81
496.877	102.81
497.094	92.81
497.312	92.81
497.529	78.81
497.746	110.81
497.963	96.81
498.181	71.81
498.398	105.81
498.615	102.81
498.832	109.81
499.049	96.81
499.267	83.81
499.484	83.81
499.701	90.81
499.918	88.81
500.135	91.81
500.352	106.81
500.569	86.81
500.786	106.81
501.003	84.81
501.22	97.81
501.437	87.81
501.654	94.81
501.871	94.81
502.088	82.81
502.305	87.81
502.522	91.81
502.739	97.81
502.956	86.81
503.172	103.81
503.389	98.81
503.606	93.81
503.823	88.81
504.04	89.81
504.256	97.81
504.473	79.81
504.69	100.81
504.907	82.81
505.123	95.81
505.34	99.81
505.557	101.81
505.773	113.81
505.99	93.81
506.207	93.81
506.423	97.81
506.64	94.81
506.856	106.81
507.073	87.81
507.289	73.81
507.506	87.81
507.722	104.81
507.939	98.81
508.155	103.81
508.372	98.81
508.588	103.81
508.805	94.81
509.021	88.81
509.238	83.81
509.454	95.81
509.67	86.81
509.887	96.81
510.103	140.81
510.319	193.81
510.536	634.81
510.752	2028.81
510.968	594.81
511.184	156.81
511.401	94.81
511.617	79.81
511.833	82.81
512.049	94.81
512.265	94.81
512.481	83.81
512.698	100.81
512.914	85.81
513.13	101.81
513.346	94.81
513.562	80.81
513.778	98.81
513.994	90.81
514.21	99.81
514.426	93.81
514.642	120.81
514.858	109.81
515.074	154.81
515.29	374.81
