Data from Circ_2010_H10_HRD10591_00076.txt Node
Date: Wed Jan 03 10:09:56 EST 2024
User: Yrep
Spectrometer: HR+D1059
Trigger mode: 1
Integration Time (sec): 1.000000E-1
Scans to average: 1
Electric dark correction enabled: true
Nonlinearity correction enabled: false
Boxcar width: 0
XAxis mode: Wavelengths
Number of Pixels in Spectrum: 2048
>>>>>Begin Spectral Data<<<<<
223.165	-15.19
223.4	-15.19
223.635	-15.19
223.869	-17.19
224.104	-22.19
224.338	-28.19
224.573	-11.19
224.808	-17.19
225.042	-13.19
225.277	4.81
225.511	-3.19
225.746	-0.19
225.98	-3.19
226.215	18.81
226.449	21.81
226.683	20.81
226.918	20.81
227.152	43.81
227.387	34.81
227.621	39.81
227.856	58.81
228.09	31.81
228.324	32.81
228.559	56.81
228.793	51.81
229.027	68.81
229.262	68.81
229.496	74.81
229.73	76.81
229.964	78.81
230.199	62.81
230.433	69.81
230.667	85.81
230.901	76.81
231.136	83.81
231.37	89.81
231.604	70.81
231.838	69.81
232.072	87.81
232.306	83.81
232.541	82.81
232.775	65.81
233.009	72.81
233.243	66.81
233.477	83.81
233.711	78.81
233.945	74.81
234.179	67.81
234.413	81.81
234.647	80.81
234.881	68.81
235.115	84.81
235.349	93.81
235.583	78.81
235.817	77.81
236.051	80.81
236.285	85.81
236.519	71.81
236.753	64.81
236.987	82.81
237.221	76.81
237.455	81.81
237.689	83.81
237.922	86.81
238.156	80.81
238.39	83.81
238.624	80.81
238.858	70.81
239.091	74.81
239.325	72.81
239.559	75.81
239.793	90.81
240.027	86.81
240.26	67.81
240.494	77.81
240.728	75.81
240.961	74.81
241.195	83.81
241.429	82.81
241.662	79.81
241.896	77.81
242.13	77.81
242.363	73.81
242.597	57.81
242.83	80.81
243.064	84.81
243.298	76.81
243.531	82.81
243.765	85.81
243.998	91.81
244.232	86.81
244.465	78.81
244.699	78.81
244.932	76.81
245.166	79.81
245.399	80.81
245.633	85.81
245.866	91.81
246.099	77.81
246.333	68.81
246.566	64.81
246.8	78.81
247.033	63.81
247.266	76.81
247.5	65.81
247.733	77.81
247.966	86.81
248.2	95.81
248.433	82.81
248.666	76.81
248.899	71.81
249.133	74.81
249.366	97.81
249.599	93.81
249.832	73.81
250.066	63.81
250.299	84.81
250.532	76.81
250.765	76.81
250.998	73.81
251.231	69.81
251.465	85.81
251.698	64.81
251.931	84.81
252.164	96.81
252.397	70.81
252.63	84.81
252.863	79.81
253.096	74.81
253.329	83.81
253.562	71.81
253.795	78.81
254.028	74.81
254.261	78.81
254.494	62.81
254.727	76.81
254.96	72.81
255.193	75.81
255.426	73.81
255.659	79.81
255.892	77.81
256.124	72.81
256.357	83.81
256.59	82.81
256.823	83.81
257.056	80.81
257.289	86.81
257.521	90.81
257.754	88.81
257.987	73.81
258.22	83.81
258.452	80.81
258.685	84.81
258.918	89.81
259.151	84.81
259.383	82.81
259.616	77.81
259.849	89.81
260.081	95.81
260.314	86.81
260.547	82.81
260.779	77.81
261.012	81.81
261.244	93.81
261.477	90.81
261.71	79.81
261.942	96.81
262.175	107.81
262.407	79.81
262.64	83.81
262.872	80.81
263.105	84.81
263.337	92.81
263.57	93.81
263.802	86.81
264.035	80.81
264.267	83.81
264.499	76.81
264.732	75.81
264.964	69.81
265.197	90.81
265.429	88.81
265.661	95.81
265.894	72.81
266.126	90.81
266.358	79.81
266.591	77.81
266.823	80.81
267.055	87.81
267.287	91.81
267.52	75.81
267.752	86.81
267.984	84.81
268.216	74.81
268.448	79.81
268.681	80.81
268.913	76.81
269.145	85.81
269.377	86.81
269.609	95.81
269.841	85.81
270.073	84.81
270.306	96.81
270.538	86.81
270.77	96.81
271.002	82.81
271.234	73.81
271.466	79.81
271.698	86.81
271.93	79.81
272.162	89.81
272.394	87.81
272.626	71.81
272.858	84.81
273.09	84.81
273.322	80.81
273.553	73.81
273.785	78.81
274.017	84.81
274.249	102.81
274.481	86.81
274.713	86.81
274.945	83.81
275.176	96.81
275.408	95.81
275.64	86.81
275.872	92.81
276.104	99.81
276.335	85.81
276.567	92.81
276.799	115.81
277.031	114.81
277.262	95.81
277.494	102.81
277.726	80.81
277.957	88.81
278.189	86.81
278.421	81.81
278.652	91.81
278.884	86.81
279.115	78.81
279.347	93.81
279.579	72.81
279.81	104.81
280.042	76.81
280.273	110.81
280.505	109.81
280.736	97.81
280.968	71.81
281.199	87.81
281.431	87.81
281.662	82.81
281.894	98.81
282.125	100.81
282.356	115.81
282.588	127.81
282.819	103.81
283.051	77.81
283.282	92.81
283.513	87.81
283.745	85.81
283.976	94.81
284.207	76.81
284.439	86.81
284.67	86.81
284.901	75.81
285.132	87.81
285.364	83.81
285.595	79.81
285.826	84.81
286.057	77.81
286.288	81.81
286.52	72.81
286.751	67.81
286.982	78.81
287.213	87.81
287.444	74.81
287.675	87.81
287.906	99.81
288.138	89.81
288.369	110.81
288.6	89.81
288.831	77.81
289.062	91.81
289.293	84.81
289.524	81.81
289.755	95.81
289.986	73.81
290.217	92.81
290.448	88.81
290.679	94.81
290.91	83.81
291.141	83.81
291.371	71.81
291.602	75.81
291.833	87.81
292.064	78.81
292.295	91.81
292.526	98.81
292.757	94.81
292.987	82.81
293.218	77.81
293.449	88.81
293.68	92.81
293.91	76.81
294.141	89.81
294.372	90.81
294.603	99.81
294.833	91.81
295.064	76.81
295.295	90.81
295.525	90.81
295.756	87.81
295.987	100.81
296.217	118.81
296.448	123.81
296.679	84.81
296.909	87.81
297.14	88.81
297.37	88.81
297.601	82.81
297.831	77.81
298.062	80.81
298.292	89.81
298.523	85.81
298.753	92.81
298.984	87.81
299.214	99.81
299.445	95.81
299.675	100.81
299.905	91.81
300.136	91.81
300.366	96.81
300.597	75.81
300.827	94.81
301.057	89.81
301.288	99.81
301.518	89.81
301.748	77.81
301.979	101.81
302.209	62.81
302.439	78.81
302.669	93.81
302.9	75.81
303.13	107.81
303.36	93.81
303.59	104.81
303.82	94.81
304.051	96.81
304.281	94.81
304.511	91.81
304.741	92.81
304.971	86.81
305.201	87.81
305.431	94.81
305.661	80.81
305.891	105.81
306.121	91.81
306.352	99.81
306.582	94.81
306.812	99.81
307.042	93.81
307.272	86.81
307.502	100.81
307.731	108.81
307.961	100.81
308.191	96.81
308.421	78.81
308.651	90.81
308.881	84.81
309.111	105.81
309.341	92.81
309.571	102.81
309.8	85.81
310.03	95.81
310.26	106.81
310.49	91.81
310.72	88.81
310.949	98.81
311.179	87.81
311.409	89.81
311.639	94.81
311.868	96.81
312.098	95.81
312.328	104.81
312.557	101.81
312.787	92.81
313.017	102.81
313.246	96.81
313.476	98.81
313.706	88.81
313.935	89.81
314.165	90.81
314.394	94.81
314.624	86.81
314.853	84.81
315.083	94.81
315.312	98.81
315.542	97.81
315.771	78.81
316.001	80.81
316.23	94.81
316.46	99.81
316.689	94.81
316.919	91.81
317.148	107.81
317.377	99.81
317.607	91.81
317.836	91.81
318.065	80.81
318.295	93.81
318.524	78.81
318.753	93.81
318.983	109.81
319.212	103.81
319.441	103.81
319.67	103.81
319.9	89.81
320.129	85.81
320.358	90.81
320.587	91.81
320.816	100.81
321.046	101.81
321.275	95.81
321.504	97.81
321.733	92.81
321.962	102.81
322.191	106.81
322.42	105.81
322.649	89.81
322.878	96.81
323.108	114.81
323.337	109.81
323.566	143.81
323.795	140.81
324.024	176.81
324.253	341.81
324.482	704.81
324.71	1445.81
324.939	1905.81
325.168	693.81
325.397	218.81
325.626	144.81
325.855	115.81
326.084	110.81
326.313	131.81
326.542	156.81
326.77	206.81
326.999	413.81
327.228	826.81
327.457	1510.81
327.686	1211.81
327.914	358.81
328.143	226.81
328.372	238.81
328.6	172.81
328.829	123.81
329.058	139.81
329.287	142.81
329.515	111.81
329.744	129.81
329.972	167.81
330.201	256.81
330.43	360.81
330.658	193.81
330.887	141.81
331.115	134.81
331.344	100.81
331.572	91.81
331.801	106.81
332.03	94.81
332.258	96.81
332.486	93.81
332.715	101.81
332.943	106.81
333.172	86.81
333.4	108.81
333.629	108.81
333.857	116.81
334.085	175.81
334.314	258.81
334.542	456.81
334.771	412.81
334.999	163.81
335.227	109.81
335.455	98.81
335.684	93.81
335.912	85.81
336.14	103.81
336.369	102.81
336.597	92.81
336.825	79.81
337.053	70.81
337.281	76.81
337.51	87.81
337.738	88.81
337.966	82.81
338.194	105.81
338.422	86.81
338.65	107.81
338.878	87.81
339.106	85.81
339.334	85.81
339.562	88.81
339.79	101.81
340.018	85.81
340.246	89.81
340.474	90.81
340.702	98.81
340.93	104.81
341.158	97.81
341.386	96.81
341.614	96.81
341.842	80.81
342.07	100.81
342.298	94.81
342.526	101.81
342.754	86.81
342.981	68.81
343.209	85.81
343.437	91.81
343.665	72.81
343.893	86.81
344.12	87.81
344.348	90.81
344.576	90.81
344.804	99.81
345.031	95.81
345.259	79.81
345.487	109.81
345.714	84.81
345.942	91.81
346.17	98.81
346.397	101.81
346.625	104.81
346.853	95.81
347.08	102.81
347.308	86.81
347.535	93.81
347.763	81.81
347.99	93.81
348.218	103.81
348.445	93.81
348.673	107.81
348.9	89.81
349.128	89.81
349.355	84.81
349.583	96.81
349.81	95.81
350.037	95.81
350.265	83.81
350.492	93.81
350.72	86.81
350.947	90.81
351.174	112.81
351.402	102.81
351.629	98.81
351.856	89.81
352.083	105.81
352.311	99.81
352.538	105.81
352.765	124.81
352.992	106.81
353.22	96.81
353.447	100.81
353.674	101.81
353.901	83.81
354.128	103.81
354.355	95.81
354.583	95.81
354.81	114.81
355.037	95.81
355.264	95.81
355.491	83.81
355.718	99.81
355.945	95.81
356.172	98.81
356.399	95.81
356.626	102.81
356.853	76.81
357.08	90.81
357.307	87.81
357.534	79.81
357.761	87.81
357.988	98.81
358.215	89.81
358.441	95.81
358.668	88.81
358.895	76.81
359.122	85.81
359.349	84.81
359.576	96.81
359.802	97.81
360.029	98.81
360.256	93.81
360.483	83.81
360.709	80.81
360.936	98.81
361.163	92.81
361.39	88.81
361.616	96.81
361.843	83.81
362.07	92.81
362.296	80.81
362.523	89.81
362.749	78.81
362.976	89.81
363.203	80.81
363.429	83.81
363.656	92.81
363.882	89.81
364.109	82.81
364.335	80.81
364.562	94.81
364.788	90.81
365.015	91.81
365.241	107.81
365.468	95.81
365.694	94.81
365.92	90.81
366.147	79.81
366.373	72.81
366.599	79.81
366.826	89.81
367.052	90.81
367.278	100.81
367.505	87.81
367.731	105.81
367.957	90.81
368.184	79.81
368.41	106.81
368.636	98.81
368.862	98.81
369.089	94.81
369.315	86.81
369.541	87.81
369.767	77.81
369.993	87.81
370.219	98.81
370.445	66.81
370.672	91.81
370.898	86.81
371.124	102.81
371.35	95.81
371.576	89.81
371.802	78.81
372.028	90.81
372.254	77.81
372.48	74.81
372.706	76.81
372.932	82.81
373.158	92.81
373.384	93.81
373.61	92.81
373.835	98.81
374.061	77.81
374.287	77.81
374.513	90.81
374.739	84.81
374.965	80.81
375.191	73.81
375.416	96.81
375.642	95.81
375.868	93.81
376.094	87.81
376.319	88.81
376.545	78.81
376.771	83.81
376.997	89.81
377.222	83.81
377.448	79.81
377.674	92.81
377.899	87.81
378.125	81.81
378.35	94.81
378.576	80.81
378.802	81.81
379.027	88.81
379.253	91.81
379.478	89.81
379.704	86.81
379.929	86.81
380.155	86.81
380.38	80.81
380.606	92.81
380.831	87.81
381.057	91.81
381.282	88.81
381.507	95.81
381.733	79.81
381.958	93.81
382.184	95.81
382.409	108.81
382.634	95.81
382.86	108.81
383.085	93.81
383.31	92.81
383.535	103.81
383.761	90.81
383.986	86.81
384.211	96.81
384.436	91.81
384.662	100.81
384.887	85.81
385.112	100.81
385.337	85.81
385.562	96.81
385.787	115.81
386.013	114.81
386.238	101.81
386.463	111.81
386.688	96.81
386.913	100.81
387.138	100.81
387.363	93.81
387.588	114.81
387.813	94.81
388.038	94.81
388.263	99.81
388.488	78.81
388.713	97.81
388.938	95.81
389.163	87.81
389.387	87.81
389.612	89.81
389.837	85.81
390.062	98.81
390.287	104.81
390.512	94.81
390.736	78.81
390.961	88.81
391.186	85.81
391.411	92.81
391.636	79.81
391.86	86.81
392.085	69.81
392.31	92.81
392.534	91.81
392.759	95.81
392.984	74.81
393.208	102.81
393.433	98.81
393.658	88.81
393.882	75.81
394.107	86.81
394.331	79.81
394.556	92.81
394.78	84.81
395.005	68.81
395.229	87.81
395.454	86.81
395.678	78.81
395.903	76.81
396.127	80.81
396.352	62.81
396.576	71.81
396.801	84.81
397.025	99.81
397.249	92.81
397.474	79.81
397.698	84.81
397.922	80.81
398.147	89.81
398.371	78.81
398.595	93.81
398.82	84.81
399.044	83.81
399.268	74.81
399.492	89.81
399.717	76.81
399.941	93.81
400.165	90.81
400.389	93.81
400.613	85.81
400.837	83.81
401.062	99.81
401.286	103.81
401.51	84.81
401.734	87.81
401.958	83.81
402.182	110.81
402.406	130.81
402.63	112.81
402.854	88.81
403.078	88.81
403.302	84.81
403.526	78.81
403.75	79.81
403.974	76.81
404.198	87.81
404.422	83.81
404.645	78.81
404.869	86.81
405.093	93.81
405.317	120.81
405.541	114.81
405.765	98.81
405.988	123.81
406.212	156.81
406.436	187.81
406.66	135.81
406.883	99.81
407.107	101.81
407.331	92.81
407.555	79.81
407.778	80.81
408.002	85.81
408.226	90.81
408.449	91.81
408.673	99.81
408.896	75.81
409.12	84.81
409.344	90.81
409.567	87.81
409.791	91.81
410.014	102.81
410.238	74.81
410.461	76.81
410.685	78.81
410.908	97.81
411.132	105.81
411.355	105.81
411.578	85.81
411.802	92.81
412.025	84.81
412.249	83.81
412.472	96.81
412.695	109.81
412.919	88.81
413.142	98.81
413.365	76.81
413.589	79.81
413.812	83.81
414.035	81.81
414.258	93.81
414.482	91.81
414.705	100.81
414.928	90.81
415.151	87.81
415.374	82.81
415.597	92.81
415.821	87.81
416.044	79.81
416.267	71.81
416.49	79.81
416.713	86.81
416.936	83.81
417.159	84.81
417.382	87.81
417.605	86.81
417.828	88.81
418.051	91.81
418.274	87.81
418.497	94.81
418.72	99.81
418.943	85.81
419.166	85.81
419.389	89.81
419.611	84.81
419.834	66.81
420.057	88.81
420.28	82.81
420.503	89.81
420.726	88.81
420.948	93.81
421.171	83.81
421.394	87.81
421.617	79.81
421.839	82.81
422.062	79.81
422.285	94.81
422.507	84.81
422.73	108.81
422.953	99.81
423.175	81.81
423.398	76.81
423.621	82.81
423.843	88.81
424.066	85.81
424.288	88.81
424.511	87.81
424.733	87.81
424.956	94.81
425.178	83.81
425.401	98.81
425.623	91.81
425.846	85.81
426.068	83.81
426.291	87.81
426.513	84.81
426.735	100.81
426.958	84.81
427.18	100.81
427.402	127.81
427.625	148.81
427.847	143.81
428.069	133.81
428.292	100.81
428.514	93.81
428.736	92.81
428.958	87.81
429.181	94.81
429.403	76.81
429.625	88.81
429.847	94.81
430.069	97.81
430.292	82.81
430.514	87.81
430.736	77.81
430.958	77.81
431.18	77.81
431.402	88.81
431.624	85.81
431.846	86.81
432.068	97.81
432.29	89.81
432.512	80.81
432.734	89.81
432.956	86.81
433.178	93.81
433.4	96.81
433.622	88.81
433.844	92.81
434.066	86.81
434.287	80.81
434.509	75.81
434.731	78.81
434.953	90.81
435.175	74.81
435.397	92.81
435.618	94.81
435.84	95.81
436.062	102.81
436.284	118.81
436.505	93.81
436.727	101.81
436.949	93.81
437.17	93.81
437.392	94.81
437.614	92.81
437.835	94.81
438.057	99.81
438.278	98.81
438.5	112.81
438.721	116.81
438.943	109.81
439.165	78.81
439.386	70.81
439.608	86.81
439.829	80.81
440.05	109.81
440.272	131.81
440.493	103.81
440.715	82.81
440.936	87.81
441.158	88.81
441.379	92.81
441.6	94.81
441.822	91.81
442.043	88.81
442.264	99.81
442.486	101.81
442.707	96.81
442.928	97.81
443.149	119.81
443.371	121.81
443.592	94.81
443.813	104.81
444.034	104.81
444.255	90.81
444.476	96.81
444.698	82.81
444.919	90.81
445.14	125.81
445.361	128.81
445.582	114.81
445.803	144.81
446.024	139.81
446.245	129.81
446.466	101.81
446.687	72.81
446.908	79.81
447.129	74.81
447.35	84.81
447.571	99.81
447.792	79.81
448.013	92.81
448.234	98.81
448.455	89.81
448.675	120.81
448.896	134.81
449.117	92.81
449.338	86.81
449.559	120.81
449.779	138.81
450	86.81
450.221	75.81
450.442	86.81
450.662	97.81
450.883	102.81
451.104	98.81
451.324	100.81
451.545	86.81
451.766	76.81
451.986	93.81
452.207	78.81
452.428	95.81
452.648	83.81
452.869	96.81
453.089	104.81
453.31	115.81
453.53	79.81
453.751	79.81
453.971	91.81
454.192	103.81
454.412	75.81
454.633	86.81
454.853	84.81
455.073	80.81
455.294	92.81
455.514	106.81
455.734	95.81
455.955	85.81
456.175	86.81
456.395	71.81
456.616	75.81
456.836	87.81
457.056	91.81
457.276	83.81
457.497	89.81
457.717	75.81
457.937	82.81
458.157	90.81
458.377	101.81
458.598	102.81
458.818	126.81
459.038	134.81
459.258	110.81
459.478	75.81
459.698	78.81
459.918	84.81
460.138	80.81
460.358	68.81
460.578	72.81
460.798	74.81
461.018	83.81
461.238	78.81
461.458	85.81
461.678	88.81
461.898	90.81
462.118	79.81
462.338	89.81
462.558	80.81
462.777	86.81
462.997	78.81
463.217	79.81
463.437	89.81
463.657	85.81
463.876	89.81
464.096	94.81
464.316	93.81
464.536	89.81
464.755	83.81
464.975	99.81
465.195	146.81
465.414	134.81
465.634	108.81
465.854	88.81
466.073	94.81
466.293	91.81
466.512	73.81
466.732	85.81
466.951	89.81
467.171	99.81
467.391	98.81
467.61	105.81
467.829	120.81
468.049	165.81
468.268	227.81
468.488	118.81
468.707	94.81
468.927	79.81
469.146	83.81
469.365	94.81
469.585	87.81
469.804	85.81
470.023	98.81
470.243	92.81
470.462	103.81
470.681	99.81
470.901	89.81
471.12	85.81
471.339	82.81
471.558	89.81
471.777	98.81
471.997	126.81
472.216	288.81
472.435	544.81
472.654	197.81
472.873	90.81
473.092	98.81
473.311	92.81
473.53	104.81
473.749	88.81
473.968	74.81
474.187	96.81
474.406	99.81
474.625	78.81
474.844	88.81
475.063	83.81
475.282	98.81
475.501	61.81
475.72	90.81
475.939	80.81
476.158	74.81
476.377	85.81
476.596	77.81
476.814	90.81
477.033	75.81
477.252	77.81
477.471	87.81
477.69	93.81
477.908	88.81
478.127	90.81
478.346	88.81
478.564	98.81
478.783	94.81
479.002	95.81
479.22	90.81
479.439	97.81
479.658	100.81
479.876	80.81
480.095	90.81
480.313	94.81
480.532	100.81
480.751	127.81
480.969	282.81
481.188	934.81
481.406	598.81
481.624	144.81
481.843	91.81
482.061	98.81
482.28	104.81
482.498	87.81
482.717	91.81
482.935	86.81
483.153	90.81
483.372	82.81
483.59	82.81
483.808	77.81
484.027	94.81
484.245	92.81
484.463	90.81
484.681	89.81
484.9	80.81
485.118	94.81
485.336	92.81
485.554	101.81
485.772	107.81
485.99	102.81
486.209	107.81
486.427	107.81
486.645	92.81
486.863	88.81
487.081	99.81
487.299	86.81
487.517	90.81
487.735	109.81
487.953	92.81
488.171	94.81
488.389	102.81
488.607	98.81
488.825	90.81
489.043	79.81
489.261	89.81
489.479	85.81
489.696	85.81
489.914	98.81
490.132	84.81
490.35	91.81
490.568	99.81
490.786	87.81
491.003	91.81
491.221	94.81
491.439	78.81
491.657	93.81
491.874	89.81
492.092	92.81
492.31	86.81
492.527	88.81
492.745	90.81
492.963	85.81
493.18	87.81
493.398	94.81
493.615	97.81
493.833	86.81
494.05	95.81
494.268	91.81
494.485	92.81
494.703	88.81
494.92	75.81
495.138	99.81
495.355	83.81
495.573	80.81
495.79	79.81
496.008	74.81
496.225	80.81
496.442	87.81
496.66	82.81
496.877	85.81
497.094	92.81
497.312	75.81
497.529	85.81
497.746	84.81
497.963	87.81
498.181	98.81
498.398	101.81
498.615	86.81
498.832	98.81
499.049	89.81
499.267	100.81
499.484	94.81
499.701	95.81
499.918	96.81
500.135	89.81
500.352	95.81
500.569	81.81
500.786	71.81
501.003	93.81
501.22	94.81
501.437	90.81
501.654	87.81
501.871	90.81
502.088	90.81
502.305	91.81
502.522	105.81
502.739	90.81
502.956	103.81
503.172	79.81
503.389	101.81
503.606	99.81
503.823	92.81
504.04	70.81
504.256	84.81
504.473	99.81
504.69	88.81
504.907	100.81
505.123	87.81
505.34	91.81
505.557	90.81
505.773	95.81
505.99	86.81
506.207	73.81
506.423	98.81
506.64	94.81
506.856	91.81
507.073	80.81
507.289	90.81
507.506	102.81
507.722	104.81
507.939	117.81
508.155	92.81
508.372	93.81
508.588	87.81
508.805	82.81
509.021	94.81
509.238	99.81
509.454	81.81
509.67	83.81
509.887	96.81
510.103	105.81
510.319	169.81
510.536	518.81
510.752	1676.81
510.968	512.81
511.184	137.81
511.401	109.81
511.617	92.81
511.833	98.81
512.049	94.81
512.265	84.81
512.481	97.81
512.698	86.81
512.914	74.81
513.13	93.81
513.346	88.81
513.562	86.81
513.778	84.81
513.994	93.81
514.21	109.81
514.426	109.81
514.642	123.81
514.858	99.81
515.074	141.81
515.29	324.81
515.506	1086.81
515.721	442.81
515.937	121.81
516.153	104.81
516.369	108.81
516.585	99.81
