Data from Circ_2010_H10_HRD10591_00027.txt Node
Date: Wed Jan 03 10:09:46 EST 2024
User: Yrep
Spectrometer: HR+D1059
Trigger mode: 1
Integration Time (sec): 1.000000E-1
Scans to average: 1
Electric dark correction enabled: true
Nonlinearity correction enabled: false
Boxcar width: 0
XAxis mode: Wavelengths
Number of Pixels in Spectrum: 2048
>>>>>Begin Spectral Data<<<<<
223.165	-20.25
223.4	-20.25
223.635	-20.25
223.869	-33.25
224.104	-20.25
224.338	-15.25
224.573	-20.25
224.808	-9.25
225.042	6.75
225.277	-0.25
225.511	10.75
225.746	-3.25
225.98	-0.25
226.215	6.75
226.449	31.75
226.683	3.75
226.918	27.75
227.152	34.75
227.387	36.75
227.621	37.75
227.856	39.75
228.09	44.75
228.324	61.75
228.559	68.75
228.793	66.75
229.027	60.75
229.262	73.75
229.496	74.75
229.73	84.75
229.964	79.75
230.199	74.75
230.433	76.75
230.667	80.75
230.901	77.75
231.136	81.75
231.37	73.75
231.604	85.75
231.838	74.75
232.072	78.75
232.306	82.75
232.541	94.75
232.775	88.75
233.009	88.75
233.243	89.75
233.477	78.75
233.711	73.75
233.945	88.75
234.179	72.75
234.413	75.75
234.647	74.75
234.881	63.75
235.115	75.75
235.349	83.75
235.583	77.75
235.817	81.75
236.051	86.75
236.285	73.75
236.519	79.75
236.753	90.75
236.987	86.75
237.221	83.75
237.455	80.75
237.689	69.75
237.922	76.75
238.156	90.75
238.39	74.75
238.624	77.75
238.858	86.75
239.091	70.75
239.325	90.75
239.559	75.75
239.793	70.75
240.027	74.75
240.26	78.75
240.494	70.75
240.728	83.75
240.961	82.75
241.195	82.75
241.429	79.75
241.662	67.75
241.896	81.75
242.13	73.75
242.363	88.75
242.597	87.75
242.83	80.75
243.064	71.75
243.298	82.75
243.531	75.75
243.765	74.75
243.998	81.75
244.232	84.75
244.465	90.75
244.699	89.75
244.932	91.75
245.166	73.75
245.399	65.75
245.633	72.75
245.866	72.75
246.099	81.75
246.333	71.75
246.566	89.75
246.8	79.75
247.033	81.75
247.266	81.75
247.5	88.75
247.733	82.75
247.966	94.75
248.2	89.75
248.433	79.75
248.666	84.75
248.899	77.75
249.133	88.75
249.366	99.75
249.599	86.75
249.832	68.75
250.066	77.75
250.299	71.75
250.532	66.75
250.765	70.75
250.998	89.75
251.231	87.75
251.465	81.75
251.698	76.75
251.931	84.75
252.164	91.75
252.397	72.75
252.63	86.75
252.863	83.75
253.096	88.75
253.329	81.75
253.562	71.75
253.795	87.75
254.028	82.75
254.261	79.75
254.494	77.75
254.727	81.75
254.96	81.75
255.193	89.75
255.426	80.75
255.659	78.75
255.892	84.75
256.124	87.75
256.357	84.75
256.59	84.75
256.823	92.75
257.056	91.75
257.289	83.75
257.521	81.75
257.754	79.75
257.987	75.75
258.22	94.75
258.452	76.75
258.685	75.75
258.918	77.75
259.151	84.75
259.383	95.75
259.616	80.75
259.849	78.75
260.081	90.75
260.314	89.75
260.547	88.75
260.779	87.75
261.012	79.75
261.244	89.75
261.477	90.75
261.71	99.75
261.942	112.75
262.175	108.75
262.407	75.75
262.64	81.75
262.872	93.75
263.105	84.75
263.337	82.75
263.57	96.75
263.802	72.75
264.035	58.75
264.267	80.75
264.499	94.75
264.732	93.75
264.964	88.75
265.197	82.75
265.429	92.75
265.661	83.75
265.894	93.75
266.126	86.75
266.358	74.75
266.591	76.75
266.823	83.75
267.055	81.75
267.287	83.75
267.52	78.75
267.752	81.75
267.984	80.75
268.216	94.75
268.448	91.75
268.681	86.75
268.913	85.75
269.145	103.75
269.377	78.75
269.609	84.75
269.841	89.75
270.073	87.75
270.306	64.75
270.538	85.75
270.77	97.75
271.002	80.75
271.234	89.75
271.466	81.75
271.698	86.75
271.93	95.75
272.162	89.75
272.394	92.75
272.626	88.75
272.858	80.75
273.09	82.75
273.322	91.75
273.553	87.75
273.785	95.75
274.017	78.75
274.249	85.75
274.481	88.75
274.713	81.75
274.945	87.75
275.176	89.75
275.408	74.75
275.64	82.75
275.872	79.75
276.104	83.75
276.335	95.75
276.567	95.75
276.799	89.75
277.031	105.75
277.262	84.75
277.494	94.75
277.726	84.75
277.957	90.75
278.189	92.75
278.421	91.75
278.652	88.75
278.884	68.75
279.115	81.75
279.347	73.75
279.579	88.75
279.81	76.75
280.042	90.75
280.273	105.75
280.505	104.75
280.736	84.75
280.968	84.75
281.199	86.75
281.431	87.75
281.662	94.75
281.894	95.75
282.125	95.75
282.356	104.75
282.588	116.75
282.819	114.75
283.051	79.75
283.282	98.75
283.513	89.75
283.745	90.75
283.976	78.75
284.207	94.75
284.439	73.75
284.67	83.75
284.901	92.75
285.132	97.75
285.364	93.75
285.595	95.75
285.826	73.75
286.057	93.75
286.288	75.75
286.52	90.75
286.751	97.75
286.982	98.75
287.213	90.75
287.444	84.75
287.675	80.75
287.906	87.75
288.138	84.75
288.369	89.75
288.6	96.75
288.831	100.75
289.062	88.75
289.293	91.75
289.524	86.75
289.755	72.75
289.986	84.75
290.217	83.75
290.448	91.75
290.679	90.75
290.91	92.75
291.141	90.75
291.371	87.75
291.602	86.75
291.833	86.75
292.064	75.75
292.295	82.75
292.526	91.75
292.757	98.75
292.987	90.75
293.218	98.75
293.449	93.75
293.68	87.75
293.91	96.75
294.141	86.75
294.372	68.75
294.603	91.75
294.833	107.75
295.064	96.75
295.295	89.75
295.525	100.75
295.756	108.75
295.987	104.75
296.217	121.75
296.448	105.75
296.679	84.75
296.909	95.75
297.14	80.75
297.37	89.75
297.601	81.75
297.831	82.75
298.062	86.75
298.292	100.75
298.523	97.75
298.753	84.75
298.984	89.75
299.214	88.75
299.445	80.75
299.675	82.75
299.905	100.75
300.136	82.75
300.366	90.75
300.597	96.75
300.827	94.75
301.057	102.75
301.288	100.75
301.518	91.75
301.748	74.75
301.979	111.75
302.209	102.75
302.439	86.75
302.669	92.75
302.9	73.75
303.13	97.75
303.36	89.75
303.59	84.75
303.82	95.75
304.051	94.75
304.281	89.75
304.511	108.75
304.741	91.75
304.971	98.75
305.201	82.75
305.431	95.75
305.661	84.75
305.891	99.75
306.121	96.75
306.352	102.75
306.582	90.75
306.812	88.75
307.042	96.75
307.272	98.75
307.502	97.75
307.731	107.75
307.961	92.75
308.191	95.75
308.421	95.75
308.651	83.75
308.881	93.75
309.111	95.75
309.341	107.75
309.571	102.75
309.8	103.75
310.03	98.75
310.26	96.75
310.49	112.75
310.72	84.75
310.949	98.75
311.179	100.75
311.409	108.75
311.639	91.75
311.868	97.75
312.098	97.75
312.328	92.75
312.557	97.75
312.787	82.75
313.017	105.75
313.246	87.75
313.476	94.75
313.706	84.75
313.935	94.75
314.165	101.75
314.394	101.75
314.624	109.75
314.853	108.75
315.083	91.75
315.312	88.75
315.542	78.75
315.771	95.75
316.001	104.75
316.23	101.75
316.46	81.75
316.689	92.75
316.919	80.75
317.148	93.75
317.377	112.75
317.607	106.75
317.836	97.75
318.065	106.75
318.295	102.75
318.524	88.75
318.753	90.75
318.983	92.75
319.212	98.75
319.441	94.75
319.67	98.75
319.9	89.75
320.129	106.75
320.358	99.75
320.587	95.75
320.816	83.75
321.046	108.75
321.275	98.75
321.504	100.75
321.733	105.75
321.962	94.75
322.191	94.75
322.42	114.75
322.649	100.75
322.878	111.75
323.108	94.75
323.337	108.75
323.566	125.75
323.795	136.75
324.024	189.75
324.253	316.75
324.482	659.75
324.71	1265.75
324.939	1610.75
325.168	626.75
325.397	190.75
325.626	138.75
325.855	111.75
326.084	115.75
326.313	119.75
326.542	152.75
326.77	208.75
326.999	379.75
327.228	732.75
327.457	1335.75
327.686	1027.75
327.914	299.75
328.143	179.75
328.372	166.75
328.6	123.75
328.829	122.75
329.058	113.75
329.287	119.75
329.515	128.75
329.744	112.75
329.972	134.75
330.201	167.75
330.43	189.75
330.658	153.75
330.887	124.75
331.115	107.75
331.344	103.75
331.572	97.75
331.801	118.75
332.03	100.75
332.258	110.75
332.486	105.75
332.715	96.75
332.943	76.75
333.172	87.75
333.4	89.75
333.629	98.75
333.857	102.75
334.085	123.75
334.314	159.75
334.542	212.75
334.771	198.75
334.999	116.75
335.227	97.75
335.455	87.75
335.684	89.75
335.912	94.75
336.14	103.75
336.369	98.75
336.597	115.75
336.825	95.75
337.053	86.75
337.281	105.75
337.51	96.75
337.738	89.75
337.966	109.75
338.194	101.75
338.422	96.75
338.65	102.75
338.878	96.75
339.106	90.75
339.334	89.75
339.562	91.75
339.79	87.75
340.018	102.75
340.246	94.75
340.474	82.75
340.702	91.75
340.93	101.75
341.158	88.75
341.386	96.75
341.614	100.75
341.842	96.75
342.07	92.75
342.298	87.75
342.526	92.75
342.754	101.75
342.981	88.75
343.209	84.75
343.437	94.75
343.665	87.75
343.893	93.75
344.12	94.75
344.348	78.75
344.576	92.75
344.804	100.75
345.031	98.75
345.259	86.75
345.487	98.75
345.714	94.75
345.942	110.75
346.17	104.75
346.397	90.75
346.625	96.75
346.853	82.75
347.08	99.75
347.308	92.75
347.535	89.75
347.763	94.75
347.99	96.75
348.218	83.75
348.445	96.75
348.673	95.75
348.9	88.75
349.128	98.75
349.355	91.75
349.583	100.75
349.81	91.75
350.037	88.75
350.265	89.75
350.492	91.75
350.72	91.75
350.947	100.75
351.174	104.75
351.402	96.75
351.629	97.75
351.856	107.75
352.083	104.75
352.311	100.75
352.538	99.75
352.765	97.75
352.992	99.75
353.22	119.75
353.447	88.75
353.674	104.75
353.901	107.75
354.128	91.75
354.355	107.75
354.583	99.75
354.81	99.75
355.037	98.75
355.264	103.75
355.491	104.75
355.718	94.75
355.945	89.75
356.172	83.75
356.399	93.75
356.626	79.75
356.853	108.75
357.08	83.75
357.307	81.75
357.534	95.75
357.761	96.75
357.988	108.75
358.215	105.75
358.441	87.75
358.668	93.75
358.895	103.75
359.122	96.75
359.349	84.75
359.576	98.75
359.802	93.75
360.029	102.75
360.256	100.75
360.483	96.75
360.709	93.75
360.936	106.75
361.163	81.75
361.39	88.75
361.616	90.75
361.843	90.75
362.07	104.75
362.296	107.75
362.523	77.75
362.749	99.75
362.976	88.75
363.203	92.75
363.429	105.75
363.656	104.75
363.882	89.75
364.109	86.75
364.335	101.75
364.562	89.75
364.788	98.75
365.015	94.75
365.241	84.75
365.468	118.75
365.694	102.75
365.92	96.75
366.147	83.75
366.373	95.75
366.599	90.75
366.826	75.75
367.052	93.75
367.278	88.75
367.505	90.75
367.731	102.75
367.957	86.75
368.184	88.75
368.41	98.75
368.636	97.75
368.862	109.75
369.089	96.75
369.315	87.75
369.541	102.75
369.767	92.75
369.993	103.75
370.219	85.75
370.445	94.75
370.672	103.75
370.898	83.75
371.124	83.75
371.35	92.75
371.576	93.75
371.802	104.75
372.028	86.75
372.254	90.75
372.48	79.75
372.706	89.75
372.932	80.75
373.158	93.75
373.384	87.75
373.61	90.75
373.835	87.75
374.061	69.75
374.287	95.75
374.513	82.75
374.739	85.75
374.965	100.75
375.191	86.75
375.416	94.75
375.642	97.75
375.868	92.75
376.094	92.75
376.319	100.75
376.545	85.75
376.771	87.75
376.997	105.75
377.222	83.75
377.448	100.75
377.674	91.75
377.899	84.75
378.125	88.75
378.35	89.75
378.576	95.75
378.802	88.75
379.027	105.75
379.253	99.75
379.478	95.75
379.704	104.75
379.929	94.75
380.155	88.75
380.38	95.75
380.606	96.75
380.831	90.75
381.057	94.75
381.282	96.75
381.507	106.75
381.733	105.75
381.958	100.75
382.184	111.75
382.409	97.75
382.634	107.75
382.86	108.75
383.085	100.75
383.31	93.75
383.535	93.75
383.761	110.75
383.986	106.75
384.211	97.75
384.436	97.75
384.662	111.75
384.887	110.75
385.112	93.75
385.337	115.75
385.562	100.75
385.787	95.75
386.013	111.75
386.238	95.75
386.463	95.75
386.688	107.75
386.913	107.75
387.138	119.75
387.363	88.75
387.588	86.75
387.813	99.75
388.038	111.75
388.263	124.75
388.488	104.75
388.713	106.75
388.938	103.75
389.163	97.75
389.387	101.75
389.612	98.75
389.837	89.75
390.062	96.75
390.287	92.75
390.512	94.75
390.736	95.75
390.961	82.75
391.186	99.75
391.411	103.75
391.636	100.75
391.86	106.75
392.085	79.75
392.31	95.75
392.534	74.75
392.759	92.75
392.984	91.75
393.208	88.75
393.433	111.75
393.658	105.75
393.882	98.75
394.107	92.75
394.331	84.75
394.556	92.75
394.78	72.75
395.005	98.75
395.229	94.75
395.454	88.75
395.678	89.75
395.903	92.75
396.127	92.75
396.352	96.75
396.576	94.75
396.801	96.75
397.025	99.75
397.249	88.75
397.474	90.75
397.698	99.75
397.922	96.75
398.147	90.75
398.371	99.75
398.595	92.75
398.82	82.75
399.044	81.75
399.268	96.75
399.492	90.75
399.717	109.75
399.941	96.75
400.165	93.75
400.389	104.75
400.613	83.75
400.837	84.75
401.062	103.75
401.286	90.75
401.51	96.75
401.734	99.75
401.958	91.75
402.182	122.75
402.406	145.75
402.63	97.75
402.854	92.75
403.078	90.75
403.302	90.75
403.526	88.75
403.75	96.75
403.974	91.75
404.198	90.75
404.422	96.75
404.645	94.75
404.869	97.75
405.093	107.75
405.317	108.75
405.541	97.75
405.765	97.75
405.988	106.75
406.212	141.75
406.436	176.75
406.66	124.75
406.883	99.75
407.107	85.75
407.331	100.75
407.555	117.75
407.778	94.75
408.002	100.75
408.226	82.75
408.449	94.75
408.673	99.75
408.896	92.75
409.12	100.75
409.344	101.75
409.567	102.75
409.791	106.75
410.014	92.75
410.238	106.75
410.461	93.75
410.685	94.75
410.908	111.75
411.132	103.75
411.355	104.75
411.578	95.75
411.802	85.75
412.025	105.75
412.249	98.75
412.472	83.75
412.695	105.75
412.919	99.75
413.142	91.75
413.365	85.75
413.589	92.75
413.812	99.75
414.035	95.75
414.258	101.75
414.482	73.75
414.705	94.75
414.928	77.75
415.151	79.75
415.374	94.75
415.597	84.75
415.821	88.75
416.044	79.75
416.267	78.75
416.49	89.75
416.713	105.75
416.936	82.75
417.159	92.75
417.382	84.75
417.605	98.75
417.828	90.75
418.051	83.75
418.274	95.75
418.497	100.75
418.72	96.75
418.943	94.75
419.166	103.75
419.389	97.75
419.611	87.75
419.834	95.75
420.057	107.75
420.28	85.75
420.503	90.75
420.726	96.75
420.948	87.75
421.171	80.75
421.394	84.75
421.617	99.75
421.839	85.75
422.062	81.75
422.285	89.75
422.507	80.75
422.73	104.75
422.953	109.75
423.175	84.75
423.398	83.75
423.621	109.75
423.843	94.75
424.066	100.75
424.288	102.75
424.511	91.75
424.733	86.75
424.956	91.75
425.178	82.75
425.401	100.75
425.623	102.75
425.846	94.75
426.068	89.75
426.291	108.75
426.513	93.75
426.735	92.75
426.958	93.75
427.18	83.75
427.402	127.75
427.625	134.75
427.847	114.75
428.069	110.75
428.292	82.75
428.514	91.75
428.736	74.75
428.958	81.75
429.181	80.75
429.403	63.75
429.625	82.75
429.847	105.75
430.069	102.75
430.292	97.75
430.514	91.75
430.736	108.75
430.958	91.75
431.18	93.75
431.402	87.75
431.624	102.75
431.846	98.75
432.068	94.75
432.29	86.75
432.512	91.75
432.734	95.75
432.956	111.75
433.178	99.75
433.4	107.75
433.622	96.75
433.844	88.75
434.066	94.75
434.287	95.75
434.509	84.75
434.731	88.75
434.953	90.75
435.175	88.75
435.397	88.75
435.618	91.75
435.84	111.75
436.062	104.75
436.284	109.75
436.505	89.75
436.727	110.75
436.949	96.75
437.17	96.75
437.392	87.75
437.614	91.75
437.835	93.75
438.057	98.75
438.278	92.75
438.5	98.75
438.721	104.75
438.943	103.75
439.165	110.75
439.386	102.75
439.608	82.75
439.829	105.75
440.05	110.75
440.272	127.75
440.493	90.75
440.715	80.75
440.936	90.75
441.158	91.75
441.379	91.75
441.6	94.75
441.822	86.75
442.043	97.75
442.264	99.75
442.486	95.75
442.707	88.75
442.928	94.75
443.149	115.75
443.371	111.75
443.592	109.75
443.813	103.75
444.034	92.75
444.255	99.75
444.476	90.75
444.698	99.75
444.919	96.75
445.14	134.75
445.361	122.75
445.582	116.75
445.803	109.75
446.024	125.75
446.245	113.75
446.466	104.75
446.687	94.75
446.908	68.75
447.129	81.75
447.35	85.75
447.571	97.75
447.792	95.75
448.013	95.75
448.234	107.75
448.455	107.75
448.675	99.75
448.896	117.75
449.117	101.75
449.338	90.75
449.559	104.75
449.779	119.75
450	104.75
450.221	93.75
450.442	92.75
450.662	89.75
450.883	105.75
451.104	110.75
451.324	96.75
451.545	89.75
451.766	92.75
451.986	89.75
452.207	95.75
452.428	97.75
452.648	102.75
452.869	97.75
453.089	96.75
453.31	87.75
453.53	94.75
453.751	83.75
453.971	95.75
454.192	113.75
454.412	91.75
454.633	93.75
454.853	85.75
455.073	83.75
455.294	79.75
455.514	89.75
455.734	90.75
455.955	90.75
456.175	93.75
456.395	90.75
456.616	76.75
456.836	69.75
457.056	100.75
457.276	88.75
457.497	88.75
457.717	92.75
457.937	94.75
458.157	85.75
458.377	92.75
458.598	94.75
458.818	117.75
459.038	124.75
459.258	112.75
459.478	104.75
459.698	95.75
459.918	87.75
460.138	85.75
460.358	84.75
460.578	100.75
460.798	102.75
461.018	90.75
461.238	88.75
461.458	92.75
461.678	84.75
461.898	83.75
462.118	92.75
462.338	79.75
462.558	92.75
462.777	94.75
462.997	82.75
463.217	87.75
463.437	82.75
463.657	86.75
463.876	80.75
464.096	92.75
464.316	100.75
464.536	89.75
464.755	99.75
464.975	106.75
465.195	142.75
465.414	129.75
465.634	92.75
465.854	93.75
466.073	95.75
466.293	79.75
466.512	74.75
466.732	82.75
466.951	80.75
467.171	93.75
467.391	97.75
467.61	106.75
467.829	100.75
468.049	118.75
468.268	134.75
468.488	108.75
468.707	82.75
468.927	89.75
469.146	92.75
469.365	79.75
469.585	84.75
469.804	89.75
470.023	92.75
470.243	90.75
470.462	100.75
470.681	92.75
470.901	97.75
471.12	96.75
471.339	84.75
471.558	103.75
471.777	100.75
471.997	109.75
472.216	178.75
472.435	256.75
472.654	114.75
472.873	103.75
473.092	96.75
473.311	98.75
473.53	99.75
473.749	89.75
473.968	100.75
474.187	92.75
474.406	95.75
474.625	99.75
474.844	92.75
475.063	93.75
475.282	96.75
475.501	101.75
475.72	84.75
475.939	93.75
476.158	91.75
476.377	79.75
476.596	86.75
476.814	94.75
477.033	88.75
477.252	88.75
477.471	89.75
477.69	75.75
477.908	83.75
478.127	95.75
478.346	77.75
478.564	92.75
478.783	84.75
479.002	79.75
479.22	85.75
479.439	94.75
479.658	107.75
479.876	99.75
480.095	89.75
480.313	103.75
480.532	96.75
480.751	96.75
480.969	168.75
481.188	415.75
481.406	267.75
481.624	91.75
481.843	102.75
482.061	90.75
482.28	91.75
482.498	79.75
482.717	82.75
482.935	88.75
483.153	78.75
483.372	85.75
483.59	88.75
483.808	95.75
484.027	95.75
484.245	84.75
484.463	89.75
484.681	108.75
484.9	94.75
485.118	111.75
485.336	94.75
485.554	101.75
485.772	100.75
485.99	110.75
486.209	100.75
486.427	103.75
486.645	101.75
486.863	119.75
487.081	103.75
487.299	89.75
487.517	108.75
487.735	102.75
487.953	98.75
488.171	87.75
488.389	92.75
488.607	102.75
488.825	107.75
489.043	95.75
489.261	95.75
489.479	87.75
489.696	92.75
489.914	101.75
490.132	92.75
490.35	87.75
490.568	99.75
490.786	105.75
491.003	78.75
491.221	88.75
491.439	82.75
491.657	94.75
491.874	101.75
492.092	95.75
492.31	86.75
492.527	95.75
492.745	90.75
492.963	103.75
493.18	83.75
493.398	107.75
493.615	105.75
493.833	84.75
494.05	95.75
494.268	92.75
494.485	84.75
494.703	101.75
494.92	93.75
495.138	84.75
495.355	85.75
495.573	90.75
495.79	99.75
496.008	95.75
496.225	92.75
496.442	110.75
496.66	77.75
496.877	89.75
497.094	90.75
497.312	74.75
497.529	88.75
497.746	95.75
497.963	97.75
498.181	84.75
498.398	98.75
498.615	96.75
498.832	104.75
499.049	101.75
499.267	105.75
499.484	95.75
499.701	98.75
499.918	96.75
500.135	95.75
500.352	75.75
500.569	83.75
500.786	98.75
501.003	79.75
501.22	92.75
501.437	90.75
501.654	95.75
501.871	88.75
502.088	83.75
502.305	85.75
502.522	76.75
502.739	95.75
502.956	89.75
503.172	93.75
503.389	95.75
503.606	85.75
503.823	98.75
504.04	98.75
504.256	90.75
504.473	75.75
504.69	75.75
504.907	86.75
505.123	84.75
505.34	109.75
505.557	94.75
505.773	92.75
505.99	92.75
506.207	96.75
506.423	87.75
506.64	79.75
506.856	89.75
507.073	96.75
507.289	97.75
507.506	96.75
507.722	103.75
507.939	113.75
508.155	85.75
508.372	79.75
508.588	88.75
508.805	107.75
509.021	96.75
509.238	109.75
509.454	97.75
509.67	82.75
509.887	106.75
510.103	119.75
510.319	179.75
510.536	604.75
510.752	1794.75
510.968	527.75
511.184	150.75
511.401	111.75
511.617	101.75
511.833	115.75
512.049	88.75
512.265	91.75
512.481	94.75
512.698	97.75
512.914	94.75
513.13	82.75
513.346	113.75
513.562	92.75
513.778	94.75
513.994	100.75
514.21	104.75
514.426	110.75
514.642	126.75
514.858	119.75
515.074	149.75
515.29	326.75
