Data from Circ_2010_H10_HRD10591_00053.txt Node
Date: Wed Jan 03 10:09:51 EST 2024
User: Yrep
Spectrometer: HR+D1059
Trigger mode: 1
Integration Time (sec): 1.000000E-1
Scans to average: 1
Electric dark correction enabled: true
Nonlinearity correction enabled: false
Boxcar width: 0
XAxis mode: Wavelengths
Number of Pixels in Spectrum: 2048
>>>>>Begin Spectral Data<<<<<
223.165	-9.12
223.4	-9.12
223.635	-9.12
223.869	-15.12
224.104	-19.12
224.338	-7.12
224.573	-17.12
224.808	-15.12
225.042	-20.12
225.277	-8.12
225.511	-2.12
225.746	11.88
225.98	-1.12
226.215	14.88
226.449	8.88
226.683	27.88
226.918	21.88
227.152	28.88
227.387	32.88
227.621	33.88
227.856	38.88
228.09	49.88
228.324	61.88
228.559	45.88
228.793	57.88
229.027	53.88
229.262	61.88
229.496	72.88
229.73	84.88
229.964	83.88
230.199	68.88
230.433	88.88
230.667	72.88
230.901	84.88
231.136	81.88
231.37	72.88
231.604	84.88
231.838	89.88
232.072	84.88
232.306	74.88
232.541	82.88
232.775	64.88
233.009	59.88
233.243	81.88
233.477	81.88
233.711	75.88
233.945	78.88
234.179	82.88
234.413	92.88
234.647	92.88
234.881	71.88
235.115	83.88
235.349	71.88
235.583	71.88
235.817	71.88
236.051	72.88
236.285	80.88
236.519	72.88
236.753	73.88
236.987	76.88
237.221	85.88
237.455	75.88
237.689	78.88
237.922	85.88
238.156	73.88
238.39	68.88
238.624	80.88
238.858	95.88
239.091	89.88
239.325	79.88
239.559	72.88
239.793	76.88
240.027	77.88
240.26	76.88
240.494	104.88
240.728	90.88
240.961	86.88
241.195	82.88
241.429	68.88
241.662	88.88
241.896	76.88
242.13	98.88
242.363	64.88
242.597	80.88
242.83	75.88
243.064	67.88
243.298	87.88
243.531	77.88
243.765	71.88
243.998	68.88
244.232	89.88
244.465	84.88
244.699	74.88
244.932	91.88
245.166	64.88
245.399	88.88
245.633	85.88
245.866	89.88
246.099	102.88
246.333	80.88
246.566	86.88
246.8	91.88
247.033	80.88
247.266	76.88
247.5	67.88
247.733	82.88
247.966	70.88
248.2	76.88
248.433	80.88
248.666	74.88
248.899	87.88
249.133	79.88
249.366	89.88
249.599	90.88
249.832	80.88
250.066	82.88
250.299	85.88
250.532	93.88
250.765	87.88
250.998	93.88
251.231	79.88
251.465	68.88
251.698	69.88
251.931	69.88
252.164	81.88
252.397	81.88
252.63	77.88
252.863	76.88
253.096	73.88
253.329	90.88
253.562	71.88
253.795	79.88
254.028	79.88
254.261	91.88
254.494	80.88
254.727	85.88
254.96	94.88
255.193	75.88
255.426	83.88
255.659	91.88
255.892	76.88
256.124	88.88
256.357	89.88
256.59	79.88
256.823	75.88
257.056	93.88
257.289	84.88
257.521	77.88
257.754	81.88
257.987	84.88
258.22	85.88
258.452	70.88
258.685	82.88
258.918	93.88
259.151	83.88
259.383	72.88
259.616	81.88
259.849	69.88
260.081	80.88
260.314	89.88
260.547	81.88
260.779	71.88
261.012	85.88
261.244	82.88
261.477	83.88
261.71	79.88
261.942	89.88
262.175	85.88
262.407	90.88
262.64	75.88
262.872	78.88
263.105	69.88
263.337	78.88
263.57	80.88
263.802	86.88
264.035	78.88
264.267	72.88
264.499	84.88
264.732	81.88
264.964	78.88
265.197	75.88
265.429	81.88
265.661	81.88
265.894	78.88
266.126	79.88
266.358	79.88
266.591	80.88
266.823	84.88
267.055	87.88
267.287	90.88
267.52	72.88
267.752	100.88
267.984	90.88
268.216	92.88
268.448	86.88
268.681	85.88
268.913	77.88
269.145	87.88
269.377	81.88
269.609	68.88
269.841	102.88
270.073	81.88
270.306	80.88
270.538	87.88
270.77	102.88
271.002	96.88
271.234	91.88
271.466	65.88
271.698	76.88
271.93	80.88
272.162	82.88
272.394	88.88
272.626	91.88
272.858	83.88
273.09	70.88
273.322	78.88
273.553	81.88
273.785	70.88
274.017	84.88
274.249	75.88
274.481	87.88
274.713	91.88
274.945	75.88
275.176	79.88
275.408	96.88
275.64	79.88
275.872	102.88
276.104	83.88
276.335	92.88
276.567	108.88
276.799	109.88
277.031	90.88
277.262	95.88
277.494	96.88
277.726	82.88
277.957	70.88
278.189	67.88
278.421	77.88
278.652	88.88
278.884	87.88
279.115	80.88
279.347	85.88
279.579	76.88
279.81	97.88
280.042	92.88
280.273	93.88
280.505	78.88
280.736	90.88
280.968	88.88
281.199	92.88
281.431	76.88
281.662	90.88
281.894	82.88
282.125	91.88
282.356	99.88
282.588	133.88
282.819	103.88
283.051	76.88
283.282	85.88
283.513	92.88
283.745	94.88
283.976	86.88
284.207	86.88
284.439	97.88
284.67	87.88
284.901	81.88
285.132	94.88
285.364	89.88
285.595	81.88
285.826	89.88
286.057	90.88
286.288	92.88
286.52	94.88
286.751	82.88
286.982	79.88
287.213	83.88
287.444	76.88
287.675	79.88
287.906	81.88
288.138	95.88
288.369	87.88
288.6	80.88
288.831	75.88
289.062	87.88
289.293	77.88
289.524	84.88
289.755	91.88
289.986	85.88
290.217	94.88
290.448	96.88
290.679	97.88
290.91	90.88
291.141	85.88
291.371	68.88
291.602	93.88
291.833	94.88
292.064	75.88
292.295	83.88
292.526	88.88
292.757	97.88
292.987	99.88
293.218	83.88
293.449	100.88
293.68	86.88
293.91	82.88
294.141	88.88
294.372	85.88
294.603	97.88
294.833	87.88
295.064	91.88
295.295	94.88
295.525	80.88
295.756	95.88
295.987	105.88
296.217	113.88
296.448	112.88
296.679	101.88
296.909	84.88
297.14	81.88
297.37	83.88
297.601	96.88
297.831	85.88
298.062	89.88
298.292	88.88
298.523	84.88
298.753	84.88
298.984	90.88
299.214	89.88
299.445	91.88
299.675	84.88
299.905	84.88
300.136	80.88
300.366	85.88
300.597	86.88
300.827	83.88
301.057	95.88
301.288	87.88
301.518	95.88
301.748	96.88
301.979	94.88
302.209	96.88
302.439	87.88
302.669	96.88
302.9	83.88
303.13	90.88
303.36	86.88
303.59	95.88
303.82	103.88
304.051	81.88
304.281	91.88
304.511	83.88
304.741	74.88
304.971	89.88
305.201	100.88
305.431	91.88
305.661	91.88
305.891	86.88
306.121	94.88
306.352	110.88
306.582	107.88
306.812	85.88
307.042	97.88
307.272	93.88
307.502	103.88
307.731	97.88
307.961	92.88
308.191	103.88
308.421	72.88
308.651	89.88
308.881	96.88
309.111	93.88
309.341	81.88
309.571	96.88
309.8	88.88
310.03	94.88
310.26	87.88
310.49	94.88
310.72	86.88
310.949	91.88
311.179	89.88
311.409	77.88
311.639	101.88
311.868	105.88
312.098	104.88
312.328	87.88
312.557	91.88
312.787	85.88
313.017	92.88
313.246	87.88
313.476	76.88
313.706	91.88
313.935	93.88
314.165	89.88
314.394	109.88
314.624	93.88
314.853	86.88
315.083	96.88
315.312	85.88
315.542	87.88
315.771	89.88
316.001	96.88
316.23	89.88
316.46	84.88
316.689	85.88
316.919	94.88
317.148	95.88
317.377	77.88
317.607	95.88
317.836	97.88
318.065	105.88
318.295	89.88
318.524	83.88
318.753	88.88
318.983	81.88
319.212	91.88
319.441	103.88
319.67	90.88
319.9	84.88
320.129	89.88
320.358	86.88
320.587	76.88
320.816	94.88
321.046	88.88
321.275	95.88
321.504	83.88
321.733	94.88
321.962	76.88
322.191	99.88
322.42	97.88
322.649	111.88
322.878	93.88
323.108	98.88
323.337	120.88
323.566	125.88
323.795	129.88
324.024	182.88
324.253	325.88
324.482	649.88
324.71	1310.88
324.939	1710.88
325.168	627.88
325.397	209.88
325.626	128.88
325.855	121.88
326.084	130.88
326.313	131.88
326.542	135.88
326.77	200.88
326.999	362.88
327.228	746.88
327.457	1345.88
327.686	1093.88
327.914	329.88
328.143	182.88
328.372	171.88
328.6	135.88
328.829	109.88
329.058	118.88
329.287	110.88
329.515	110.88
329.744	105.88
329.972	141.88
330.201	192.88
330.43	204.88
330.658	156.88
330.887	111.88
331.115	118.88
331.344	102.88
331.572	101.88
331.801	96.88
332.03	90.88
332.258	108.88
332.486	92.88
332.715	84.88
332.943	89.88
333.172	87.88
333.4	101.88
333.629	98.88
333.857	118.88
334.085	145.88
334.314	180.88
334.542	265.88
334.771	257.88
334.999	134.88
335.227	101.88
335.455	104.88
335.684	100.88
335.912	94.88
336.14	104.88
336.369	92.88
336.597	84.88
336.825	91.88
337.053	87.88
337.281	85.88
337.51	92.88
337.738	93.88
337.966	100.88
338.194	77.88
338.422	101.88
338.65	93.88
338.878	110.88
339.106	89.88
339.334	88.88
339.562	95.88
339.79	92.88
340.018	92.88
340.246	100.88
340.474	106.88
340.702	67.88
340.93	90.88
341.158	79.88
341.386	85.88
341.614	88.88
341.842	94.88
342.07	90.88
342.298	100.88
342.526	94.88
342.754	106.88
342.981	107.88
343.209	77.88
343.437	88.88
343.665	101.88
343.893	89.88
344.12	87.88
344.348	88.88
344.576	90.88
344.804	77.88
345.031	95.88
345.259	104.88
345.487	104.88
345.714	96.88
345.942	87.88
346.17	73.88
346.397	93.88
346.625	81.88
346.853	85.88
347.08	84.88
347.308	84.88
347.535	90.88
347.763	91.88
347.99	99.88
348.218	97.88
348.445	108.88
348.673	103.88
348.9	94.88
349.128	92.88
349.355	99.88
349.583	86.88
349.81	72.88
350.037	90.88
350.265	100.88
350.492	87.88
350.72	101.88
350.947	83.88
351.174	88.88
351.402	94.88
351.629	104.88
351.856	110.88
352.083	93.88
352.311	109.88
352.538	106.88
352.765	104.88
352.992	108.88
353.22	111.88
353.447	102.88
353.674	109.88
353.901	97.88
354.128	106.88
354.355	87.88
354.583	92.88
354.81	89.88
355.037	74.88
355.264	88.88
355.491	100.88
355.718	86.88
355.945	91.88
356.172	86.88
356.399	103.88
356.626	88.88
356.853	94.88
357.08	84.88
357.307	94.88
357.534	90.88
357.761	78.88
357.988	106.88
358.215	120.88
358.441	92.88
358.668	99.88
358.895	81.88
359.122	87.88
359.349	84.88
359.576	84.88
359.802	104.88
360.029	101.88
360.256	91.88
360.483	106.88
360.709	87.88
360.936	109.88
361.163	92.88
361.39	94.88
361.616	85.88
361.843	80.88
362.07	96.88
362.296	108.88
362.523	94.88
362.749	86.88
362.976	69.88
363.203	86.88
363.429	83.88
363.656	104.88
363.882	95.88
364.109	95.88
364.335	78.88
364.562	83.88
364.788	77.88
365.015	102.88
365.241	93.88
365.468	100.88
365.694	99.88
365.92	83.88
366.147	79.88
366.373	87.88
366.599	89.88
366.826	90.88
367.052	94.88
367.278	88.88
367.505	88.88
367.731	95.88
367.957	90.88
368.184	84.88
368.41	97.88
368.636	104.88
368.862	115.88
369.089	100.88
369.315	81.88
369.541	81.88
369.767	99.88
369.993	77.88
370.219	88.88
370.445	84.88
370.672	84.88
370.898	90.88
371.124	86.88
371.35	75.88
371.576	98.88
371.802	93.88
372.028	87.88
372.254	93.88
372.48	93.88
372.706	83.88
372.932	92.88
373.158	90.88
373.384	90.88
373.61	81.88
373.835	70.88
374.061	93.88
374.287	98.88
374.513	94.88
374.739	88.88
374.965	88.88
375.191	81.88
375.416	86.88
375.642	85.88
375.868	110.88
376.094	107.88
376.319	87.88
376.545	88.88
376.771	98.88
376.997	89.88
377.222	81.88
377.448	87.88
377.674	82.88
377.899	96.88
378.125	101.88
378.35	80.88
378.576	98.88
378.802	92.88
379.027	90.88
379.253	100.88
379.478	77.88
379.704	86.88
379.929	102.88
380.155	90.88
380.38	108.88
380.606	95.88
380.831	92.88
381.057	79.88
381.282	95.88
381.507	96.88
381.733	103.88
381.958	94.88
382.184	91.88
382.409	102.88
382.634	89.88
382.86	88.88
383.085	87.88
383.31	95.88
383.535	98.88
383.761	92.88
383.986	92.88
384.211	84.88
384.436	99.88
384.662	109.88
384.887	101.88
385.112	97.88
385.337	93.88
385.562	102.88
385.787	96.88
386.013	107.88
386.238	110.88
386.463	92.88
386.688	101.88
386.913	102.88
387.138	113.88
387.363	90.88
387.588	95.88
387.813	95.88
388.038	110.88
388.263	111.88
388.488	106.88
388.713	93.88
388.938	88.88
389.163	91.88
389.387	88.88
389.612	92.88
389.837	82.88
390.062	93.88
390.287	101.88
390.512	96.88
390.736	93.88
390.961	87.88
391.186	87.88
391.411	99.88
391.636	87.88
391.86	89.88
392.085	91.88
392.31	76.88
392.534	73.88
392.759	75.88
392.984	90.88
393.208	86.88
393.433	93.88
393.658	91.88
393.882	91.88
394.107	89.88
394.331	78.88
394.556	79.88
394.78	102.88
395.005	90.88
395.229	96.88
395.454	86.88
395.678	79.88
395.903	92.88
396.127	92.88
396.352	84.88
396.576	88.88
396.801	103.88
397.025	105.88
397.249	81.88
397.474	93.88
397.698	85.88
397.922	79.88
398.147	86.88
398.371	75.88
398.595	88.88
398.82	89.88
399.044	62.88
399.268	80.88
399.492	73.88
399.717	94.88
399.941	85.88
400.165	108.88
400.389	96.88
400.613	86.88
400.837	90.88
401.062	73.88
401.286	80.88
401.51	67.88
401.734	89.88
401.958	92.88
402.182	117.88
402.406	142.88
402.63	116.88
402.854	86.88
403.078	91.88
403.302	96.88
403.526	103.88
403.75	80.88
403.974	79.88
404.198	84.88
404.422	79.88
404.645	81.88
404.869	105.88
405.093	93.88
405.317	95.88
405.541	108.88
405.765	110.88
405.988	98.88
406.212	124.88
406.436	172.88
406.66	114.88
406.883	94.88
407.107	91.88
407.331	87.88
407.555	70.88
407.778	102.88
408.002	93.88
408.226	89.88
408.449	91.88
408.673	75.88
408.896	94.88
409.12	82.88
409.344	80.88
409.567	88.88
409.791	91.88
410.014	82.88
410.238	81.88
410.461	89.88
410.685	80.88
410.908	88.88
411.132	103.88
411.355	96.88
411.578	95.88
411.802	88.88
412.025	83.88
412.249	77.88
412.472	96.88
412.695	93.88
412.919	90.88
413.142	84.88
413.365	87.88
413.589	83.88
413.812	92.88
414.035	90.88
414.258	93.88
414.482	89.88
414.705	94.88
414.928	97.88
415.151	85.88
415.374	94.88
415.597	81.88
415.821	84.88
416.044	81.88
416.267	95.88
416.49	91.88
416.713	88.88
416.936	78.88
417.159	74.88
417.382	77.88
417.605	79.88
417.828	114.88
418.051	95.88
418.274	74.88
418.497	85.88
418.72	81.88
418.943	84.88
419.166	92.88
419.389	81.88
419.611	101.88
419.834	95.88
420.057	87.88
420.28	89.88
420.503	100.88
420.726	96.88
420.948	92.88
421.171	84.88
421.394	95.88
421.617	79.88
421.839	83.88
422.062	78.88
422.285	87.88
422.507	93.88
422.73	102.88
422.953	95.88
423.175	76.88
423.398	88.88
423.621	84.88
423.843	72.88
424.066	85.88
424.288	87.88
424.511	89.88
424.733	97.88
424.956	86.88
425.178	94.88
425.401	98.88
425.623	97.88
425.846	80.88
426.068	81.88
426.291	91.88
426.513	87.88
426.735	100.88
426.958	108.88
427.18	99.88
427.402	133.88
427.625	141.88
427.847	123.88
428.069	109.88
428.292	107.88
428.514	91.88
428.736	91.88
428.958	80.88
429.181	79.88
429.403	92.88
429.625	85.88
429.847	108.88
430.069	100.88
430.292	91.88
430.514	91.88
430.736	75.88
430.958	96.88
431.18	82.88
431.402	92.88
431.624	86.88
431.846	88.88
432.068	100.88
432.29	85.88
432.512	99.88
432.734	96.88
432.956	78.88
433.178	91.88
433.4	93.88
433.622	97.88
433.844	85.88
434.066	108.88
434.287	93.88
434.509	99.88
434.731	77.88
434.953	88.88
435.175	93.88
435.397	86.88
435.618	91.88
435.84	100.88
436.062	110.88
436.284	107.88
436.505	84.88
436.727	92.88
436.949	81.88
437.17	93.88
437.392	65.88
437.614	92.88
437.835	89.88
438.057	95.88
438.278	103.88
438.5	82.88
438.721	91.88
438.943	82.88
439.165	78.88
439.386	77.88
439.608	85.88
439.829	94.88
440.05	108.88
440.272	117.88
440.493	84.88
440.715	89.88
440.936	96.88
441.158	89.88
441.379	84.88
441.6	89.88
441.822	85.88
442.043	88.88
442.264	104.88
442.486	92.88
442.707	89.88
442.928	101.88
443.149	123.88
443.371	114.88
443.592	88.88
443.813	104.88
444.034	100.88
444.255	88.88
444.476	86.88
444.698	86.88
444.919	87.88
445.14	124.88
445.361	117.88
445.582	93.88
445.803	126.88
446.024	115.88
446.245	131.88
446.466	102.88
446.687	96.88
446.908	81.88
447.129	87.88
447.35	94.88
447.571	80.88
447.792	93.88
448.013	84.88
448.234	102.88
448.455	100.88
448.675	110.88
448.896	94.88
449.117	103.88
449.338	101.88
449.559	101.88
449.779	105.88
450	86.88
450.221	88.88
450.442	86.88
450.662	89.88
450.883	92.88
451.104	92.88
451.324	95.88
451.545	89.88
451.766	96.88
451.986	88.88
452.207	78.88
452.428	87.88
452.648	96.88
452.869	109.88
453.089	104.88
453.31	100.88
453.53	85.88
453.751	96.88
453.971	88.88
454.192	102.88
454.412	73.88
454.633	75.88
454.853	84.88
455.073	88.88
455.294	88.88
455.514	93.88
455.734	88.88
455.955	86.88
456.175	88.88
456.395	81.88
456.616	86.88
456.836	83.88
457.056	80.88
457.276	98.88
457.497	91.88
457.717	80.88
457.937	78.88
458.157	73.88
458.377	98.88
458.598	99.88
458.818	138.88
459.038	135.88
459.258	107.88
459.478	91.88
459.698	107.88
459.918	96.88
460.138	87.88
460.358	79.88
460.578	84.88
460.798	94.88
461.018	81.88
461.238	89.88
461.458	79.88
461.678	90.88
461.898	75.88
462.118	80.88
462.338	93.88
462.558	87.88
462.777	97.88
462.997	88.88
463.217	84.88
463.437	87.88
463.657	80.88
463.876	75.88
464.096	93.88
464.316	87.88
464.536	92.88
464.755	86.88
464.975	94.88
465.195	143.88
465.414	123.88
465.634	92.88
465.854	71.88
466.073	82.88
466.293	86.88
466.512	89.88
466.732	74.88
466.951	89.88
467.171	91.88
467.391	104.88
467.61	97.88
467.829	112.88
468.049	136.88
468.268	143.88
468.488	99.88
468.707	90.88
468.927	82.88
469.146	90.88
469.365	92.88
469.585	99.88
469.804	92.88
470.023	85.88
470.243	95.88
470.462	91.88
470.681	108.88
470.901	87.88
471.12	85.88
471.339	90.88
471.558	95.88
471.777	105.88
471.997	107.88
472.216	191.88
472.435	337.88
472.654	133.88
472.873	107.88
473.092	88.88
473.311	81.88
473.53	75.88
473.749	79.88
473.968	95.88
474.187	90.88
474.406	86.88
474.625	81.88
474.844	89.88
475.063	84.88
475.282	94.88
475.501	87.88
475.72	91.88
475.939	79.88
476.158	85.88
476.377	105.88
476.596	105.88
476.814	101.88
477.033	99.88
477.252	94.88
477.471	82.88
477.69	97.88
477.908	85.88
478.127	95.88
478.346	83.88
478.564	99.88
478.783	96.88
479.002	105.88
479.22	94.88
479.439	92.88
479.658	97.88
479.876	84.88
480.095	90.88
480.313	107.88
480.532	106.88
480.751	103.88
480.969	204.88
481.188	522.88
481.406	342.88
481.624	110.88
481.843	109.88
482.061	80.88
482.28	82.88
482.498	88.88
482.717	100.88
482.935	98.88
483.153	90.88
483.372	81.88
483.59	71.88
483.808	92.88
484.027	91.88
484.245	88.88
484.463	92.88
484.681	86.88
484.9	83.88
485.118	99.88
485.336	102.88
485.554	94.88
485.772	108.88
485.99	103.88
486.209	100.88
486.427	99.88
486.645	99.88
486.863	95.88
487.081	88.88
487.299	111.88
487.517	99.88
487.735	102.88
487.953	101.88
488.171	87.88
488.389	77.88
488.607	92.88
488.825	95.88
489.043	94.88
489.261	105.88
489.479	83.88
489.696	88.88
489.914	78.88
490.132	85.88
490.35	83.88
490.568	102.88
490.786	88.88
491.003	75.88
491.221	80.88
491.439	109.88
491.657	92.88
491.874	84.88
492.092	91.88
492.31	101.88
492.527	97.88
492.745	85.88
492.963	93.88
493.18	85.88
493.398	87.88
493.615	97.88
493.833	95.88
494.05	87.88
494.268	84.88
494.485	93.88
494.703	77.88
494.92	70.88
495.138	90.88
495.355	87.88
495.573	82.88
495.79	87.88
496.008	93.88
496.225	97.88
496.442	93.88
496.66	81.88
496.877	89.88
497.094	90.88
497.312	90.88
497.529	97.88
497.746	88.88
497.963	85.88
498.181	88.88
498.398	95.88
498.615	111.88
498.832	100.88
499.049	85.88
499.267	81.88
499.484	91.88
499.701	94.88
499.918	97.88
500.135	113.88
500.352	84.88
500.569	93.88
500.786	89.88
501.003	72.88
501.22	87.88
501.437	89.88
501.654	87.88
501.871	100.88
502.088	95.88
502.305	105.88
502.522	87.88
502.739	94.88
502.956	97.88
503.172	82.88
503.389	86.88
503.606	85.88
503.823	103.88
504.04	100.88
504.256	81.88
504.473	92.88
504.69	77.88
504.907	98.88
505.123	92.88
505.34	94.88
505.557	91.88
505.773	98.88
505.99	102.88
506.207	94.88
506.423	90.88
506.64	84.88
506.856	102.88
507.073	76.88
507.289	110.88
507.506	92.88
507.722	105.88
507.939	115.88
508.155	91.88
508.372	92.88
508.588	101.88
508.805	84.88
509.021	94.88
509.238	93.88
509.454	91.88
509.67	88.88
509.887	97.88
510.103	120.88
510.319	191.88
510.536	577.88
510.752	1704.88
510.968	510.88
511.184	135.88
511.401	101.88
511.617	91.88
511.833	102.88
512.049	103.88
512.265	90.88
512.481	88.88
512.698	80.88
512.914	95.88
513.13	94.88
513.346	87.88
513.562	96.88
513.778	89.88
513.994	94.88
514.21	111.88
514.426	111.88
514.642	118.88
514.858	117.88
515.074	134.88
515.29	305.88
515.506	1023.88
515.721	427.88
515.937	139.88
516.153	111.88
516.369	91.88
