Data from Circ_2010_H10_HRD10591_00055.txt Node
Date: Wed Jan 03 10:09:52 EST 2024
User: Yrep
Spectrometer: HR+D1059
Trigger mode: 1
Integration Time (sec): 1.000000E-1
Scans to average: 1
Electric dark correction enabled: true
Nonlinearity correction enabled: false
Boxcar width: 0
XAxis mode: Wavelengths
Number of Pixels in Spectrum: 2048
>>>>>Begin Spectral Data<<<<<
223.165	-15.69
223.4	-15.69
223.635	-15.69
223.869	2.31
224.104	-10.69
224.338	-23.69
224.573	-27.69
224.808	-8.69
225.042	0.31
225.277	-5.69
225.511	-5.69
225.746	0.31
225.98	17.31
226.215	11.31
226.449	5.31
226.683	13.31
226.918	17.31
227.152	30.31
227.387	42.31
227.621	41.31
227.856	49.31
228.09	47.31
228.324	49.31
228.559	56.31
228.793	55.31
229.027	46.31
229.262	77.31
229.496	58.31
229.73	82.31
229.964	93.31
230.199	79.31
230.433	62.31
230.667	88.31
230.901	84.31
231.136	93.31
231.37	77.31
231.604	79.31
231.838	90.31
232.072	70.31
232.306	83.31
232.541	81.31
232.775	76.31
233.009	81.31
233.243	92.31
233.477	81.31
233.711	91.31
233.945	72.31
234.179	92.31
234.413	77.31
234.647	85.31
234.881	86.31
235.115	73.31
235.349	82.31
235.583	75.31
235.817	80.31
236.051	75.31
236.285	81.31
236.519	69.31
236.753	79.31
236.987	70.31
237.221	81.31
237.455	85.31
237.689	62.31
237.922	84.31
238.156	71.31
238.39	75.31
238.624	89.31
238.858	76.31
239.091	92.31
239.325	82.31
239.559	89.31
239.793	69.31
240.027	82.31
240.26	81.31
240.494	87.31
240.728	61.31
240.961	81.31
241.195	90.31
241.429	87.31
241.662	80.31
241.896	71.31
242.13	82.31
242.363	82.31
242.597	68.31
242.83	74.31
243.064	77.31
243.298	90.31
243.531	77.31
243.765	77.31
243.998	64.31
244.232	73.31
244.465	88.31
244.699	81.31
244.932	77.31
245.166	100.31
245.399	78.31
245.633	74.31
245.866	74.31
246.099	79.31
246.333	85.31
246.566	100.31
246.8	80.31
247.033	77.31
247.266	84.31
247.5	79.31
247.733	68.31
247.966	77.31
248.2	93.31
248.433	83.31
248.666	89.31
248.899	83.31
249.133	77.31
249.366	89.31
249.599	95.31
249.832	79.31
250.066	78.31
250.299	89.31
250.532	80.31
250.765	70.31
250.998	83.31
251.231	68.31
251.465	89.31
251.698	86.31
251.931	85.31
252.164	69.31
252.397	87.31
252.63	76.31
252.863	88.31
253.096	87.31
253.329	76.31
253.562	74.31
253.795	86.31
254.028	102.31
254.261	100.31
254.494	85.31
254.727	76.31
254.96	73.31
255.193	72.31
255.426	93.31
255.659	81.31
255.892	88.31
256.124	91.31
256.357	78.31
256.59	97.31
256.823	81.31
257.056	72.31
257.289	83.31
257.521	73.31
257.754	89.31
257.987	76.31
258.22	90.31
258.452	85.31
258.685	88.31
258.918	81.31
259.151	77.31
259.383	96.31
259.616	81.31
259.849	89.31
260.081	81.31
260.314	85.31
260.547	68.31
260.779	84.31
261.012	84.31
261.244	86.31
261.477	96.31
261.71	102.31
261.942	104.31
262.175	110.31
262.407	95.31
262.64	74.31
262.872	81.31
263.105	88.31
263.337	84.31
263.57	86.31
263.802	75.31
264.035	72.31
264.267	88.31
264.499	94.31
264.732	67.31
264.964	75.31
265.197	73.31
265.429	87.31
265.661	88.31
265.894	86.31
266.126	69.31
266.358	81.31
266.591	80.31
266.823	86.31
267.055	83.31
267.287	95.31
267.52	89.31
267.752	98.31
267.984	92.31
268.216	89.31
268.448	69.31
268.681	68.31
268.913	70.31
269.145	89.31
269.377	97.31
269.609	80.31
269.841	80.31
270.073	99.31
270.306	82.31
270.538	88.31
270.77	93.31
271.002	81.31
271.234	84.31
271.466	85.31
271.698	78.31
271.93	93.31
272.162	70.31
272.394	86.31
272.626	90.31
272.858	82.31
273.09	94.31
273.322	83.31
273.553	85.31
273.785	86.31
274.017	87.31
274.249	76.31
274.481	94.31
274.713	85.31
274.945	88.31
275.176	82.31
275.408	70.31
275.64	96.31
275.872	84.31
276.104	104.31
276.335	82.31
276.567	96.31
276.799	120.31
277.031	102.31
277.262	91.31
277.494	102.31
277.726	89.31
277.957	80.31
278.189	97.31
278.421	89.31
278.652	84.31
278.884	96.31
279.115	88.31
279.347	85.31
279.579	84.31
279.81	96.31
280.042	99.31
280.273	90.31
280.505	102.31
280.736	94.31
280.968	79.31
281.199	95.31
281.431	86.31
281.662	99.31
281.894	82.31
282.125	84.31
282.356	100.31
282.588	124.31
282.819	110.31
283.051	98.31
283.282	92.31
283.513	88.31
283.745	84.31
283.976	82.31
284.207	100.31
284.439	74.31
284.67	80.31
284.901	94.31
285.132	86.31
285.364	86.31
285.595	88.31
285.826	97.31
286.057	96.31
286.288	82.31
286.52	91.31
286.751	81.31
286.982	79.31
287.213	74.31
287.444	77.31
287.675	91.31
287.906	88.31
288.138	74.31
288.369	80.31
288.6	91.31
288.831	86.31
289.062	80.31
289.293	94.31
289.524	95.31
289.755	106.31
289.986	86.31
290.217	81.31
290.448	90.31
290.679	97.31
290.91	84.31
291.141	95.31
291.371	79.31
291.602	104.31
291.833	85.31
292.064	100.31
292.295	96.31
292.526	87.31
292.757	87.31
292.987	95.31
293.218	96.31
293.449	100.31
293.68	95.31
293.91	81.31
294.141	95.31
294.372	93.31
294.603	91.31
294.833	83.31
295.064	75.31
295.295	96.31
295.525	98.31
295.756	99.31
295.987	92.31
296.217	129.31
296.448	104.31
296.679	84.31
296.909	93.31
297.14	86.31
297.37	92.31
297.601	87.31
297.831	81.31
298.062	77.31
298.292	83.31
298.523	98.31
298.753	81.31
298.984	89.31
299.214	85.31
299.445	105.31
299.675	84.31
299.905	87.31
300.136	100.31
300.366	82.31
300.597	83.31
300.827	92.31
301.057	95.31
301.288	95.31
301.518	83.31
301.748	77.31
301.979	96.31
302.209	81.31
302.439	78.31
302.669	90.31
302.9	72.31
303.13	91.31
303.36	86.31
303.59	97.31
303.82	107.31
304.051	77.31
304.281	96.31
304.511	105.31
304.741	85.31
304.971	91.31
305.201	87.31
305.431	87.31
305.661	85.31
305.891	97.31
306.121	91.31
306.352	106.31
306.582	102.31
306.812	101.31
307.042	96.31
307.272	99.31
307.502	100.31
307.731	95.31
307.961	93.31
308.191	84.31
308.421	88.31
308.651	86.31
308.881	93.31
309.111	86.31
309.341	98.31
309.571	86.31
309.8	101.31
310.03	86.31
310.26	93.31
310.49	86.31
310.72	82.31
310.949	95.31
311.179	95.31
311.409	91.31
311.639	100.31
311.868	103.31
312.098	94.31
312.328	78.31
312.557	104.31
312.787	100.31
313.017	98.31
313.246	103.31
313.476	94.31
313.706	102.31
313.935	97.31
314.165	95.31
314.394	94.31
314.624	103.31
314.853	103.31
315.083	95.31
315.312	85.31
315.542	86.31
315.771	97.31
316.001	90.31
316.23	97.31
316.46	105.31
316.689	92.31
316.919	93.31
317.148	93.31
317.377	102.31
317.607	96.31
317.836	86.31
318.065	85.31
318.295	80.31
318.524	93.31
318.753	89.31
318.983	84.31
319.212	101.31
319.441	91.31
319.67	106.31
319.9	86.31
320.129	96.31
320.358	90.31
320.587	91.31
320.816	104.31
321.046	106.31
321.275	104.31
321.504	100.31
321.733	88.31
321.962	106.31
322.191	98.31
322.42	94.31
322.649	97.31
322.878	95.31
323.108	108.31
323.337	108.31
323.566	127.31
323.795	145.31
324.024	176.31
324.253	325.31
324.482	654.31
324.71	1348.31
324.939	1730.31
325.168	658.31
325.397	198.31
325.626	125.31
325.855	132.31
326.084	110.31
326.313	128.31
326.542	133.31
326.77	210.31
326.999	393.31
327.228	777.31
327.457	1374.31
327.686	1100.31
327.914	323.31
328.143	195.31
328.372	175.31
328.6	122.31
328.829	121.31
329.058	119.31
329.287	118.31
329.515	102.31
329.744	114.31
329.972	130.31
330.201	174.31
330.43	225.31
330.658	145.31
330.887	129.31
331.115	111.31
331.344	100.31
331.572	100.31
331.801	111.31
332.03	93.31
332.258	100.31
332.486	89.31
332.715	89.31
332.943	100.31
333.172	98.31
333.4	105.31
333.629	98.31
333.857	129.31
334.085	135.31
334.314	183.31
334.542	273.31
334.771	260.31
334.999	131.31
335.227	105.31
335.455	90.31
335.684	103.31
335.912	105.31
336.14	87.31
336.369	97.31
336.597	109.31
336.825	102.31
337.053	89.31
337.281	97.31
337.51	91.31
337.738	95.31
337.966	97.31
338.194	96.31
338.422	93.31
338.65	100.31
338.878	96.31
339.106	97.31
339.334	90.31
339.562	82.31
339.79	94.31
340.018	88.31
340.246	94.31
340.474	85.31
340.702	96.31
340.93	91.31
341.158	95.31
341.386	106.31
341.614	88.31
341.842	79.31
342.07	95.31
342.298	93.31
342.526	90.31
342.754	72.31
342.981	88.31
343.209	80.31
343.437	99.31
343.665	94.31
343.893	89.31
344.12	92.31
344.348	102.31
344.576	92.31
344.804	88.31
345.031	93.31
345.259	92.31
345.487	89.31
345.714	92.31
345.942	95.31
346.17	96.31
346.397	82.31
346.625	81.31
346.853	102.31
347.08	101.31
347.308	92.31
347.535	92.31
347.763	93.31
347.99	103.31
348.218	97.31
348.445	110.31
348.673	100.31
348.9	102.31
349.128	84.31
349.355	88.31
349.583	94.31
349.81	96.31
350.037	85.31
350.265	96.31
350.492	93.31
350.72	82.31
350.947	95.31
351.174	113.31
351.402	97.31
351.629	85.31
351.856	97.31
352.083	101.31
352.311	101.31
352.538	106.31
352.765	99.31
352.992	111.31
353.22	104.31
353.447	91.31
353.674	99.31
353.901	107.31
354.128	102.31
354.355	101.31
354.583	98.31
354.81	88.31
355.037	102.31
355.264	102.31
355.491	101.31
355.718	106.31
355.945	95.31
356.172	97.31
356.399	82.31
356.626	89.31
356.853	96.31
357.08	92.31
357.307	89.31
357.534	77.31
357.761	88.31
357.988	97.31
358.215	81.31
358.441	82.31
358.668	93.31
358.895	97.31
359.122	95.31
359.349	82.31
359.576	103.31
359.802	91.31
360.029	100.31
360.256	105.31
360.483	87.31
360.709	101.31
360.936	86.31
361.163	83.31
361.39	93.31
361.616	109.31
361.843	85.31
362.07	86.31
362.296	88.31
362.523	97.31
362.749	93.31
362.976	88.31
363.203	97.31
363.429	90.31
363.656	92.31
363.882	94.31
364.109	95.31
364.335	98.31
364.562	88.31
364.788	99.31
365.015	95.31
365.241	102.31
365.468	98.31
365.694	95.31
365.92	95.31
366.147	82.31
366.373	82.31
366.599	81.31
366.826	80.31
367.052	86.31
367.278	87.31
367.505	76.31
367.731	81.31
367.957	92.31
368.184	105.31
368.41	99.31
368.636	102.31
368.862	103.31
369.089	91.31
369.315	91.31
369.541	99.31
369.767	92.31
369.993	76.31
370.219	84.31
370.445	88.31
370.672	88.31
370.898	84.31
371.124	89.31
371.35	97.31
371.576	72.31
371.802	80.31
372.028	95.31
372.254	98.31
372.48	91.31
372.706	85.31
372.932	88.31
373.158	80.31
373.384	84.31
373.61	81.31
373.835	76.31
374.061	84.31
374.287	85.31
374.513	87.31
374.739	87.31
374.965	88.31
375.191	96.31
375.416	89.31
375.642	100.31
375.868	81.31
376.094	86.31
376.319	94.31
376.545	94.31
376.771	92.31
376.997	92.31
377.222	94.31
377.448	97.31
377.674	100.31
377.899	90.31
378.125	98.31
378.35	82.31
378.576	104.31
378.802	98.31
379.027	99.31
379.253	93.31
379.478	81.31
379.704	81.31
379.929	76.31
380.155	90.31
380.38	84.31
380.606	95.31
380.831	88.31
381.057	100.31
381.282	105.31
381.507	94.31
381.733	93.31
381.958	104.31
382.184	84.31
382.409	91.31
382.634	100.31
382.86	86.31
383.085	94.31
383.31	100.31
383.535	97.31
383.761	99.31
383.986	102.31
384.211	99.31
384.436	96.31
384.662	114.31
384.887	94.31
385.112	97.31
385.337	109.31
385.562	110.31
385.787	101.31
386.013	91.31
386.238	117.31
386.463	115.31
386.688	104.31
386.913	106.31
387.138	100.31
387.363	98.31
387.588	101.31
387.813	106.31
388.038	111.31
388.263	95.31
388.488	108.31
388.713	105.31
388.938	101.31
389.163	104.31
389.387	94.31
389.612	87.31
389.837	87.31
390.062	90.31
390.287	86.31
390.512	84.31
390.736	96.31
390.961	82.31
391.186	105.31
391.411	99.31
391.636	95.31
391.86	90.31
392.085	78.31
392.31	86.31
392.534	73.31
392.759	88.31
392.984	79.31
393.208	104.31
393.433	99.31
393.658	105.31
393.882	94.31
394.107	78.31
394.331	92.31
394.556	94.31
394.78	93.31
395.005	102.31
395.229	96.31
395.454	95.31
395.678	88.31
395.903	76.31
396.127	82.31
396.352	100.31
396.576	89.31
396.801	106.31
397.025	102.31
397.249	88.31
397.474	91.31
397.698	91.31
397.922	97.31
398.147	96.31
398.371	83.31
398.595	89.31
398.82	92.31
399.044	78.31
399.268	84.31
399.492	89.31
399.717	87.31
399.941	85.31
400.165	91.31
400.389	91.31
400.613	97.31
400.837	93.31
401.062	90.31
401.286	81.31
401.51	78.31
401.734	83.31
401.958	98.31
402.182	109.31
402.406	149.31
402.63	107.31
402.854	95.31
403.078	85.31
403.302	95.31
403.526	79.31
403.75	87.31
403.974	101.31
404.198	72.31
404.422	89.31
404.645	97.31
404.869	85.31
405.093	94.31
405.317	124.31
405.541	91.31
405.765	99.31
405.988	117.31
406.212	148.31
406.436	177.31
406.66	121.31
406.883	120.31
407.107	90.31
407.331	74.31
407.555	96.31
407.778	93.31
408.002	83.31
408.226	97.31
408.449	89.31
408.673	72.31
408.896	84.31
409.12	84.31
409.344	87.31
409.567	88.31
409.791	87.31
410.014	97.31
410.238	87.31
410.461	105.31
410.685	80.31
410.908	95.31
411.132	95.31
411.355	85.31
411.578	90.31
411.802	85.31
412.025	93.31
412.249	86.31
412.472	86.31
412.695	94.31
412.919	82.31
413.142	75.31
413.365	81.31
413.589	85.31
413.812	78.31
414.035	88.31
414.258	97.31
414.482	99.31
414.705	88.31
414.928	96.31
415.151	88.31
415.374	82.31
415.597	92.31
415.821	73.31
416.044	85.31
416.267	95.31
416.49	83.31
416.713	86.31
416.936	93.31
417.159	103.31
417.382	87.31
417.605	73.31
417.828	96.31
418.051	91.31
418.274	89.31
418.497	89.31
418.72	91.31
418.943	75.31
419.166	107.31
419.389	80.31
419.611	95.31
419.834	82.31
420.057	103.31
420.28	92.31
420.503	89.31
420.726	97.31
420.948	92.31
421.171	78.31
421.394	82.31
421.617	105.31
421.839	90.31
422.062	90.31
422.285	86.31
422.507	89.31
422.73	110.31
422.953	105.31
423.175	105.31
423.398	92.31
423.621	94.31
423.843	93.31
424.066	87.31
424.288	90.31
424.511	82.31
424.733	112.31
424.956	106.31
425.178	93.31
425.401	109.31
425.623	106.31
425.846	97.31
426.068	87.31
426.291	81.31
426.513	90.31
426.735	96.31
426.958	97.31
427.18	103.31
427.402	131.31
427.625	157.31
427.847	136.31
428.069	131.31
428.292	100.31
428.514	95.31
428.736	86.31
428.958	79.31
429.181	90.31
429.403	85.31
429.625	86.31
429.847	97.31
430.069	88.31
430.292	87.31
430.514	95.31
430.736	84.31
430.958	95.31
431.18	86.31
431.402	90.31
431.624	82.31
431.846	90.31
432.068	84.31
432.29	84.31
432.512	98.31
432.734	94.31
432.956	91.31
433.178	85.31
433.4	98.31
433.622	103.31
433.844	88.31
434.066	87.31
434.287	87.31
434.509	89.31
434.731	81.31
434.953	84.31
435.175	90.31
435.397	92.31
435.618	91.31
435.84	111.31
436.062	104.31
436.284	105.31
436.505	97.31
436.727	93.31
436.949	112.31
437.17	99.31
437.392	92.31
437.614	94.31
437.835	101.31
438.057	101.31
438.278	115.31
438.5	84.31
438.721	101.31
438.943	100.31
439.165	90.31
439.386	80.31
439.608	86.31
439.829	103.31
440.05	125.31
440.272	132.31
440.493	94.31
440.715	85.31
440.936	91.31
441.158	89.31
441.379	84.31
441.6	89.31
441.822	87.31
442.043	103.31
442.264	90.31
442.486	113.31
442.707	106.31
442.928	111.31
443.149	112.31
443.371	125.31
443.592	88.31
443.813	102.31
444.034	99.31
444.255	93.31
444.476	92.31
444.698	91.31
444.919	94.31
445.14	138.31
445.361	124.31
445.582	92.31
445.803	108.31
446.024	127.31
446.245	129.31
446.466	113.31
446.687	105.31
446.908	93.31
447.129	82.31
447.35	91.31
447.571	96.31
447.792	100.31
448.013	88.31
448.234	105.31
448.455	102.31
448.675	102.31
448.896	103.31
449.117	102.31
449.338	108.31
449.559	118.31
449.779	120.31
450	92.31
450.221	100.31
450.442	86.31
450.662	103.31
450.883	92.31
451.104	114.31
451.324	81.31
451.545	109.31
451.766	92.31
451.986	86.31
452.207	92.31
452.428	107.31
452.648	101.31
452.869	95.31
453.089	108.31
453.31	115.31
453.53	96.31
453.751	98.31
453.971	105.31
454.192	109.31
454.412	97.31
454.633	67.31
454.853	83.31
455.073	89.31
455.294	85.31
455.514	94.31
455.734	88.31
455.955	96.31
456.175	82.31
456.395	72.31
456.616	90.31
456.836	85.31
457.056	81.31
457.276	90.31
457.497	80.31
457.717	75.31
457.937	89.31
458.157	88.31
458.377	85.31
458.598	108.31
458.818	138.31
459.038	138.31
459.258	104.31
459.478	85.31
459.698	106.31
459.918	74.31
460.138	77.31
460.358	91.31
460.578	88.31
460.798	96.31
461.018	87.31
461.238	80.31
461.458	80.31
461.678	81.31
461.898	87.31
462.118	82.31
462.338	94.31
462.558	91.31
462.777	86.31
462.997	88.31
463.217	89.31
463.437	88.31
463.657	89.31
463.876	84.31
464.096	90.31
464.316	87.31
464.536	94.31
464.755	100.31
464.975	109.31
465.195	150.31
465.414	131.31
465.634	99.31
465.854	91.31
466.073	76.31
466.293	96.31
466.512	86.31
466.732	94.31
466.951	94.31
467.171	83.31
467.391	89.31
467.61	100.31
467.829	109.31
468.049	140.31
468.268	161.31
468.488	97.31
468.707	95.31
468.927	84.31
469.146	96.31
469.365	86.31
469.585	92.31
469.804	97.31
470.023	98.31
470.243	97.31
470.462	100.31
470.681	108.31
470.901	85.31
471.12	88.31
471.339	86.31
471.558	87.31
471.777	94.31
471.997	104.31
472.216	198.31
472.435	344.31
472.654	142.31
472.873	106.31
473.092	94.31
473.311	89.31
473.53	96.31
473.749	93.31
473.968	101.31
474.187	106.31
474.406	92.31
474.625	72.31
474.844	87.31
475.063	85.31
475.282	89.31
475.501	106.31
475.72	91.31
475.939	95.31
476.158	82.31
476.377	93.31
476.596	84.31
476.814	92.31
477.033	109.31
477.252	104.31
477.471	94.31
477.69	85.31
477.908	96.31
478.127	98.31
478.346	87.31
478.564	82.31
478.783	101.31
479.002	103.31
479.22	88.31
479.439	94.31
479.658	99.31
479.876	97.31
480.095	103.31
480.313	91.31
480.532	91.31
480.751	128.31
480.969	196.31
481.188	559.31
481.406	367.31
481.624	111.31
481.843	88.31
482.061	95.31
482.28	89.31
482.498	98.31
482.717	85.31
482.935	93.31
483.153	91.31
483.372	97.31
483.59	87.31
483.808	85.31
484.027	79.31
484.245	93.31
484.463	90.31
484.681	97.31
484.9	93.31
485.118	103.31
485.336	95.31
485.554	89.31
485.772	95.31
485.99	111.31
486.209	107.31
486.427	101.31
486.645	117.31
486.863	127.31
487.081	100.31
487.299	102.31
487.517	87.31
487.735	93.31
487.953	93.31
488.171	96.31
488.389	92.31
488.607	86.31
488.825	93.31
489.043	92.31
489.261	102.31
489.479	81.31
489.696	82.31
489.914	92.31
490.132	97.31
490.35	97.31
490.568	90.31
490.786	96.31
491.003	87.31
491.221	84.31
491.439	90.31
491.657	80.31
491.874	99.31
492.092	105.31
492.31	90.31
492.527	98.31
492.745	87.31
492.963	97.31
493.18	97.31
493.398	100.31
493.615	80.31
493.833	98.31
494.05	102.31
494.268	94.31
494.485	81.31
494.703	88.31
494.92	96.31
495.138	86.31
495.355	90.31
495.573	93.31
495.79	109.31
496.008	101.31
496.225	101.31
496.442	90.31
496.66	90.31
496.877	96.31
497.094	88.31
497.312	90.31
497.529	106.31
497.746	84.31
497.963	87.31
498.181	93.31
498.398	91.31
498.615	105.31
498.832	95.31
499.049	98.31
499.267	103.31
499.484	94.31
499.701	93.31
499.918	98.31
500.135	100.31
500.352	96.31
500.569	77.31
500.786	91.31
501.003	77.31
501.22	94.31
501.437	109.31
501.654	85.31
501.871	93.31
502.088	90.31
502.305	96.31
502.522	75.31
502.739	86.31
502.956	81.31
503.172	87.31
503.389	99.31
503.606	102.31
503.823	97.31
504.04	93.31
504.256	102.31
504.473	91.31
504.69	108.31
504.907	91.31
505.123	76.31
505.34	93.31
505.557	95.31
505.773	101.31
505.99	88.31
506.207	93.31
506.423	90.31
506.64	94.31
506.856	98.31
507.073	92.31
507.289	97.31
507.506	104.31
507.722	126.31
507.939	96.31
508.155	92.31
508.372	84.31
508.588	86.31
508.805	98.31
509.021	94.31
509.238	100.31
509.454	97.31
509.67	100.31
509.887	107.31
510.103	117.31
510.319	168.31
510.536	574.31
510.752	1736.31
510.968	504.31
511.184	143.31
511.401	110.31
511.617	85.31
511.833	93.31
512.049	82.31
512.265	97.31
512.481	105.31
512.698	80.31
512.914	95.31
513.13	96.31
513.346	92.31
513.562	92.31
513.778	98.31
513.994	108.31
514.21	94.31
514.426	110.31
514.642	121.31
514.858	110.31
515.074	144.31
515.29	346.31
515.506	1079.31
515.721	415.31
