Data from Circ_2010_H10_HRD10591_00091.txt Node
Date: Wed Jan 03 10:09:59 EST 2024
User: Yrep
Spectrometer: HR+D1059
Trigger mode: 1
Integration Time (sec): 1.000000E-1
Scans to average: 1
Electric dark correction enabled: true
Nonlinearity correction enabled: false
Boxcar width: 0
XAxis mode: Wavelengths
Number of Pixels in Spectrum: 2048
>>>>>Begin Spectral Data<<<<<
223.165	-21
223.4	-21
223.635	-21
223.869	-15
224.104	-21
224.338	-19
224.573	-10
224.808	-22
225.042	-7
225.277	14
225.511	7
225.746	2
225.98	3
226.215	10
226.449	22
226.683	16
226.918	20
227.152	21
227.387	42
227.621	37
227.856	52
228.09	47
228.324	45
228.559	57
228.793	62
229.027	66
229.262	62
229.496	68
229.73	76
229.964	79
230.199	69
230.433	79
230.667	83
230.901	92
231.136	62
231.37	83
231.604	71
231.838	81
232.072	78
232.306	79
232.541	70
232.775	82
233.009	76
233.243	69
233.477	78
233.711	82
233.945	67
234.179	84
234.413	73
234.647	79
234.881	66
235.115	72
235.349	74
235.583	84
235.817	79
236.051	68
236.285	93
236.519	83
236.753	66
236.987	67
237.221	90
237.455	80
237.689	66
237.922	80
238.156	78
238.39	100
238.624	70
238.858	70
239.091	74
239.325	67
239.559	84
239.793	85
240.027	85
240.26	86
240.494	76
240.728	89
240.961	69
241.195	79
241.429	71
241.662	68
241.896	74
242.13	69
242.363	66
242.597	70
242.83	79
243.064	82
243.298	86
243.531	66
243.765	74
243.998	83
244.232	80
244.465	73
244.699	76
244.932	74
245.166	74
245.399	83
245.633	62
245.866	86
246.099	87
246.333	77
246.566	80
246.8	73
247.033	67
247.266	84
247.5	72
247.733	82
247.966	83
248.2	76
248.433	89
248.666	69
248.899	81
249.133	80
249.366	83
249.599	93
249.832	74
250.066	77
250.299	91
250.532	88
250.765	84
250.998	70
251.231	76
251.465	81
251.698	78
251.931	72
252.164	80
252.397	84
252.63	83
252.863	63
253.096	69
253.329	90
253.562	84
253.795	83
254.028	67
254.261	74
254.494	76
254.727	81
254.96	88
255.193	86
255.426	76
255.659	82
255.892	81
256.124	82
256.357	68
256.59	81
256.823	86
257.056	73
257.289	85
257.521	76
257.754	60
257.987	72
258.22	87
258.452	72
258.685	86
258.918	65
259.151	75
259.383	83
259.616	79
259.849	73
260.081	91
260.314	79
260.547	76
260.779	91
261.012	83
261.244	87
261.477	77
261.71	83
261.942	101
262.175	95
262.407	83
262.64	86
262.872	82
263.105	69
263.337	102
263.57	84
263.802	77
264.035	74
264.267	95
264.499	78
264.732	74
264.964	89
265.197	87
265.429	85
265.661	97
265.894	87
266.126	82
266.358	58
266.591	80
266.823	76
267.055	90
267.287	90
267.52	80
267.752	87
267.984	77
268.216	81
268.448	77
268.681	86
268.913	82
269.145	76
269.377	89
269.609	89
269.841	94
270.073	94
270.306	80
270.538	81
270.77	85
271.002	77
271.234	73
271.466	88
271.698	85
271.93	82
272.162	79
272.394	90
272.626	93
272.858	62
273.09	76
273.322	90
273.553	80
273.785	89
274.017	73
274.249	86
274.481	85
274.713	84
274.945	83
275.176	83
275.408	77
275.64	81
275.872	81
276.104	87
276.335	87
276.567	97
276.799	105
277.031	93
277.262	104
277.494	86
277.726	78
277.957	77
278.189	90
278.421	86
278.652	89
278.884	91
279.115	80
279.347	84
279.579	79
279.81	82
280.042	101
280.273	114
280.505	92
280.736	91
280.968	87
281.199	77
281.431	79
281.662	87
281.894	94
282.125	91
282.356	110
282.588	141
282.819	105
283.051	90
283.282	82
283.513	89
283.745	87
283.976	74
284.207	85
284.439	79
284.67	78
284.901	80
285.132	76
285.364	91
285.595	67
285.826	87
286.057	80
286.288	86
286.52	92
286.751	90
286.982	93
287.213	92
287.444	76
287.675	84
287.906	93
288.138	93
288.369	79
288.6	76
288.831	69
289.062	72
289.293	84
289.524	86
289.755	75
289.986	77
290.217	71
290.448	85
290.679	86
290.91	80
291.141	77
291.371	76
291.602	76
291.833	77
292.064	82
292.295	68
292.526	74
292.757	88
292.987	98
293.218	77
293.449	101
293.68	87
293.91	92
294.141	85
294.372	97
294.603	93
294.833	72
295.064	70
295.295	76
295.525	85
295.756	101
295.987	114
296.217	118
296.448	110
296.679	86
296.909	81
297.14	86
297.37	83
297.601	85
297.831	98
298.062	83
298.292	88
298.523	85
298.753	84
298.984	75
299.214	76
299.445	79
299.675	90
299.905	100
300.136	73
300.366	86
300.597	91
300.827	84
301.057	96
301.288	89
301.518	91
301.748	82
301.979	91
302.209	87
302.439	89
302.669	94
302.9	85
303.13	88
303.36	89
303.59	114
303.82	100
304.051	105
304.281	102
304.511	82
304.741	83
304.971	82
305.201	74
305.431	84
305.661	87
305.891	74
306.121	93
306.352	95
306.582	97
306.812	83
307.042	99
307.272	98
307.502	102
307.731	112
307.961	97
308.191	85
308.421	82
308.651	71
308.881	79
309.111	99
309.341	87
309.571	91
309.8	98
310.03	97
310.26	95
310.49	78
310.72	104
310.949	105
311.179	93
311.409	90
311.639	84
311.868	108
312.098	95
312.328	84
312.557	90
312.787	103
313.017	101
313.246	92
313.476	88
313.706	89
313.935	80
314.165	87
314.394	101
314.624	81
314.853	92
315.083	96
315.312	93
315.542	96
315.771	70
316.001	78
316.23	92
316.46	92
316.689	84
316.919	91
317.148	81
317.377	75
317.607	99
317.836	85
318.065	78
318.295	89
318.524	68
318.753	83
318.983	103
319.212	90
319.441	100
319.67	99
319.9	91
320.129	86
320.358	83
320.587	103
320.816	94
321.046	88
321.275	90
321.504	84
321.733	81
321.962	75
322.191	85
322.42	113
322.649	90
322.878	103
323.108	110
323.337	116
323.566	119
323.795	131
324.024	169
324.253	327
324.482	698
324.71	1437
324.939	1797
325.168	690
325.397	213
325.626	132
325.855	127
326.084	117
326.313	108
326.542	143
326.77	217
326.999	396
327.228	803
327.457	1461
327.686	1130
327.914	330
328.143	211
328.372	189
328.6	143
328.829	99
329.058	115
329.287	140
329.515	104
329.744	127
329.972	156
330.201	238
330.43	283
330.658	189
330.887	140
331.115	113
331.344	99
331.572	96
331.801	85
332.03	86
332.258	98
332.486	91
332.715	93
332.943	81
333.172	93
333.4	102
333.629	102
333.857	117
334.085	151
334.314	232
334.542	341
334.771	342
334.999	157
335.227	99
335.455	104
335.684	100
335.912	101
336.14	92
336.369	96
336.597	97
336.825	99
337.053	99
337.281	94
337.51	87
337.738	93
337.966	100
338.194	99
338.422	76
338.65	88
338.878	101
339.106	84
339.334	94
339.562	88
339.79	97
340.018	99
340.246	84
340.474	86
340.702	95
340.93	86
341.158	82
341.386	80
341.614	82
341.842	93
342.07	86
342.298	102
342.526	86
342.754	78
342.981	74
343.209	76
343.437	95
343.665	91
343.893	81
344.12	97
344.348	78
344.576	96
344.804	85
345.031	76
345.259	94
345.487	97
345.714	93
345.942	96
346.17	85
346.397	95
346.625	74
346.853	90
347.08	100
347.308	107
347.535	101
347.763	91
347.99	88
348.218	96
348.445	95
348.673	110
348.9	94
349.128	96
349.355	94
349.583	93
349.81	74
350.037	92
350.265	96
350.492	89
350.72	82
350.947	109
351.174	120
351.402	119
351.629	98
351.856	81
352.083	93
352.311	97
352.538	101
352.765	103
352.992	116
353.22	109
353.447	98
353.674	99
353.901	84
354.128	90
354.355	76
354.583	87
354.81	86
355.037	91
355.264	105
355.491	91
355.718	88
355.945	86
356.172	82
356.399	93
356.626	101
356.853	84
357.08	92
357.307	94
357.534	83
357.761	74
357.988	90
358.215	94
358.441	101
358.668	90
358.895	83
359.122	84
359.349	79
359.576	85
359.802	91
360.029	117
360.256	96
360.483	98
360.709	79
360.936	89
361.163	89
361.39	84
361.616	81
361.843	82
362.07	98
362.296	88
362.523	91
362.749	94
362.976	82
363.203	88
363.429	86
363.656	87
363.882	91
364.109	75
364.335	75
364.562	87
364.788	89
365.015	94
365.241	99
365.468	105
365.694	97
365.92	93
366.147	79
366.373	82
366.599	86
366.826	82
367.052	76
367.278	94
367.505	74
367.731	96
367.957	90
368.184	94
368.41	82
368.636	101
368.862	100
369.089	97
369.315	79
369.541	80
369.767	73
369.993	94
370.219	76
370.445	83
370.672	89
370.898	86
371.124	83
371.35	82
371.576	79
371.802	75
372.028	71
372.254	81
372.48	89
372.706	96
372.932	65
373.158	85
373.384	96
373.61	88
373.835	90
374.061	93
374.287	93
374.513	92
374.739	93
374.965	91
375.191	97
375.416	90
375.642	90
375.868	67
376.094	77
376.319	70
376.545	85
376.771	95
376.997	85
377.222	73
377.448	90
377.674	91
377.899	78
378.125	94
378.35	84
378.576	71
378.802	79
379.027	92
379.253	86
379.478	83
379.704	92
379.929	88
380.155	83
380.38	98
380.606	101
380.831	87
381.057	88
381.282	104
381.507	86
381.733	98
381.958	86
382.184	95
382.409	92
382.634	91
382.86	95
383.085	93
383.31	92
383.535	92
383.761	109
383.986	91
384.211	77
384.436	86
384.662	97
384.887	94
385.112	95
385.337	84
385.562	97
385.787	101
386.013	111
386.238	106
386.463	86
386.688	92
386.913	89
387.138	101
387.363	109
387.588	103
387.813	104
388.038	87
388.263	96
388.488	99
388.713	93
388.938	89
389.163	77
389.387	83
389.612	95
389.837	79
390.062	95
390.287	96
390.512	95
390.736	91
390.961	93
391.186	91
391.411	84
391.636	78
391.86	79
392.085	91
392.31	92
392.534	79
392.759	86
392.984	85
393.208	87
393.433	114
393.658	91
393.882	80
394.107	86
394.331	83
394.556	82
394.78	84
395.005	81
395.229	84
395.454	76
395.678	86
395.903	86
396.127	82
396.352	89
396.576	83
396.801	96
397.025	82
397.249	87
397.474	78
397.698	79
397.922	82
398.147	92
398.371	85
398.595	88
398.82	95
399.044	89
399.268	95
399.492	94
399.717	86
399.941	84
400.165	93
400.389	78
400.613	82
400.837	78
401.062	98
401.286	88
401.51	83
401.734	90
401.958	95
402.182	100
402.406	149
402.63	121
402.854	83
403.078	83
403.302	89
403.526	81
403.75	79
403.974	79
404.198	82
404.422	79
404.645	82
404.869	90
405.093	116
405.317	100
405.541	98
405.765	103
405.988	105
406.212	141
406.436	178
406.66	118
406.883	80
407.107	80
407.331	87
407.555	99
407.778	85
408.002	76
408.226	85
408.449	79
408.673	92
408.896	89
409.12	74
409.344	90
409.567	96
409.791	83
410.014	93
410.238	97
410.461	77
410.685	92
410.908	88
411.132	106
411.355	95
411.578	82
411.802	85
412.025	80
412.249	62
412.472	83
412.695	91
412.919	83
413.142	85
413.365	85
413.589	82
413.812	83
414.035	88
414.258	96
414.482	91
414.705	77
414.928	87
415.151	84
415.374	92
415.597	89
415.821	84
416.044	77
416.267	103
416.49	90
416.713	85
416.936	95
417.159	100
417.382	85
417.605	81
417.828	94
418.051	79
418.274	80
418.497	90
418.72	84
418.943	86
419.166	86
419.389	79
419.611	90
419.834	86
420.057	88
420.28	80
420.503	90
420.726	94
420.948	90
421.171	87
421.394	77
421.617	90
421.839	78
422.062	69
422.285	78
422.507	91
422.73	97
422.953	94
423.175	89
423.398	88
423.621	81
423.843	94
424.066	84
424.288	83
424.511	85
424.733	79
424.956	79
425.178	97
425.401	74
425.623	103
425.846	78
426.068	93
426.291	85
426.513	85
426.735	91
426.958	99
427.18	99
427.402	113
427.625	146
427.847	133
428.069	139
428.292	98
428.514	91
428.736	88
428.958	82
429.181	85
429.403	81
429.625	94
429.847	87
430.069	97
430.292	88
430.514	78
430.736	89
430.958	76
431.18	78
431.402	83
431.624	88
431.846	86
432.068	83
432.29	73
432.512	89
432.734	90
432.956	81
433.178	103
433.4	100
433.622	76
433.844	88
434.066	79
434.287	89
434.509	91
434.731	93
434.953	76
435.175	82
435.397	84
435.618	99
435.84	102
436.062	129
436.284	113
436.505	99
436.727	83
436.949	87
437.17	79
437.392	84
437.614	78
437.835	91
438.057	88
438.278	108
438.5	81
438.721	107
438.943	99
439.165	95
439.386	82
439.608	101
439.829	83
440.05	114
440.272	120
440.493	87
440.715	98
440.936	94
441.158	88
441.379	91
441.6	76
441.822	81
442.043	89
442.264	82
442.486	110
442.707	89
442.928	92
443.149	132
443.371	120
443.592	105
443.813	100
444.034	101
444.255	86
444.476	70
444.698	83
444.919	88
445.14	135
445.361	110
445.582	105
445.803	127
446.024	133
446.245	120
446.466	97
446.687	81
446.908	85
447.129	82
447.35	88
447.571	101
447.792	83
448.013	92
448.234	103
448.455	89
448.675	92
448.896	111
449.117	81
449.338	105
449.559	108
449.779	109
450	88
450.221	86
450.442	90
450.662	101
450.883	93
451.104	117
451.324	97
451.545	100
451.766	92
451.986	74
452.207	79
452.428	90
452.648	83
452.869	103
453.089	107
453.31	109
453.53	94
453.751	95
453.971	74
454.192	94
454.412	75
454.633	92
454.853	87
455.073	89
455.294	83
455.514	86
455.734	91
455.955	77
456.175	79
456.395	82
456.616	92
456.836	83
457.056	97
457.276	76
457.497	92
457.717	85
457.937	79
458.157	72
458.377	89
458.598	90
458.818	121
459.038	154
459.258	124
459.478	88
459.698	78
459.918	80
460.138	82
460.358	82
460.578	75
460.798	92
461.018	83
461.238	87
461.458	93
461.678	83
461.898	90
462.118	82
462.338	78
462.558	96
462.777	99
462.997	87
463.217	79
463.437	86
463.657	86
463.876	72
464.096	75
464.316	78
464.536	79
464.755	96
464.975	107
465.195	131
465.414	135
465.634	92
465.854	106
466.073	101
466.293	91
466.512	76
466.732	100
466.951	87
467.171	100
467.391	95
467.61	85
467.829	115
468.049	181
468.268	210
468.488	106
468.707	82
468.927	87
469.146	76
469.365	70
469.585	78
469.804	85
470.023	89
470.243	70
470.462	97
470.681	102
470.901	89
471.12	87
471.339	103
471.558	85
471.777	115
471.997	126
472.216	272
472.435	508
472.654	177
472.873	102
473.092	95
473.311	83
473.53	79
473.749	89
473.968	93
474.187	100
474.406	81
474.625	85
474.844	93
475.063	71
475.282	79
475.501	80
475.72	74
475.939	90
476.158	85
476.377	89
476.596	94
476.814	97
477.033	86
477.252	91
477.471	90
477.69	105
477.908	82
478.127	78
478.346	63
478.564	92
478.783	88
479.002	85
479.22	78
479.439	103
479.658	86
479.876	103
480.095	98
480.313	105
480.532	105
480.751	130
480.969	273
481.188	842
481.406	533
481.624	139
481.843	85
482.061	95
482.28	87
482.498	91
482.717	85
482.935	92
483.153	89
483.372	82
483.59	79
483.808	90
484.027	77
484.245	99
484.463	93
484.681	92
484.9	89
485.118	91
485.336	96
485.554	90
485.772	91
485.99	93
486.209	110
486.427	97
486.645	98
486.863	109
487.081	90
487.299	109
487.517	86
487.735	89
487.953	103
488.171	96
488.389	94
488.607	83
488.825	78
489.043	83
489.261	91
489.479	108
489.696	102
489.914	72
490.132	81
490.35	88
490.568	88
490.786	88
491.003	86
491.221	89
491.439	89
491.657	95
491.874	94
492.092	96
492.31	88
492.527	78
492.745	91
492.963	80
493.18	88
493.398	90
493.615	90
493.833	106
494.05	70
494.268	89
494.485	81
494.703	90
494.92	89
495.138	89
495.355	97
495.573	107
495.79	84
496.008	91
496.225	100
496.442	100
496.66	98
496.877	86
497.094	82
497.312	72
497.529	87
497.746	92
497.963	99
498.181	87
498.398	81
498.615	114
498.832	106
499.049	96
499.267	69
499.484	94
499.701	79
499.918	93
500.135	88
500.352	94
500.569	91
500.786	104
501.003	94
501.22	101
501.437	89
501.654	79
501.871	122
502.088	92
502.305	86
502.522	82
502.739	83
502.956	88
503.172	91
503.389	86
503.606	103
503.823	93
504.04	89
504.256	100
504.473	85
504.69	89
504.907	79
505.123	80
505.34	85
505.557	86
505.773	85
505.99	91
506.207	93
506.423	86
506.64	70
506.856	90
507.073	99
507.289	83
507.506	75
507.722	106
507.939	98
508.155	86
508.372	71
508.588	88
508.805	94
509.021	88
509.238	93
509.454	102
509.67	91
509.887	95
510.103	111
510.319	172
510.536	598
510.752	1824
510.968	537
511.184	150
511.401	116
511.617	91
511.833	94
512.049	95
512.265	92
512.481	85
512.698	93
512.914	94
513.13	85
513.346	97
513.562	91
513.778	86
513.994	86
514.21	96
514.426	115
514.642	129
514.858	116
515.074	149
515.29	349
515.506	1130
515.721	430
515.937	131
516.153	103
516.369	90
516.585	89
516.801	88
517.016	78
517.232	94
517.448	72
517.664	86
517.879	93
518.095	88
518.311	97
518.527	104
518.742	101
518.958	95
519.173	81
519.389	97
519.605	81
519.82	90
520.036	103
520.251	125
520.467	113
520.682	94
520.898	102
521.113	109
521.329	125
521.544	166
521.76	433
521.975	1888
522.19	1163
522.406	273
522.621	106
522.836	91
523.052	97
523.267	100
523.482	104
523.698	100
523.913	108
524.128	93
524.343	82
524.559	79
524.774	99
524.989	79
525.204	102
525.419	83
525.634	97
525.849	104
526.064	82
526.28	99
526.495	76
526.71	71
526.925	90
527.14	80
527.355	92
527.57	88
527.785	90
527.999	87
528.214	81
528.429	84
528.644	98
528.859	87
529.074	97
529.289	104
529.503	162
529.718	106
529.933	78
530.148	82
530.363	94
530.577	99
530.792	71
531.007	78
531.221	68
531.436	84
531.651	93
531.865	84
532.08	70
532.295	82
532.509	93
532.724	74
532.938	89
533.153	90
533.367	87
533.582	95
533.796	90
534.011	88
534.225	85
534.44	73
534.654	76
534.868	99
535.083	80
535.297	95
535.511	99
535.726	89
535.94	89
536.154	102
536.369	90
536.583	90
536.797	90
537.011	86
537.225	92
537.44	92
537.654	83
537.868	82
538.082	76
538.296	75
538.51	96
538.724	93
538.938	89
539.153	106
539.367	88
539.581	86
539.795	90
540.009	75
540.222	86
540.436	89
540.65	94
540.864	89
541.078	103
541.292	91
541.506	91
541.72	95
541.934	84
542.147	87
542.361	83
542.575	89
542.789	73
543.002	91
543.216	91
543.43	80
543.644	89
543.857	86
544.071	98
544.285	91
544.498	78
544.712	86
544.925	84
545.139	91
545.352	82
545.566	92
545.779	75
545.993	106
546.206	93
546.42	88
546.633	90
546.847	102
547.06	79
547.274	86
547.487	87
547.7	89
547.914	93
548.127	90
548.34	97
548.554	90
548.767	91
548.98	86
549.193	105
549.407	80
549.62	74
549.833	82
550.046	84
550.259	87
550.473	92
550.686	77
550.899	95
551.112	92
551.325	70
551.538	84
551.751	73
551.964	92
552.177	77
552.39	86
552.603	79
552.816	90
553.029	72
553.242	90
553.455	97
553.667	98
553.88	83
554.093	75
554.306	89
554.519	78
554.732	84
554.944	99
555.157	92
555.37	87
555.583	85
555.795	103
556.008	97
556.221	78
556.433	85
556.646	86
556.859	88
557.071	87
557.284	88
557.496	75
557.709	88
557.921	94
558.134	77
558.346	87
558.559	91
558.771	97
558.984	90
559.196	91
559.409	102
559.621	83
559.833	86
560.046	98
560.258	86
560.47	83
560.683	85
560.895	88
561.107	89
561.32	95
561.532	79
561.744	81
561.956	88
562.168	82
562.381	81
562.593	104
562.805	81
563.017	78
563.229	89
563.441	84
563.653	84
563.865	92
564.077	73
564.289	90
564.501	86
564.713	94
564.925	95
565.137	100
565.349	74
565.561	78
565.773	91
565.985	82
566.197	76
566.408	84
566.62	86
566.832	71
567.044	85
567.255	88
567.467	86
567.679	83
567.891	88
568.102	83
568.314	95
568.526	97
568.737	92
568.949	82
569.161	88
569.372	91
569.584	87
569.795	85
570.007	107
570.218	198
570.43	130
570.641	91
570.853	73
571.064	89
571.276	78
571.487	74
571.698	73
571.91	94
572.121	81
572.333	85
572.544	88
572.755	85
572.966	72
573.178	68
573.389	92
573.6	94
573.811	87
574.023	76
574.234	97
574.445	86
574.656	82
574.867	87
575.078	87
575.289	78
575.501	82
575.712	74
575.923	85
576.134	90
576.345	79
576.556	82
576.767	108
576.978	96
577.188	97
577.399	78
577.61	86
577.821	95
578.032	105
578.243	213
578.454	575
578.665	178
578.875	88
579.086	96
579.297	77
579.508	89
579.718	80
579.929	90
580.14	87
580.35	98
580.561	91
580.772	93
580.982	93
581.193	78
581.403	77
581.614	85
581.825	99
582.035	78
582.246	94
582.456	87
582.667	87
582.877	87
583.087	100
583.298	90
583.508	92
583.719	72
583.929	91
584.139	88
584.35	90
584.56	87
584.77	80
584.981	75
585.191	84
585.401	80
585.611	75
585.821	91
586.032	82
