Data from Circ_2010_H10_HRD10591_00036.txt Node
Date: Wed Jan 03 10:09:48 EST 2024
User: Yrep
Spectrometer: HR+D1059
Trigger mode: 1
Integration Time (sec): 1.000000E-1
Scans to average: 1
Electric dark correction enabled: true
Nonlinearity correction enabled: false
Boxcar width: 0
XAxis mode: Wavelengths
Number of Pixels in Spectrum: 2048
>>>>>Begin Spectral Data<<<<<
223.165	-7.94
223.4	-7.94
223.635	-7.94
223.869	-20.94
224.104	-15.94
224.338	-15.94
224.573	-16.94
224.808	-22.94
225.042	-6.94
225.277	-17.94
225.511	-4.94
225.746	6.06
225.98	0.06
226.215	12.06
226.449	8.06
226.683	30.06
226.918	33.06
227.152	41.06
227.387	32.06
227.621	54.06
227.856	58.06
228.09	54.06
228.324	58.06
228.559	60.06
228.793	43.06
229.027	72.06
229.262	71.06
229.496	68.06
229.73	84.06
229.964	68.06
230.199	83.06
230.433	85.06
230.667	74.06
230.901	78.06
231.136	73.06
231.37	89.06
231.604	70.06
231.838	57.06
232.072	71.06
232.306	86.06
232.541	72.06
232.775	80.06
233.009	68.06
233.243	78.06
233.477	78.06
233.711	80.06
233.945	80.06
234.179	72.06
234.413	68.06
234.647	78.06
234.881	78.06
235.115	67.06
235.349	77.06
235.583	78.06
235.817	78.06
236.051	85.06
236.285	76.06
236.519	69.06
236.753	80.06
236.987	87.06
237.221	88.06
237.455	79.06
237.689	103.06
237.922	92.06
238.156	76.06
238.39	79.06
238.624	87.06
238.858	78.06
239.091	68.06
239.325	77.06
239.559	79.06
239.793	79.06
240.027	82.06
240.26	84.06
240.494	78.06
240.728	77.06
240.961	78.06
241.195	79.06
241.429	73.06
241.662	77.06
241.896	86.06
242.13	62.06
242.363	73.06
242.597	80.06
242.83	69.06
243.064	82.06
243.298	88.06
243.531	73.06
243.765	90.06
243.998	87.06
244.232	80.06
244.465	85.06
244.699	79.06
244.932	82.06
245.166	72.06
245.399	71.06
245.633	85.06
245.866	83.06
246.099	84.06
246.333	81.06
246.566	84.06
246.8	79.06
247.033	80.06
247.266	80.06
247.5	83.06
247.733	87.06
247.966	76.06
248.2	69.06
248.433	93.06
248.666	76.06
248.899	86.06
249.133	90.06
249.366	87.06
249.599	77.06
249.832	74.06
250.066	77.06
250.299	76.06
250.532	74.06
250.765	68.06
250.998	78.06
251.231	81.06
251.465	79.06
251.698	73.06
251.931	85.06
252.164	79.06
252.397	74.06
252.63	86.06
252.863	81.06
253.096	75.06
253.329	68.06
253.562	78.06
253.795	93.06
254.028	80.06
254.261	90.06
254.494	72.06
254.727	72.06
254.96	81.06
255.193	73.06
255.426	74.06
255.659	90.06
255.892	80.06
256.124	74.06
256.357	72.06
256.59	92.06
256.823	80.06
257.056	78.06
257.289	79.06
257.521	89.06
257.754	86.06
257.987	74.06
258.22	87.06
258.452	83.06
258.685	92.06
258.918	85.06
259.151	81.06
259.383	86.06
259.616	74.06
259.849	94.06
260.081	86.06
260.314	91.06
260.547	70.06
260.779	87.06
261.012	86.06
261.244	77.06
261.477	82.06
261.71	95.06
261.942	98.06
262.175	105.06
262.407	87.06
262.64	81.06
262.872	77.06
263.105	75.06
263.337	85.06
263.57	91.06
263.802	91.06
264.035	85.06
264.267	80.06
264.499	83.06
264.732	89.06
264.964	81.06
265.197	79.06
265.429	77.06
265.661	90.06
265.894	87.06
266.126	81.06
266.358	87.06
266.591	93.06
266.823	92.06
267.055	84.06
267.287	86.06
267.52	88.06
267.752	82.06
267.984	75.06
268.216	77.06
268.448	89.06
268.681	86.06
268.913	74.06
269.145	90.06
269.377	82.06
269.609	77.06
269.841	83.06
270.073	86.06
270.306	71.06
270.538	92.06
270.77	82.06
271.002	66.06
271.234	85.06
271.466	81.06
271.698	85.06
271.93	85.06
272.162	95.06
272.394	88.06
272.626	73.06
272.858	96.06
273.09	83.06
273.322	88.06
273.553	99.06
273.785	89.06
274.017	90.06
274.249	91.06
274.481	90.06
274.713	77.06
274.945	97.06
275.176	87.06
275.408	103.06
275.64	88.06
275.872	80.06
276.104	78.06
276.335	87.06
276.567	90.06
276.799	97.06
277.031	102.06
277.262	92.06
277.494	86.06
277.726	86.06
277.957	92.06
278.189	93.06
278.421	78.06
278.652	94.06
278.884	85.06
279.115	92.06
279.347	83.06
279.579	78.06
279.81	92.06
280.042	81.06
280.273	93.06
280.505	92.06
280.736	81.06
280.968	88.06
281.199	85.06
281.431	81.06
281.662	91.06
281.894	88.06
282.125	90.06
282.356	105.06
282.588	123.06
282.819	109.06
283.051	84.06
283.282	90.06
283.513	90.06
283.745	88.06
283.976	87.06
284.207	104.06
284.439	78.06
284.67	103.06
284.901	89.06
285.132	94.06
285.364	90.06
285.595	85.06
285.826	64.06
286.057	78.06
286.288	92.06
286.52	88.06
286.751	90.06
286.982	97.06
287.213	93.06
287.444	77.06
287.675	91.06
287.906	78.06
288.138	99.06
288.369	105.06
288.6	85.06
288.831	84.06
289.062	93.06
289.293	93.06
289.524	80.06
289.755	82.06
289.986	77.06
290.217	82.06
290.448	90.06
290.679	94.06
290.91	83.06
291.141	92.06
291.371	86.06
291.602	81.06
291.833	79.06
292.064	85.06
292.295	81.06
292.526	92.06
292.757	87.06
292.987	92.06
293.218	90.06
293.449	88.06
293.68	87.06
293.91	93.06
294.141	89.06
294.372	85.06
294.603	94.06
294.833	85.06
295.064	87.06
295.295	96.06
295.525	88.06
295.756	96.06
295.987	97.06
296.217	140.06
296.448	109.06
296.679	77.06
296.909	94.06
297.14	88.06
297.37	93.06
297.601	89.06
297.831	96.06
298.062	90.06
298.292	111.06
298.523	84.06
298.753	55.06
298.984	80.06
299.214	82.06
299.445	88.06
299.675	86.06
299.905	78.06
300.136	92.06
300.366	98.06
300.597	97.06
300.827	93.06
301.057	89.06
301.288	100.06
301.518	92.06
301.748	79.06
301.979	107.06
302.209	85.06
302.439	88.06
302.669	80.06
302.9	84.06
303.13	88.06
303.36	85.06
303.59	86.06
303.82	99.06
304.051	93.06
304.281	80.06
304.511	103.06
304.741	81.06
304.971	78.06
305.201	98.06
305.431	90.06
305.661	87.06
305.891	89.06
306.121	86.06
306.352	95.06
306.582	95.06
306.812	91.06
307.042	96.06
307.272	98.06
307.502	108.06
307.731	105.06
307.961	92.06
308.191	93.06
308.421	101.06
308.651	88.06
308.881	79.06
309.111	96.06
309.341	109.06
309.571	87.06
309.8	81.06
310.03	106.06
310.26	90.06
310.49	96.06
310.72	80.06
310.949	99.06
311.179	109.06
311.409	95.06
311.639	76.06
311.868	85.06
312.098	89.06
312.328	97.06
312.557	113.06
312.787	101.06
313.017	95.06
313.246	90.06
313.476	88.06
313.706	94.06
313.935	97.06
314.165	98.06
314.394	88.06
314.624	86.06
314.853	90.06
315.083	81.06
315.312	105.06
315.542	96.06
315.771	97.06
316.001	96.06
316.23	88.06
316.46	89.06
316.689	98.06
316.919	93.06
317.148	87.06
317.377	97.06
317.607	97.06
317.836	94.06
318.065	82.06
318.295	86.06
318.524	81.06
318.753	77.06
318.983	79.06
319.212	101.06
319.441	107.06
319.67	94.06
319.9	91.06
320.129	89.06
320.358	87.06
320.587	97.06
320.816	90.06
321.046	106.06
321.275	74.06
321.504	94.06
321.733	97.06
321.962	81.06
322.191	95.06
322.42	113.06
322.649	110.06
322.878	97.06
323.108	106.06
323.337	108.06
323.566	119.06
323.795	131.06
324.024	176.06
324.253	312.06
324.482	659.06
324.71	1314.06
324.939	1672.06
325.168	664.06
325.397	214.06
325.626	124.06
325.855	144.06
326.084	121.06
326.313	127.06
326.542	133.06
326.77	194.06
326.999	376.06
327.228	759.06
327.457	1305.06
327.686	1049.06
327.914	303.06
328.143	183.06
328.372	157.06
328.6	139.06
328.829	111.06
329.058	97.06
329.287	127.06
329.515	96.06
329.744	101.06
329.972	140.06
330.201	171.06
330.43	197.06
330.658	146.06
330.887	138.06
331.115	113.06
331.344	102.06
331.572	108.06
331.801	98.06
332.03	105.06
332.258	103.06
332.486	77.06
332.715	74.06
332.943	84.06
333.172	102.06
333.4	106.06
333.629	112.06
333.857	118.06
334.085	126.06
334.314	161.06
334.542	247.06
334.771	228.06
334.999	132.06
335.227	107.06
335.455	91.06
335.684	98.06
335.912	102.06
336.14	92.06
336.369	93.06
336.597	105.06
336.825	92.06
337.053	99.06
337.281	88.06
337.51	98.06
337.738	102.06
337.966	91.06
338.194	79.06
338.422	86.06
338.65	95.06
338.878	97.06
339.106	97.06
339.334	88.06
339.562	79.06
339.79	93.06
340.018	95.06
340.246	106.06
340.474	93.06
340.702	95.06
340.93	86.06
341.158	89.06
341.386	93.06
341.614	86.06
341.842	84.06
342.07	101.06
342.298	93.06
342.526	77.06
342.754	90.06
342.981	81.06
343.209	88.06
343.437	106.06
343.665	104.06
343.893	109.06
344.12	99.06
344.348	87.06
344.576	103.06
344.804	77.06
345.031	99.06
345.259	95.06
345.487	89.06
345.714	81.06
345.942	98.06
346.17	89.06
346.397	81.06
346.625	90.06
346.853	92.06
347.08	93.06
347.308	95.06
347.535	88.06
347.763	96.06
347.99	101.06
348.218	98.06
348.445	93.06
348.673	105.06
348.9	111.06
349.128	103.06
349.355	80.06
349.583	88.06
349.81	87.06
350.037	87.06
350.265	84.06
350.492	90.06
350.72	84.06
350.947	100.06
351.174	108.06
351.402	112.06
351.629	94.06
351.856	105.06
352.083	100.06
352.311	103.06
352.538	105.06
352.765	114.06
352.992	121.06
353.22	97.06
353.447	111.06
353.674	102.06
353.901	92.06
354.128	93.06
354.355	101.06
354.583	81.06
354.81	88.06
355.037	84.06
355.264	85.06
355.491	100.06
355.718	72.06
355.945	96.06
356.172	92.06
356.399	93.06
356.626	88.06
356.853	100.06
357.08	95.06
357.307	86.06
357.534	95.06
357.761	92.06
357.988	90.06
358.215	95.06
358.441	101.06
358.668	103.06
358.895	97.06
359.122	96.06
359.349	97.06
359.576	89.06
359.802	93.06
360.029	113.06
360.256	98.06
360.483	103.06
360.709	75.06
360.936	99.06
361.163	87.06
361.39	100.06
361.616	104.06
361.843	81.06
362.07	94.06
362.296	90.06
362.523	84.06
362.749	105.06
362.976	91.06
363.203	94.06
363.429	80.06
363.656	76.06
363.882	94.06
364.109	97.06
364.335	78.06
364.562	92.06
364.788	95.06
365.015	98.06
365.241	93.06
365.468	105.06
365.694	95.06
365.92	97.06
366.147	101.06
366.373	91.06
366.599	88.06
366.826	96.06
367.052	88.06
367.278	99.06
367.505	78.06
367.731	89.06
367.957	79.06
368.184	87.06
368.41	84.06
368.636	103.06
368.862	104.06
369.089	111.06
369.315	80.06
369.541	108.06
369.767	93.06
369.993	106.06
370.219	93.06
370.445	98.06
370.672	92.06
370.898	78.06
371.124	82.06
371.35	90.06
371.576	84.06
371.802	87.06
372.028	81.06
372.254	98.06
372.48	86.06
372.706	85.06
372.932	73.06
373.158	75.06
373.384	76.06
373.61	81.06
373.835	90.06
374.061	85.06
374.287	87.06
374.513	94.06
374.739	79.06
374.965	89.06
375.191	87.06
375.416	89.06
375.642	98.06
375.868	91.06
376.094	96.06
376.319	88.06
376.545	92.06
376.771	89.06
376.997	97.06
377.222	93.06
377.448	81.06
377.674	99.06
377.899	105.06
378.125	95.06
378.35	76.06
378.576	82.06
378.802	87.06
379.027	89.06
379.253	98.06
379.478	82.06
379.704	94.06
379.929	88.06
380.155	99.06
380.38	84.06
380.606	89.06
380.831	94.06
381.057	95.06
381.282	80.06
381.507	100.06
381.733	90.06
381.958	94.06
382.184	100.06
382.409	91.06
382.634	98.06
382.86	100.06
383.085	101.06
383.31	100.06
383.535	94.06
383.761	91.06
383.986	99.06
384.211	106.06
384.436	110.06
384.662	109.06
384.887	109.06
385.112	102.06
385.337	103.06
385.562	104.06
385.787	113.06
386.013	115.06
386.238	102.06
386.463	121.06
386.688	106.06
386.913	85.06
387.138	102.06
387.363	106.06
387.588	107.06
387.813	82.06
388.038	122.06
388.263	121.06
388.488	111.06
388.713	111.06
388.938	95.06
389.163	88.06
389.387	90.06
389.612	91.06
389.837	81.06
390.062	86.06
390.287	89.06
390.512	103.06
390.736	93.06
390.961	91.06
391.186	82.06
391.411	106.06
391.636	110.06
391.86	90.06
392.085	101.06
392.31	73.06
392.534	85.06
392.759	84.06
392.984	89.06
393.208	79.06
393.433	103.06
393.658	95.06
393.882	93.06
394.107	89.06
394.331	86.06
394.556	89.06
394.78	81.06
395.005	89.06
395.229	88.06
395.454	96.06
395.678	100.06
395.903	96.06
396.127	83.06
396.352	85.06
396.576	87.06
396.801	92.06
397.025	90.06
397.249	85.06
397.474	87.06
397.698	81.06
397.922	89.06
398.147	94.06
398.371	99.06
398.595	81.06
398.82	96.06
399.044	84.06
399.268	97.06
399.492	82.06
399.717	73.06
399.941	79.06
400.165	94.06
400.389	96.06
400.613	82.06
400.837	89.06
401.062	82.06
401.286	87.06
401.51	96.06
401.734	90.06
401.958	105.06
402.182	129.06
402.406	143.06
402.63	106.06
402.854	85.06
403.078	87.06
403.302	77.06
403.526	91.06
403.75	74.06
403.974	78.06
404.198	91.06
404.422	95.06
404.645	93.06
404.869	85.06
405.093	97.06
405.317	102.06
405.541	102.06
405.765	102.06
405.988	122.06
406.212	145.06
406.436	182.06
406.66	127.06
406.883	101.06
407.107	99.06
407.331	98.06
407.555	83.06
407.778	82.06
408.002	92.06
408.226	94.06
408.449	84.06
408.673	74.06
408.896	88.06
409.12	83.06
409.344	94.06
409.567	92.06
409.791	91.06
410.014	92.06
410.238	99.06
410.461	84.06
410.685	96.06
410.908	91.06
411.132	109.06
411.355	107.06
411.578	97.06
411.802	81.06
412.025	85.06
412.249	93.06
412.472	113.06
412.695	97.06
412.919	92.06
413.142	85.06
413.365	99.06
413.589	100.06
413.812	92.06
414.035	78.06
414.258	90.06
414.482	89.06
414.705	75.06
414.928	85.06
415.151	86.06
415.374	86.06
415.597	97.06
415.821	92.06
416.044	90.06
416.267	81.06
416.49	82.06
416.713	88.06
416.936	89.06
417.159	91.06
417.382	91.06
417.605	90.06
417.828	98.06
418.051	96.06
418.274	83.06
418.497	88.06
418.72	79.06
418.943	90.06
419.166	96.06
419.389	91.06
419.611	88.06
419.834	72.06
420.057	81.06
420.28	88.06
420.503	75.06
420.726	88.06
420.948	96.06
421.171	87.06
421.394	92.06
421.617	89.06
421.839	84.06
422.062	93.06
422.285	89.06
422.507	101.06
422.73	86.06
422.953	105.06
423.175	102.06
423.398	96.06
423.621	102.06
423.843	90.06
424.066	79.06
424.288	89.06
424.511	85.06
424.733	87.06
424.956	102.06
425.178	99.06
425.401	91.06
425.623	97.06
425.846	84.06
426.068	90.06
426.291	94.06
426.513	93.06
426.735	70.06
426.958	96.06
427.18	88.06
427.402	135.06
427.625	154.06
427.847	132.06
428.069	122.06
428.292	93.06
428.514	88.06
428.736	98.06
428.958	85.06
429.181	86.06
429.403	102.06
429.625	85.06
429.847	87.06
430.069	97.06
430.292	85.06
430.514	95.06
430.736	85.06
430.958	79.06
431.18	88.06
431.402	86.06
431.624	90.06
431.846	87.06
432.068	87.06
432.29	90.06
432.512	95.06
432.734	78.06
432.956	102.06
433.178	96.06
433.4	95.06
433.622	74.06
433.844	98.06
434.066	96.06
434.287	98.06
434.509	97.06
434.731	89.06
434.953	102.06
435.175	81.06
435.397	74.06
435.618	88.06
435.84	88.06
436.062	105.06
436.284	100.06
436.505	88.06
436.727	109.06
436.949	105.06
437.17	84.06
437.392	82.06
437.614	86.06
437.835	97.06
438.057	105.06
438.278	106.06
438.5	91.06
438.721	110.06
438.943	98.06
439.165	86.06
439.386	88.06
439.608	93.06
439.829	92.06
440.05	123.06
440.272	126.06
440.493	105.06
440.715	97.06
440.936	96.06
441.158	88.06
441.379	103.06
441.6	87.06
441.822	87.06
442.043	90.06
442.264	88.06
442.486	77.06
442.707	95.06
442.928	97.06
443.149	104.06
443.371	114.06
443.592	99.06
443.813	116.06
444.034	110.06
444.255	91.06
444.476	96.06
444.698	89.06
444.919	98.06
445.14	136.06
445.361	132.06
445.582	113.06
445.803	104.06
446.024	126.06
446.245	132.06
446.466	104.06
446.687	89.06
446.908	92.06
447.129	86.06
447.35	97.06
447.571	96.06
447.792	97.06
448.013	93.06
448.234	98.06
448.455	92.06
448.675	88.06
448.896	97.06
449.117	103.06
449.338	81.06
449.559	116.06
449.779	114.06
450	86.06
450.221	96.06
450.442	86.06
450.662	85.06
450.883	94.06
451.104	104.06
451.324	100.06
451.545	91.06
451.766	102.06
451.986	95.06
452.207	91.06
452.428	98.06
452.648	90.06
452.869	109.06
453.089	109.06
453.31	103.06
453.53	104.06
453.751	80.06
453.971	86.06
454.192	105.06
454.412	101.06
454.633	89.06
454.853	95.06
455.073	89.06
455.294	87.06
455.514	101.06
455.734	94.06
455.955	88.06
456.175	93.06
456.395	82.06
456.616	96.06
456.836	76.06
457.056	85.06
457.276	90.06
457.497	75.06
457.717	85.06
457.937	82.06
458.157	95.06
458.377	94.06
458.598	94.06
458.818	130.06
459.038	123.06
459.258	113.06
459.478	84.06
459.698	86.06
459.918	81.06
460.138	98.06
460.358	88.06
460.578	72.06
460.798	95.06
461.018	93.06
461.238	95.06
461.458	93.06
461.678	80.06
461.898	84.06
462.118	81.06
462.338	100.06
462.558	78.06
462.777	96.06
462.997	93.06
463.217	92.06
463.437	81.06
463.657	92.06
463.876	86.06
464.096	89.06
464.316	102.06
464.536	93.06
464.755	94.06
464.975	113.06
465.195	129.06
465.414	140.06
465.634	96.06
465.854	81.06
466.073	93.06
466.293	96.06
466.512	79.06
466.732	89.06
466.951	93.06
467.171	91.06
467.391	97.06
467.61	84.06
467.829	93.06
468.049	132.06
468.268	160.06
468.488	101.06
468.707	82.06
468.927	80.06
469.146	100.06
469.365	91.06
469.585	79.06
469.804	92.06
470.023	85.06
470.243	90.06
470.462	97.06
470.681	109.06
470.901	93.06
471.12	86.06
471.339	88.06
471.558	81.06
471.777	86.06
471.997	130.06
472.216	212.06
472.435	316.06
472.654	140.06
472.873	78.06
473.092	81.06
473.311	86.06
473.53	80.06
473.749	79.06
473.968	87.06
474.187	106.06
474.406	100.06
474.625	98.06
474.844	82.06
475.063	91.06
475.282	76.06
475.501	85.06
475.72	79.06
475.939	79.06
476.158	94.06
476.377	65.06
476.596	92.06
476.814	84.06
477.033	81.06
477.252	102.06
477.471	88.06
477.69	101.06
477.908	91.06
478.127	97.06
478.346	86.06
478.564	79.06
478.783	92.06
479.002	95.06
479.22	81.06
479.439	111.06
479.658	100.06
479.876	109.06
480.095	91.06
480.313	90.06
480.532	92.06
480.751	103.06
480.969	185.06
481.188	475.06
481.406	316.06
481.624	121.06
481.843	82.06
482.061	100.06
482.28	81.06
482.498	99.06
482.717	84.06
482.935	95.06
483.153	82.06
483.372	77.06
483.59	82.06
483.808	86.06
484.027	106.06
484.245	105.06
484.463	95.06
484.681	94.06
484.9	85.06
485.118	86.06
485.336	80.06
485.554	98.06
485.772	101.06
485.99	92.06
486.209	94.06
486.427	97.06
486.645	107.06
486.863	106.06
487.081	98.06
487.299	87.06
487.517	90.06
487.735	103.06
487.953	91.06
488.171	83.06
488.389	76.06
488.607	96.06
488.825	93.06
489.043	86.06
489.261	95.06
489.479	95.06
489.696	94.06
489.914	97.06
490.132	93.06
490.35	85.06
490.568	99.06
490.786	76.06
491.003	93.06
491.221	84.06
491.439	101.06
491.657	89.06
491.874	98.06
492.092	83.06
492.31	82.06
492.527	88.06
492.745	86.06
492.963	85.06
493.18	95.06
493.398	88.06
493.615	89.06
493.833	107.06
494.05	96.06
494.268	74.06
494.485	96.06
494.703	94.06
494.92	86.06
495.138	85.06
495.355	91.06
495.573	87.06
495.79	90.06
496.008	87.06
496.225	98.06
496.442	83.06
496.66	96.06
496.877	86.06
497.094	103.06
497.312	94.06
497.529	88.06
497.746	85.06
497.963	100.06
498.181	100.06
498.398	101.06
498.615	97.06
498.832	109.06
499.049	80.06
499.267	92.06
499.484	84.06
499.701	80.06
499.918	81.06
500.135	89.06
500.352	99.06
500.569	87.06
500.786	80.06
501.003	89.06
501.22	87.06
501.437	80.06
501.654	88.06
501.871	101.06
502.088	86.06
502.305	85.06
502.522	95.06
502.739	91.06
502.956	82.06
503.172	101.06
503.389	94.06
503.606	95.06
503.823	101.06
504.04	108.06
504.256	92.06
504.473	90.06
504.69	90.06
504.907	78.06
505.123	91.06
505.34	80.06
505.557	95.06
505.773	104.06
505.99	89.06
506.207	77.06
506.423	82.06
506.64	85.06
506.856	84.06
507.073	86.06
507.289	95.06
507.506	116.06
507.722	94.06
507.939	112.06
508.155	94.06
508.372	101.06
508.588	90.06
508.805	89.06
509.021	87.06
509.238	96.06
509.454	118.06
509.67	89.06
509.887	113.06
510.103	115.06
510.319	177.06
510.536	577.06
510.752	1804.06
510.968	552.06
511.184	136.06
511.401	104.06
511.617	103.06
511.833	93.06
512.049	101.06
512.265	76.06
512.481	104.06
512.698	81.06
512.914	95.06
513.13	104.06
513.346	100.06
513.562	85.06
513.778	90.06
513.994	94.06
514.21	79.06
514.426	108.06
514.642	112.06
514.858	109.06
515.074	131.06
515.29	330.06
515.506	1094.06
515.721	424.06
515.937	135.06
516.153	97.06
