Data from Circ_2010_H10_HRD10591_00004.txt Node
Date: Wed Jan 03 10:09:42 EST 2024
User: Yrep
Spectrometer: HR+D1059
Trigger mode: 1
Integration Time (sec): 1.000000E-1
Scans to average: 1
Electric dark correction enabled: true
Nonlinearity correction enabled: false
Boxcar width: 0
XAxis mode: Wavelengths
Number of Pixels in Spectrum: 2048
>>>>>Begin Spectral Data<<<<<
223.165	-36.06
223.4	-36.06
223.635	-36.06
223.869	-18.06
224.104	-27.06
224.338	-18.06
224.573	-21.06
224.808	-10.06
225.042	-5.06
225.277	-6.06
225.511	-2.06
225.746	-3.06
225.98	8.94
226.215	21.94
226.449	24.94
226.683	27.94
226.918	33.94
227.152	28.94
227.387	38.94
227.621	36.94
227.856	44.94
228.09	46.94
228.324	52.94
228.559	60.94
228.793	60.94
229.027	68.94
229.262	73.94
229.496	76.94
229.73	74.94
229.964	78.94
230.199	75.94
230.433	70.94
230.667	85.94
230.901	79.94
231.136	90.94
231.37	86.94
231.604	60.94
231.838	69.94
232.072	69.94
232.306	71.94
232.541	81.94
232.775	76.94
233.009	70.94
233.243	87.94
233.477	77.94
233.711	91.94
233.945	73.94
234.179	84.94
234.413	76.94
234.647	79.94
234.881	76.94
235.115	79.94
235.349	71.94
235.583	84.94
235.817	72.94
236.051	86.94
236.285	75.94
236.519	88.94
236.753	87.94
236.987	73.94
237.221	86.94
237.455	64.94
237.689	76.94
237.922	74.94
238.156	89.94
238.39	86.94
238.624	60.94
238.858	71.94
239.091	78.94
239.325	80.94
239.559	83.94
239.793	81.94
240.027	86.94
240.26	77.94
240.494	85.94
240.728	74.94
240.961	77.94
241.195	81.94
241.429	88.94
241.662	70.94
241.896	66.94
242.13	72.94
242.363	79.94
242.597	73.94
242.83	82.94
243.064	69.94
243.298	90.94
243.531	91.94
243.765	56.94
243.998	75.94
244.232	79.94
244.465	77.94
244.699	73.94
244.932	67.94
245.166	78.94
245.399	85.94
245.633	78.94
245.866	66.94
246.099	70.94
246.333	76.94
246.566	98.94
246.8	70.94
247.033	91.94
247.266	88.94
247.5	98.94
247.733	81.94
247.966	76.94
248.2	74.94
248.433	93.94
248.666	80.94
248.899	64.94
249.133	93.94
249.366	91.94
249.599	98.94
249.832	93.94
250.066	89.94
250.299	84.94
250.532	74.94
250.765	70.94
250.998	96.94
251.231	81.94
251.465	68.94
251.698	74.94
251.931	85.94
252.164	81.94
252.397	79.94
252.63	78.94
252.863	89.94
253.096	70.94
253.329	63.94
253.562	74.94
253.795	74.94
254.028	73.94
254.261	92.94
254.494	98.94
254.727	96.94
254.96	86.94
255.193	86.94
255.426	78.94
255.659	82.94
255.892	70.94
256.124	73.94
256.357	95.94
256.59	67.94
256.823	81.94
257.056	85.94
257.289	81.94
257.521	76.94
257.754	90.94
257.987	81.94
258.22	59.94
258.452	75.94
258.685	72.94
258.918	77.94
259.151	89.94
259.383	67.94
259.616	84.94
259.849	81.94
260.081	80.94
260.314	75.94
260.547	85.94
260.779	84.94
261.012	85.94
261.244	81.94
261.477	82.94
261.71	110.94
261.942	103.94
262.175	125.94
262.407	87.94
262.64	89.94
262.872	85.94
263.105	85.94
263.337	83.94
263.57	69.94
263.802	82.94
264.035	79.94
264.267	74.94
264.499	86.94
264.732	77.94
264.964	75.94
265.197	82.94
265.429	86.94
265.661	80.94
265.894	74.94
266.126	80.94
266.358	91.94
266.591	82.94
266.823	81.94
267.055	88.94
267.287	92.94
267.52	64.94
267.752	74.94
267.984	82.94
268.216	74.94
268.448	89.94
268.681	89.94
268.913	83.94
269.145	90.94
269.377	83.94
269.609	84.94
269.841	88.94
270.073	82.94
270.306	82.94
270.538	89.94
270.77	79.94
271.002	85.94
271.234	89.94
271.466	80.94
271.698	79.94
271.93	97.94
272.162	90.94
272.394	96.94
272.626	87.94
272.858	85.94
273.09	78.94
273.322	76.94
273.553	73.94
273.785	80.94
274.017	92.94
274.249	99.94
274.481	87.94
274.713	81.94
274.945	81.94
275.176	78.94
275.408	89.94
275.64	88.94
275.872	82.94
276.104	91.94
276.335	80.94
276.567	97.94
276.799	100.94
277.031	90.94
277.262	88.94
277.494	94.94
277.726	85.94
277.957	80.94
278.189	94.94
278.421	88.94
278.652	78.94
278.884	73.94
279.115	81.94
279.347	103.94
279.579	89.94
279.81	86.94
280.042	86.94
280.273	78.94
280.505	91.94
280.736	102.94
280.968	97.94
281.199	92.94
281.431	91.94
281.662	81.94
281.894	100.94
282.125	102.94
282.356	120.94
282.588	125.94
282.819	115.94
283.051	84.94
283.282	88.94
283.513	82.94
283.745	80.94
283.976	97.94
284.207	93.94
284.439	79.94
284.67	90.94
284.901	95.94
285.132	98.94
285.364	95.94
285.595	96.94
285.826	81.94
286.057	100.94
286.288	83.94
286.52	78.94
286.751	84.94
286.982	77.94
287.213	80.94
287.444	75.94
287.675	89.94
287.906	90.94
288.138	83.94
288.369	102.94
288.6	93.94
288.831	95.94
289.062	95.94
289.293	77.94
289.524	89.94
289.755	87.94
289.986	86.94
290.217	94.94
290.448	96.94
290.679	81.94
290.91	86.94
291.141	101.94
291.371	80.94
291.602	91.94
291.833	84.94
292.064	86.94
292.295	93.94
292.526	95.94
292.757	93.94
292.987	80.94
293.218	97.94
293.449	86.94
293.68	80.94
293.91	98.94
294.141	90.94
294.372	82.94
294.603	92.94
294.833	88.94
295.064	101.94
295.295	85.94
295.525	87.94
295.756	85.94
295.987	96.94
296.217	136.94
296.448	121.94
296.679	107.94
296.909	96.94
297.14	68.94
297.37	86.94
297.601	90.94
297.831	83.94
298.062	87.94
298.292	94.94
298.523	92.94
298.753	87.94
298.984	116.94
299.214	91.94
299.445	91.94
299.675	104.94
299.905	100.94
300.136	80.94
300.366	104.94
300.597	88.94
300.827	90.94
301.057	99.94
301.288	97.94
301.518	82.94
301.748	84.94
301.979	105.94
302.209	90.94
302.439	83.94
302.669	80.94
302.9	93.94
303.13	92.94
303.36	102.94
303.59	100.94
303.82	98.94
304.051	102.94
304.281	85.94
304.511	89.94
304.741	97.94
304.971	93.94
305.201	85.94
305.431	89.94
305.661	72.94
305.891	94.94
306.121	100.94
306.352	113.94
306.582	108.94
306.812	100.94
307.042	100.94
307.272	104.94
307.502	105.94
307.731	109.94
307.961	89.94
308.191	92.94
308.421	90.94
308.651	94.94
308.881	89.94
309.111	98.94
309.341	97.94
309.571	106.94
309.8	91.94
310.03	91.94
310.26	117.94
310.49	92.94
310.72	106.94
310.949	112.94
311.179	87.94
311.409	88.94
311.639	88.94
311.868	102.94
312.098	90.94
312.328	106.94
312.557	106.94
312.787	119.94
313.017	102.94
313.246	92.94
313.476	94.94
313.706	90.94
313.935	84.94
314.165	104.94
314.394	96.94
314.624	96.94
314.853	112.94
315.083	100.94
315.312	82.94
315.542	83.94
315.771	91.94
316.001	88.94
316.23	101.94
316.46	101.94
316.689	91.94
316.919	100.94
317.148	87.94
317.377	104.94
317.607	94.94
317.836	95.94
318.065	103.94
318.295	81.94
318.524	82.94
318.753	84.94
318.983	100.94
319.212	85.94
319.441	106.94
319.67	101.94
319.9	89.94
320.129	100.94
320.358	96.94
320.587	92.94
320.816	92.94
321.046	102.94
321.275	85.94
321.504	83.94
321.733	94.94
321.962	120.94
322.191	99.94
322.42	116.94
322.649	87.94
322.878	95.94
323.108	121.94
323.337	104.94
323.566	113.94
323.795	145.94
324.024	198.94
324.253	360.94
324.482	720.94
324.71	1466.94
324.939	1902.94
325.168	732.94
325.397	235.94
325.626	136.94
325.855	121.94
326.084	119.94
326.313	121.94
326.542	163.94
326.77	204.94
326.999	413.94
327.228	817.94
327.457	1466.94
327.686	1156.94
327.914	340.94
328.143	192.94
328.372	150.94
328.6	124.94
328.829	106.94
329.058	128.94
329.287	112.94
329.515	97.94
329.744	110.94
329.972	127.94
330.201	148.94
330.43	163.94
330.658	132.94
330.887	119.94
331.115	110.94
331.344	90.94
331.572	88.94
331.801	108.94
332.03	96.94
332.258	96.94
332.486	95.94
332.715	103.94
332.943	92.94
333.172	98.94
333.4	97.94
333.629	94.94
333.857	109.94
334.085	116.94
334.314	140.94
334.542	184.94
334.771	171.94
334.999	108.94
335.227	98.94
335.455	101.94
335.684	84.94
335.912	100.94
336.14	93.94
336.369	107.94
336.597	82.94
336.825	91.94
337.053	90.94
337.281	91.94
337.51	86.94
337.738	89.94
337.966	100.94
338.194	85.94
338.422	99.94
338.65	87.94
338.878	96.94
339.106	96.94
339.334	82.94
339.562	90.94
339.79	98.94
340.018	101.94
340.246	92.94
340.474	97.94
340.702	91.94
340.93	100.94
341.158	88.94
341.386	81.94
341.614	87.94
341.842	82.94
342.07	97.94
342.298	91.94
342.526	88.94
342.754	86.94
342.981	93.94
343.209	89.94
343.437	91.94
343.665	94.94
343.893	80.94
344.12	95.94
344.348	94.94
344.576	100.94
344.804	84.94
345.031	92.94
345.259	82.94
345.487	86.94
345.714	76.94
345.942	93.94
346.17	96.94
346.397	97.94
346.625	85.94
346.853	94.94
347.08	93.94
347.308	89.94
347.535	110.94
347.763	101.94
347.99	99.94
348.218	88.94
348.445	104.94
348.673	110.94
348.9	110.94
349.128	84.94
349.355	99.94
349.583	87.94
349.81	101.94
350.037	91.94
350.265	112.94
350.492	96.94
350.72	100.94
350.947	95.94
351.174	105.94
351.402	111.94
351.629	96.94
351.856	94.94
352.083	94.94
352.311	104.94
352.538	113.94
352.765	101.94
352.992	107.94
353.22	93.94
353.447	105.94
353.674	98.94
353.901	80.94
354.128	98.94
354.355	86.94
354.583	91.94
354.81	93.94
355.037	99.94
355.264	100.94
355.491	86.94
355.718	101.94
355.945	88.94
356.172	86.94
356.399	105.94
356.626	92.94
356.853	93.94
357.08	105.94
357.307	89.94
357.534	96.94
357.761	89.94
357.988	87.94
358.215	107.94
358.441	100.94
358.668	90.94
358.895	98.94
359.122	105.94
359.349	92.94
359.576	94.94
359.802	94.94
360.029	118.94
360.256	92.94
360.483	97.94
360.709	90.94
360.936	88.94
361.163	100.94
361.39	83.94
361.616	88.94
361.843	98.94
362.07	88.94
362.296	82.94
362.523	101.94
362.749	92.94
362.976	90.94
363.203	92.94
363.429	81.94
363.656	109.94
363.882	80.94
364.109	94.94
364.335	76.94
364.562	94.94
364.788	97.94
365.015	94.94
365.241	101.94
365.468	98.94
365.694	96.94
365.92	93.94
366.147	88.94
366.373	98.94
366.599	90.94
366.826	96.94
367.052	95.94
367.278	87.94
367.505	81.94
367.731	94.94
367.957	89.94
368.184	89.94
368.41	108.94
368.636	102.94
368.862	108.94
369.089	96.94
369.315	92.94
369.541	94.94
369.767	112.94
369.993	91.94
370.219	99.94
370.445	85.94
370.672	66.94
370.898	81.94
371.124	101.94
371.35	85.94
371.576	80.94
371.802	80.94
372.028	95.94
372.254	91.94
372.48	82.94
372.706	97.94
372.932	86.94
373.158	83.94
373.384	86.94
373.61	86.94
373.835	81.94
374.061	83.94
374.287	86.94
374.513	78.94
374.739	92.94
374.965	97.94
375.191	76.94
375.416	92.94
375.642	80.94
375.868	78.94
376.094	77.94
376.319	78.94
376.545	84.94
376.771	90.94
376.997	80.94
377.222	98.94
377.448	98.94
377.674	102.94
377.899	74.94
378.125	90.94
378.35	93.94
378.576	100.94
378.802	101.94
379.027	96.94
379.253	93.94
379.478	96.94
379.704	97.94
379.929	85.94
380.155	102.94
380.38	92.94
380.606	91.94
380.831	103.94
381.057	94.94
381.282	81.94
381.507	97.94
381.733	101.94
381.958	84.94
382.184	93.94
382.409	95.94
382.634	98.94
382.86	74.94
383.085	104.94
383.31	98.94
383.535	93.94
383.761	105.94
383.986	95.94
384.211	107.94
384.436	81.94
384.662	90.94
384.887	90.94
385.112	104.94
385.337	102.94
385.562	94.94
385.787	104.94
386.013	105.94
386.238	101.94
386.463	119.94
386.688	100.94
386.913	101.94
387.138	114.94
387.363	106.94
387.588	91.94
387.813	102.94
388.038	123.94
388.263	110.94
388.488	112.94
388.713	95.94
388.938	98.94
389.163	100.94
389.387	102.94
389.612	91.94
389.837	88.94
390.062	72.94
390.287	84.94
390.512	81.94
390.736	101.94
390.961	95.94
391.186	93.94
391.411	102.94
391.636	79.94
391.86	90.94
392.085	87.94
392.31	87.94
392.534	92.94
392.759	96.94
392.984	93.94
393.208	86.94
393.433	120.94
393.658	109.94
393.882	96.94
394.107	86.94
394.331	102.94
394.556	96.94
394.78	84.94
395.005	95.94
395.229	79.94
395.454	92.94
395.678	87.94
395.903	106.94
396.127	101.94
396.352	95.94
396.576	91.94
396.801	96.94
397.025	111.94
397.249	104.94
397.474	87.94
397.698	97.94
397.922	72.94
398.147	96.94
398.371	77.94
398.595	91.94
398.82	84.94
399.044	76.94
399.268	90.94
399.492	78.94
399.717	92.94
399.941	90.94
400.165	100.94
400.389	95.94
400.613	89.94
400.837	85.94
401.062	98.94
401.286	85.94
401.51	90.94
401.734	94.94
401.958	98.94
402.182	110.94
402.406	158.94
402.63	111.94
402.854	84.94
403.078	87.94
403.302	81.94
403.526	91.94
403.75	77.94
403.974	80.94
404.198	85.94
404.422	86.94
404.645	88.94
404.869	89.94
405.093	96.94
405.317	109.94
405.541	97.94
405.765	93.94
405.988	98.94
406.212	150.94
406.436	214.94
406.66	151.94
406.883	101.94
407.107	97.94
407.331	99.94
407.555	109.94
407.778	94.94
408.002	100.94
408.226	88.94
408.449	97.94
408.673	83.94
408.896	77.94
409.12	88.94
409.344	76.94
409.567	84.94
409.791	95.94
410.014	88.94
410.238	86.94
410.461	95.94
410.685	102.94
410.908	96.94
411.132	94.94
411.355	89.94
411.578	94.94
411.802	93.94
412.025	101.94
412.249	95.94
412.472	96.94
412.695	105.94
412.919	92.94
413.142	95.94
413.365	87.94
413.589	95.94
413.812	86.94
414.035	96.94
414.258	84.94
414.482	85.94
414.705	100.94
414.928	93.94
415.151	82.94
415.374	81.94
415.597	100.94
415.821	88.94
416.044	95.94
416.267	88.94
416.49	84.94
416.713	91.94
416.936	94.94
417.159	78.94
417.382	90.94
417.605	91.94
417.828	95.94
418.051	87.94
418.274	86.94
418.497	88.94
418.72	93.94
418.943	80.94
419.166	94.94
419.389	92.94
419.611	92.94
419.834	92.94
420.057	73.94
420.28	100.94
420.503	90.94
420.726	100.94
420.948	107.94
421.171	96.94
421.394	101.94
421.617	98.94
421.839	91.94
422.062	86.94
422.285	90.94
422.507	92.94
422.73	107.94
422.953	95.94
423.175	88.94
423.398	78.94
423.621	91.94
423.843	70.94
424.066	89.94
424.288	95.94
424.511	104.94
424.733	102.94
424.956	104.94
425.178	103.94
425.401	80.94
425.623	97.94
425.846	96.94
426.068	95.94
426.291	73.94
426.513	90.94
426.735	96.94
426.958	100.94
427.18	108.94
427.402	135.94
427.625	144.94
427.847	138.94
428.069	104.94
428.292	92.94
428.514	88.94
428.736	101.94
428.958	82.94
429.181	88.94
429.403	76.94
429.625	74.94
429.847	91.94
430.069	78.94
430.292	90.94
430.514	79.94
430.736	78.94
430.958	86.94
431.18	81.94
431.402	74.94
431.624	82.94
431.846	92.94
432.068	81.94
432.29	85.94
432.512	90.94
432.734	88.94
432.956	101.94
433.178	105.94
433.4	87.94
433.622	87.94
433.844	88.94
434.066	79.94
434.287	92.94
434.509	106.94
434.731	96.94
434.953	86.94
435.175	80.94
435.397	88.94
435.618	89.94
435.84	109.94
436.062	108.94
436.284	93.94
436.505	96.94
436.727	107.94
436.949	97.94
437.17	91.94
437.392	90.94
437.614	80.94
437.835	110.94
438.057	107.94
438.278	102.94
438.5	102.94
438.721	111.94
438.943	88.94
439.165	79.94
439.386	93.94
439.608	82.94
439.829	99.94
440.05	110.94
440.272	108.94
440.493	101.94
440.715	90.94
440.936	79.94
441.158	85.94
441.379	90.94
441.6	93.94
441.822	98.94
442.043	91.94
442.264	104.94
442.486	106.94
442.707	93.94
442.928	98.94
443.149	117.94
443.371	141.94
443.592	107.94
443.813	109.94
444.034	105.94
444.255	96.94
444.476	102.94
444.698	91.94
444.919	82.94
445.14	148.94
445.361	118.94
445.582	112.94
445.803	134.94
446.024	128.94
446.245	117.94
446.466	119.94
446.687	100.94
446.908	73.94
447.129	86.94
447.35	76.94
447.571	89.94
447.792	98.94
448.013	106.94
448.234	100.94
448.455	91.94
448.675	101.94
448.896	111.94
449.117	93.94
449.338	116.94
449.559	125.94
449.779	112.94
450	98.94
450.221	102.94
450.442	89.94
450.662	104.94
450.883	109.94
451.104	106.94
451.324	90.94
451.545	85.94
451.766	92.94
451.986	107.94
452.207	89.94
452.428	87.94
452.648	94.94
452.869	96.94
453.089	103.94
453.31	96.94
453.53	97.94
453.751	89.94
453.971	90.94
454.192	94.94
454.412	89.94
454.633	94.94
454.853	89.94
455.073	95.94
455.294	86.94
455.514	96.94
455.734	95.94
455.955	81.94
456.175	90.94
456.395	88.94
456.616	74.94
456.836	79.94
457.056	77.94
457.276	97.94
457.497	88.94
457.717	89.94
457.937	75.94
458.157	82.94
458.377	88.94
458.598	93.94
458.818	146.94
459.038	146.94
459.258	119.94
459.478	80.94
459.698	73.94
459.918	82.94
460.138	76.94
460.358	77.94
460.578	87.94
460.798	87.94
461.018	97.94
461.238	94.94
461.458	90.94
461.678	94.94
461.898	94.94
462.118	78.94
462.338	100.94
462.558	77.94
462.777	83.94
462.997	78.94
463.217	95.94
463.437	92.94
463.657	85.94
463.876	93.94
464.096	87.94
464.316	98.94
464.536	96.94
464.755	101.94
464.975	94.94
465.195	159.94
465.414	150.94
465.634	95.94
465.854	87.94
466.073	85.94
466.293	85.94
466.512	100.94
466.732	90.94
466.951	80.94
467.171	92.94
467.391	99.94
467.61	104.94
467.829	91.94
468.049	120.94
468.268	116.94
468.488	98.94
468.707	91.94
468.927	68.94
469.146	88.94
469.365	79.94
469.585	90.94
469.804	100.94
470.023	87.94
470.243	93.94
470.462	96.94
470.681	104.94
470.901	92.94
471.12	88.94
471.339	94.94
471.558	99.94
471.777	86.94
471.997	101.94
472.216	139.94
472.435	214.94
472.654	100.94
472.873	89.94
473.092	82.94
473.311	95.94
473.53	88.94
473.749	90.94
473.968	97.94
474.187	101.94
474.406	84.94
474.625	94.94
474.844	83.94
475.063	74.94
475.282	77.94
475.501	74.94
475.72	94.94
475.939	97.94
476.158	76.94
476.377	80.94
476.596	98.94
476.814	89.94
477.033	102.94
477.252	95.94
477.471	96.94
477.69	87.94
477.908	107.94
478.127	81.94
478.346	94.94
478.564	84.94
478.783	96.94
479.002	94.94
479.22	91.94
479.439	87.94
479.658	105.94
479.876	89.94
480.095	94.94
480.313	106.94
480.532	99.94
480.751	94.94
480.969	137.94
481.188	290.94
481.406	202.94
481.624	101.94
481.843	91.94
482.061	86.94
482.28	92.94
482.498	97.94
482.717	101.94
482.935	81.94
483.153	86.94
483.372	84.94
483.59	93.94
483.808	110.94
484.027	85.94
484.245	91.94
484.463	95.94
484.681	99.94
484.9	78.94
485.118	87.94
485.336	86.94
485.554	95.94
485.772	112.94
485.99	119.94
486.209	100.94
486.427	97.94
486.645	103.94
486.863	105.94
487.081	110.94
487.299	103.94
487.517	103.94
487.735	90.94
487.953	96.94
488.171	81.94
488.389	92.94
488.607	111.94
488.825	85.94
489.043	92.94
489.261	94.94
489.479	92.94
489.696	98.94
489.914	84.94
490.132	91.94
490.35	72.94
490.568	102.94
490.786	77.94
491.003	86.94
491.221	88.94
491.439	89.94
491.657	99.94
491.874	100.94
492.092	98.94
492.31	85.94
492.527	111.94
492.745	89.94
492.963	92.94
493.18	93.94
493.398	98.94
493.615	107.94
493.833	97.94
494.05	95.94
494.268	77.94
494.485	74.94
494.703	77.94
494.92	89.94
495.138	88.94
495.355	86.94
495.573	94.94
495.79	90.94
496.008	97.94
496.225	88.94
496.442	101.94
496.66	90.94
496.877	72.94
497.094	90.94
497.312	93.94
497.529	96.94
497.746	98.94
497.963	81.94
498.181	93.94
498.398	97.94
498.615	96.94
498.832	102.94
499.049	89.94
499.267	86.94
499.484	100.94
499.701	80.94
499.918	93.94
500.135	86.94
500.352	78.94
500.569	93.94
500.786	95.94
501.003	79.94
501.22	103.94
501.437	90.94
501.654	103.94
501.871	109.94
502.088	89.94
502.305	89.94
502.522	89.94
502.739	85.94
502.956	97.94
503.172	106.94
503.389	101.94
503.606	92.94
503.823	105.94
504.04	100.94
504.256	101.94
504.473	96.94
504.69	87.94
504.907	88.94
505.123	94.94
505.34	98.94
505.557	89.94
505.773	104.94
505.99	90.94
506.207	80.94
506.423	85.94
506.64	102.94
506.856	97.94
507.073	86.94
507.289	90.94
507.506	92.94
507.722	95.94
507.939	95.94
508.155	100.94
508.372	100.94
508.588	108.94
508.805	94.94
509.021	96.94
509.238	99.94
509.454	97.94
509.67	94.94
509.887	112.94
510.103	118.94
510.319	198.94
510.536	705.94
510.752	2217.94
510.968	650.94
511.184	163.94
511.401	117.94
511.617	101.94
511.833	100.94
512.049	93.94
512.265	90.94
512.481	86.94
512.698	94.94
512.914	88.94
513.13	99.94
513.346	91.94
513.562	95.94
513.778	97.94
513.994	87.94
514.21	85.94
514.426	125.94
514.642	116.94
514.858	106.94
515.074	160.94
515.29	424.94
515.506	1358.94
