Data from Circ_2010_H10_HRD10591_00012.txt Node
Date: Wed Jan 03 10:09:43 EST 2024
User: Yrep
Spectrometer: HR+D1059
Trigger mode: 1
Integration Time (sec): 1.000000E-1
Scans to average: 1
Electric dark correction enabled: true
Nonlinearity correction enabled: false
Boxcar width: 0
XAxis mode: Wavelengths
Number of Pixels in Spectrum: 2048
>>>>>Begin Spectral Data<<<<<
223.165	-21.19
223.4	-21.19
223.635	-21.19
223.869	-22.19
224.104	-16.19
224.338	-17.19
224.573	-3.19
224.808	-5.19
225.042	-3.19
225.277	-7.19
225.511	-3.19
225.746	8.81
225.98	-2.19
226.215	4.81
226.449	6.81
226.683	25.81
226.918	16.81
227.152	37.81
227.387	34.81
227.621	56.81
227.856	46.81
228.09	41.81
228.324	44.81
228.559	57.81
228.793	70.81
229.027	61.81
229.262	71.81
229.496	77.81
229.73	84.81
229.964	84.81
230.199	83.81
230.433	77.81
230.667	68.81
230.901	78.81
231.136	75.81
231.37	79.81
231.604	71.81
231.838	86.81
232.072	88.81
232.306	72.81
232.541	87.81
232.775	79.81
233.009	90.81
233.243	91.81
233.477	77.81
233.711	72.81
233.945	86.81
234.179	77.81
234.413	74.81
234.647	88.81
234.881	81.81
235.115	73.81
235.349	77.81
235.583	87.81
235.817	93.81
236.051	69.81
236.285	77.81
236.519	60.81
236.753	81.81
236.987	78.81
237.221	83.81
237.455	78.81
237.689	82.81
237.922	79.81
238.156	85.81
238.39	85.81
238.624	76.81
238.858	70.81
239.091	75.81
239.325	82.81
239.559	85.81
239.793	76.81
240.027	73.81
240.26	75.81
240.494	77.81
240.728	76.81
240.961	66.81
241.195	87.81
241.429	73.81
241.662	81.81
241.896	74.81
242.13	76.81
242.363	75.81
242.597	76.81
242.83	78.81
243.064	79.81
243.298	87.81
243.531	62.81
243.765	91.81
243.998	94.81
244.232	77.81
244.465	79.81
244.699	75.81
244.932	84.81
245.166	79.81
245.399	91.81
245.633	81.81
245.866	79.81
246.099	82.81
246.333	65.81
246.566	73.81
246.8	80.81
247.033	83.81
247.266	77.81
247.5	79.81
247.733	83.81
247.966	76.81
248.2	73.81
248.433	96.81
248.666	78.81
248.899	79.81
249.133	89.81
249.366	93.81
249.599	93.81
249.832	69.81
250.066	90.81
250.299	85.81
250.532	84.81
250.765	56.81
250.998	79.81
251.231	79.81
251.465	88.81
251.698	77.81
251.931	59.81
252.164	74.81
252.397	78.81
252.63	79.81
252.863	83.81
253.096	76.81
253.329	85.81
253.562	62.81
253.795	79.81
254.028	77.81
254.261	72.81
254.494	83.81
254.727	66.81
254.96	87.81
255.193	83.81
255.426	86.81
255.659	77.81
255.892	88.81
256.124	97.81
256.357	79.81
256.59	73.81
256.823	80.81
257.056	87.81
257.289	78.81
257.521	92.81
257.754	83.81
257.987	71.81
258.22	83.81
258.452	92.81
258.685	85.81
258.918	89.81
259.151	88.81
259.383	87.81
259.616	75.81
259.849	77.81
260.081	90.81
260.314	82.81
260.547	73.81
260.779	81.81
261.012	75.81
261.244	75.81
261.477	83.81
261.71	93.81
261.942	93.81
262.175	93.81
262.407	105.81
262.64	85.81
262.872	81.81
263.105	70.81
263.337	82.81
263.57	77.81
263.802	82.81
264.035	81.81
264.267	87.81
264.499	79.81
264.732	86.81
264.964	82.81
265.197	77.81
265.429	82.81
265.661	81.81
265.894	94.81
266.126	75.81
266.358	76.81
266.591	84.81
266.823	90.81
267.055	97.81
267.287	77.81
267.52	86.81
267.752	87.81
267.984	82.81
268.216	88.81
268.448	71.81
268.681	86.81
268.913	91.81
269.145	77.81
269.377	87.81
269.609	84.81
269.841	74.81
270.073	77.81
270.306	101.81
270.538	91.81
270.77	81.81
271.002	77.81
271.234	82.81
271.466	89.81
271.698	109.81
271.93	86.81
272.162	96.81
272.394	95.81
272.626	71.81
272.858	79.81
273.09	88.81
273.322	80.81
273.553	89.81
273.785	83.81
274.017	92.81
274.249	81.81
274.481	97.81
274.713	94.81
274.945	80.81
275.176	93.81
275.408	90.81
275.64	78.81
275.872	102.81
276.104	96.81
276.335	80.81
276.567	104.81
276.799	104.81
277.031	98.81
277.262	94.81
277.494	96.81
277.726	91.81
277.957	93.81
278.189	95.81
278.421	88.81
278.652	84.81
278.884	94.81
279.115	88.81
279.347	92.81
279.579	109.81
279.81	88.81
280.042	97.81
280.273	95.81
280.505	93.81
280.736	74.81
280.968	78.81
281.199	77.81
281.431	86.81
281.662	92.81
281.894	92.81
282.125	87.81
282.356	112.81
282.588	114.81
282.819	103.81
283.051	97.81
283.282	88.81
283.513	81.81
283.745	84.81
283.976	85.81
284.207	78.81
284.439	95.81
284.67	77.81
284.901	96.81
285.132	83.81
285.364	92.81
285.595	87.81
285.826	78.81
286.057	107.81
286.288	88.81
286.52	89.81
286.751	83.81
286.982	78.81
287.213	93.81
287.444	95.81
287.675	87.81
287.906	81.81
288.138	100.81
288.369	90.81
288.6	84.81
288.831	80.81
289.062	87.81
289.293	100.81
289.524	92.81
289.755	85.81
289.986	86.81
290.217	98.81
290.448	84.81
290.679	73.81
290.91	80.81
291.141	88.81
291.371	89.81
291.602	87.81
291.833	82.81
292.064	83.81
292.295	81.81
292.526	93.81
292.757	87.81
292.987	75.81
293.218	91.81
293.449	88.81
293.68	74.81
293.91	89.81
294.141	91.81
294.372	80.81
294.603	94.81
294.833	97.81
295.064	96.81
295.295	92.81
295.525	86.81
295.756	104.81
295.987	106.81
296.217	132.81
296.448	110.81
296.679	80.81
296.909	78.81
297.14	100.81
297.37	94.81
297.601	90.81
297.831	86.81
298.062	86.81
298.292	85.81
298.523	88.81
298.753	88.81
298.984	80.81
299.214	94.81
299.445	98.81
299.675	85.81
299.905	110.81
300.136	81.81
300.366	82.81
300.597	86.81
300.827	93.81
301.057	84.81
301.288	100.81
301.518	99.81
301.748	84.81
301.979	98.81
302.209	86.81
302.439	80.81
302.669	80.81
302.9	95.81
303.13	92.81
303.36	94.81
303.59	95.81
303.82	106.81
304.051	81.81
304.281	97.81
304.511	88.81
304.741	101.81
304.971	103.81
305.201	95.81
305.431	84.81
305.661	107.81
305.891	96.81
306.121	84.81
306.352	90.81
306.582	103.81
306.812	101.81
307.042	92.81
307.272	88.81
307.502	86.81
307.731	89.81
307.961	103.81
308.191	112.81
308.421	81.81
308.651	91.81
308.881	97.81
309.111	89.81
309.341	95.81
309.571	101.81
309.8	94.81
310.03	102.81
310.26	104.81
310.49	96.81
310.72	97.81
310.949	101.81
311.179	96.81
311.409	103.81
311.639	94.81
311.868	98.81
312.098	93.81
312.328	97.81
312.557	89.81
312.787	100.81
313.017	101.81
313.246	94.81
313.476	92.81
313.706	77.81
313.935	94.81
314.165	100.81
314.394	92.81
314.624	98.81
314.853	81.81
315.083	80.81
315.312	95.81
315.542	92.81
315.771	113.81
316.001	95.81
316.23	95.81
316.46	89.81
316.689	88.81
316.919	104.81
317.148	95.81
317.377	93.81
317.607	88.81
317.836	88.81
318.065	89.81
318.295	105.81
318.524	102.81
318.753	98.81
318.983	88.81
319.212	104.81
319.441	118.81
319.67	104.81
319.9	82.81
320.129	88.81
320.358	88.81
320.587	96.81
320.816	102.81
321.046	102.81
321.275	88.81
321.504	103.81
321.733	96.81
321.962	108.81
322.191	90.81
322.42	106.81
322.649	127.81
322.878	116.81
323.108	108.81
323.337	120.81
323.566	129.81
323.795	130.81
324.024	185.81
324.253	328.81
324.482	615.81
324.71	1271.81
324.939	1687.81
325.168	627.81
325.397	203.81
325.626	152.81
325.855	126.81
326.084	119.81
326.313	132.81
326.542	145.81
326.77	191.81
326.999	362.81
327.228	741.81
327.457	1313.81
327.686	1023.81
327.914	300.81
328.143	191.81
328.372	143.81
328.6	133.81
328.829	108.81
329.058	119.81
329.287	113.81
329.515	95.81
329.744	113.81
329.972	113.81
330.201	137.81
330.43	162.81
330.658	132.81
330.887	123.81
331.115	109.81
331.344	106.81
331.572	96.81
331.801	107.81
332.03	92.81
332.258	102.81
332.486	97.81
332.715	84.81
332.943	94.81
333.172	108.81
333.4	96.81
333.629	98.81
333.857	101.81
334.085	126.81
334.314	128.81
334.542	175.81
334.771	181.81
334.999	113.81
335.227	95.81
335.455	98.81
335.684	91.81
335.912	96.81
336.14	102.81
336.369	86.81
336.597	95.81
336.825	92.81
337.053	88.81
337.281	85.81
337.51	98.81
337.738	96.81
337.966	98.81
338.194	94.81
338.422	88.81
338.65	87.81
338.878	104.81
339.106	93.81
339.334	96.81
339.562	102.81
339.79	92.81
340.018	66.81
340.246	87.81
340.474	89.81
340.702	106.81
340.93	97.81
341.158	100.81
341.386	96.81
341.614	83.81
341.842	84.81
342.07	102.81
342.298	90.81
342.526	96.81
342.754	76.81
342.981	74.81
343.209	87.81
343.437	98.81
343.665	102.81
343.893	87.81
344.12	100.81
344.348	101.81
344.576	92.81
344.804	88.81
345.031	86.81
345.259	93.81
345.487	101.81
345.714	84.81
345.942	91.81
346.17	92.81
346.397	96.81
346.625	93.81
346.853	88.81
347.08	93.81
347.308	89.81
347.535	90.81
347.763	89.81
347.99	99.81
348.218	82.81
348.445	96.81
348.673	103.81
348.9	109.81
349.128	99.81
349.355	103.81
349.583	97.81
349.81	69.81
350.037	94.81
350.265	101.81
350.492	87.81
350.72	88.81
350.947	94.81
351.174	112.81
351.402	103.81
351.629	101.81
351.856	97.81
352.083	95.81
352.311	103.81
352.538	100.81
352.765	107.81
352.992	108.81
353.22	113.81
353.447	106.81
353.674	98.81
353.901	109.81
354.128	100.81
354.355	92.81
354.583	93.81
354.81	99.81
355.037	101.81
355.264	99.81
355.491	87.81
355.718	86.81
355.945	92.81
356.172	100.81
356.399	96.81
356.626	98.81
356.853	87.81
357.08	101.81
357.307	82.81
357.534	77.81
357.761	78.81
357.988	89.81
358.215	89.81
358.441	92.81
358.668	101.81
358.895	107.81
359.122	92.81
359.349	100.81
359.576	93.81
359.802	95.81
360.029	92.81
360.256	113.81
360.483	97.81
360.709	94.81
360.936	90.81
361.163	86.81
361.39	85.81
361.616	88.81
361.843	87.81
362.07	104.81
362.296	108.81
362.523	94.81
362.749	95.81
362.976	90.81
363.203	89.81
363.429	80.81
363.656	92.81
363.882	86.81
364.109	83.81
364.335	76.81
364.562	85.81
364.788	107.81
365.015	101.81
365.241	85.81
365.468	103.81
365.694	113.81
365.92	105.81
366.147	93.81
366.373	78.81
366.599	80.81
366.826	92.81
367.052	78.81
367.278	74.81
367.505	78.81
367.731	102.81
367.957	93.81
368.184	103.81
368.41	105.81
368.636	103.81
368.862	111.81
369.089	99.81
369.315	74.81
369.541	89.81
369.767	95.81
369.993	89.81
370.219	81.81
370.445	78.81
370.672	82.81
370.898	88.81
371.124	96.81
371.35	89.81
371.576	98.81
371.802	101.81
372.028	85.81
372.254	107.81
372.48	87.81
372.706	81.81
372.932	91.81
373.158	86.81
373.384	72.81
373.61	116.81
373.835	85.81
374.061	84.81
374.287	88.81
374.513	99.81
374.739	78.81
374.965	90.81
375.191	94.81
375.416	76.81
375.642	95.81
375.868	89.81
376.094	90.81
376.319	101.81
376.545	95.81
376.771	97.81
376.997	89.81
377.222	81.81
377.448	90.81
377.674	101.81
377.899	97.81
378.125	108.81
378.35	100.81
378.576	92.81
378.802	88.81
379.027	96.81
379.253	104.81
379.478	86.81
379.704	109.81
379.929	93.81
380.155	84.81
380.38	93.81
380.606	82.81
380.831	93.81
381.057	105.81
381.282	101.81
381.507	92.81
381.733	99.81
381.958	91.81
382.184	103.81
382.409	101.81
382.634	102.81
382.86	123.81
383.085	110.81
383.31	102.81
383.535	106.81
383.761	97.81
383.986	114.81
384.211	100.81
384.436	114.81
384.662	106.81
384.887	110.81
385.112	109.81
385.337	118.81
385.562	112.81
385.787	112.81
386.013	110.81
386.238	121.81
386.463	101.81
386.688	116.81
386.913	106.81
387.138	121.81
387.363	109.81
387.588	114.81
387.813	110.81
388.038	112.81
388.263	133.81
388.488	137.81
388.713	84.81
388.938	81.81
389.163	88.81
389.387	90.81
389.612	98.81
389.837	93.81
390.062	98.81
390.287	88.81
390.512	77.81
390.736	86.81
390.961	86.81
391.186	106.81
391.411	86.81
391.636	99.81
391.86	99.81
392.085	88.81
392.31	91.81
392.534	85.81
392.759	77.81
392.984	108.81
393.208	113.81
393.433	111.81
393.658	118.81
393.882	97.81
394.107	95.81
394.331	94.81
394.556	78.81
394.78	79.81
395.005	86.81
395.229	88.81
395.454	84.81
395.678	82.81
395.903	89.81
396.127	84.81
396.352	89.81
396.576	86.81
396.801	106.81
397.025	100.81
397.249	91.81
397.474	85.81
397.698	79.81
397.922	76.81
398.147	89.81
398.371	77.81
398.595	87.81
398.82	81.81
399.044	86.81
399.268	98.81
399.492	77.81
399.717	106.81
399.941	96.81
400.165	91.81
400.389	92.81
400.613	93.81
400.837	83.81
401.062	94.81
401.286	96.81
401.51	96.81
401.734	85.81
401.958	78.81
402.182	124.81
402.406	137.81
402.63	110.81
402.854	86.81
403.078	82.81
403.302	96.81
403.526	94.81
403.75	86.81
403.974	75.81
404.198	103.81
404.422	86.81
404.645	83.81
404.869	85.81
405.093	89.81
405.317	72.81
405.541	94.81
405.765	82.81
405.988	103.81
406.212	151.81
406.436	201.81
406.66	121.81
406.883	113.81
407.107	106.81
407.331	84.81
407.555	97.81
407.778	95.81
408.002	93.81
408.226	97.81
408.449	84.81
408.673	79.81
408.896	97.81
409.12	98.81
409.344	92.81
409.567	89.81
409.791	92.81
410.014	90.81
410.238	92.81
410.461	95.81
410.685	103.81
410.908	94.81
411.132	110.81
411.355	97.81
411.578	95.81
411.802	87.81
412.025	98.81
412.249	93.81
412.472	97.81
412.695	105.81
412.919	94.81
413.142	81.81
413.365	95.81
413.589	78.81
413.812	82.81
414.035	82.81
414.258	99.81
414.482	78.81
414.705	82.81
414.928	88.81
415.151	94.81
415.374	98.81
415.597	94.81
415.821	112.81
416.044	82.81
416.267	87.81
416.49	79.81
416.713	91.81
416.936	95.81
417.159	99.81
417.382	93.81
417.605	78.81
417.828	93.81
418.051	90.81
418.274	102.81
418.497	82.81
418.72	86.81
418.943	89.81
419.166	74.81
419.389	86.81
419.611	94.81
419.834	97.81
420.057	96.81
420.28	97.81
420.503	96.81
420.726	76.81
420.948	90.81
421.171	94.81
421.394	79.81
421.617	80.81
421.839	76.81
422.062	103.81
422.285	106.81
422.507	104.81
422.73	104.81
422.953	80.81
423.175	100.81
423.398	85.81
423.621	93.81
423.843	84.81
424.066	90.81
424.288	85.81
424.511	85.81
424.733	82.81
424.956	93.81
425.178	88.81
425.401	100.81
425.623	100.81
425.846	83.81
426.068	116.81
426.291	91.81
426.513	80.81
426.735	89.81
426.958	93.81
427.18	82.81
427.402	120.81
427.625	144.81
427.847	127.81
428.069	115.81
428.292	95.81
428.514	89.81
428.736	80.81
428.958	76.81
429.181	85.81
429.403	84.81
429.625	71.81
429.847	74.81
430.069	90.81
430.292	105.81
430.514	82.81
430.736	77.81
430.958	89.81
431.18	88.81
431.402	77.81
431.624	77.81
431.846	96.81
432.068	85.81
432.29	89.81
432.512	85.81
432.734	78.81
432.956	92.81
433.178	91.81
433.4	104.81
433.622	88.81
433.844	92.81
434.066	88.81
434.287	89.81
434.509	90.81
434.731	80.81
434.953	102.81
435.175	89.81
435.397	88.81
435.618	90.81
435.84	84.81
436.062	107.81
436.284	111.81
436.505	88.81
436.727	84.81
436.949	85.81
437.17	93.81
437.392	84.81
437.614	87.81
437.835	98.81
438.057	100.81
438.278	94.81
438.5	94.81
438.721	113.81
438.943	108.81
439.165	94.81
439.386	87.81
439.608	90.81
439.829	102.81
440.05	109.81
440.272	117.81
440.493	102.81
440.715	78.81
440.936	70.81
441.158	87.81
441.379	86.81
441.6	90.81
441.822	85.81
442.043	81.81
442.264	94.81
442.486	96.81
442.707	82.81
442.928	89.81
443.149	119.81
443.371	124.81
443.592	98.81
443.813	117.81
444.034	105.81
444.255	88.81
444.476	71.81
444.698	76.81
444.919	84.81
445.14	134.81
445.361	122.81
445.582	101.81
445.803	118.81
446.024	125.81
446.245	125.81
446.466	101.81
446.687	92.81
446.908	81.81
447.129	93.81
447.35	85.81
447.571	91.81
447.792	108.81
448.013	100.81
448.234	108.81
448.455	87.81
448.675	119.81
448.896	99.81
449.117	97.81
449.338	110.81
449.559	121.81
449.779	120.81
450	95.81
450.221	94.81
450.442	93.81
450.662	99.81
450.883	111.81
451.104	107.81
451.324	101.81
451.545	89.81
451.766	82.81
451.986	88.81
452.207	94.81
452.428	92.81
452.648	90.81
452.869	106.81
453.089	113.81
453.31	107.81
453.53	95.81
453.751	89.81
453.971	100.81
454.192	109.81
454.412	95.81
454.633	91.81
454.853	84.81
455.073	75.81
455.294	101.81
455.514	94.81
455.734	91.81
455.955	84.81
456.175	79.81
456.395	91.81
456.616	76.81
456.836	94.81
457.056	87.81
457.276	80.81
457.497	82.81
457.717	93.81
457.937	85.81
458.157	80.81
458.377	95.81
458.598	96.81
458.818	134.81
459.038	144.81
459.258	118.81
459.478	88.81
459.698	81.81
459.918	93.81
460.138	87.81
460.358	94.81
460.578	94.81
460.798	93.81
461.018	95.81
461.238	93.81
461.458	85.81
461.678	84.81
461.898	82.81
462.118	81.81
462.338	72.81
462.558	83.81
462.777	95.81
462.997	88.81
463.217	86.81
463.437	97.81
463.657	85.81
463.876	83.81
464.096	90.81
464.316	101.81
464.536	96.81
464.755	103.81
464.975	106.81
465.195	134.81
465.414	121.81
465.634	89.81
465.854	88.81
466.073	81.81
466.293	86.81
466.512	93.81
466.732	82.81
466.951	83.81
467.171	84.81
467.391	96.81
467.61	101.81
467.829	100.81
468.049	115.81
468.268	135.81
468.488	88.81
468.707	85.81
468.927	94.81
469.146	90.81
469.365	101.81
469.585	72.81
469.804	86.81
470.023	83.81
470.243	76.81
470.462	80.81
470.681	101.81
470.901	82.81
471.12	69.81
471.339	93.81
471.558	75.81
471.777	80.81
471.997	92.81
472.216	140.81
472.435	216.81
472.654	127.81
472.873	102.81
473.092	81.81
473.311	76.81
473.53	86.81
473.749	107.81
473.968	91.81
474.187	87.81
474.406	88.81
474.625	96.81
474.844	90.81
475.063	94.81
475.282	89.81
475.501	85.81
475.72	91.81
475.939	78.81
476.158	88.81
476.377	96.81
476.596	87.81
476.814	91.81
477.033	93.81
477.252	75.81
477.471	73.81
477.69	92.81
477.908	88.81
478.127	106.81
478.346	83.81
478.564	84.81
478.783	93.81
479.002	98.81
479.22	93.81
479.439	93.81
479.658	94.81
479.876	86.81
480.095	71.81
480.313	85.81
480.532	79.81
480.751	87.81
480.969	156.81
481.188	338.81
481.406	234.81
481.624	116.81
481.843	97.81
482.061	73.81
482.28	89.81
482.498	82.81
482.717	86.81
482.935	88.81
483.153	79.81
483.372	79.81
483.59	90.81
483.808	94.81
484.027	86.81
484.245	85.81
484.463	95.81
484.681	94.81
484.9	96.81
485.118	95.81
485.336	81.81
485.554	90.81
485.772	95.81
485.99	103.81
486.209	108.81
486.427	99.81
486.645	97.81
486.863	112.81
487.081	108.81
487.299	89.81
487.517	90.81
487.735	75.81
487.953	95.81
488.171	88.81
488.389	89.81
488.607	108.81
488.825	76.81
489.043	98.81
489.261	97.81
489.479	77.81
489.696	83.81
489.914	82.81
490.132	78.81
490.35	90.81
490.568	87.81
490.786	83.81
491.003	100.81
491.221	97.81
491.439	89.81
491.657	87.81
491.874	93.81
492.092	93.81
492.31	93.81
492.527	91.81
492.745	92.81
492.963	106.81
493.18	70.81
493.398	79.81
493.615	90.81
493.833	106.81
494.05	95.81
494.268	87.81
494.485	96.81
494.703	73.81
494.92	76.81
495.138	86.81
495.355	87.81
495.573	93.81
495.79	90.81
496.008	84.81
496.225	82.81
496.442	93.81
496.66	92.81
496.877	91.81
497.094	90.81
497.312	93.81
497.529	87.81
497.746	107.81
497.963	90.81
498.181	90.81
498.398	100.81
498.615	95.81
498.832	96.81
499.049	82.81
499.267	92.81
499.484	90.81
499.701	95.81
499.918	93.81
500.135	78.81
500.352	97.81
500.569	89.81
500.786	89.81
501.003	82.81
501.22	88.81
501.437	71.81
501.654	101.81
501.871	89.81
502.088	84.81
502.305	85.81
502.522	101.81
502.739	80.81
502.956	110.81
503.172	98.81
503.389	96.81
503.606	94.81
503.823	101.81
504.04	86.81
504.256	96.81
504.473	83.81
504.69	97.81
504.907	113.81
505.123	84.81
505.34	94.81
505.557	83.81
505.773	74.81
505.99	98.81
506.207	91.81
506.423	94.81
506.64	83.81
506.856	94.81
507.073	116.81
507.289	100.81
507.506	100.81
507.722	110.81
507.939	107.81
508.155	97.81
508.372	91.81
508.588	95.81
508.805	85.81
509.021	95.81
509.238	93.81
509.454	86.81
509.67	88.81
509.887	111.81
510.103	125.81
510.319	195.81
510.536	613.81
510.752	1883.81
510.968	570.81
511.184	137.81
511.401	122.81
511.617	86.81
511.833	93.81
512.049	84.81
512.265	89.81
512.481	101.81
512.698	80.81
512.914	97.81
513.13	114.81
513.346	86.81
513.562	108.81
513.778	108.81
513.994	98.81
514.21	112.81
514.426	95.81
514.642	113.81
514.858	124.81
515.074	136.81
515.29	323.81
515.506	1164.81
515.721	442.81
