Data from Circ_2010_H10_HRD10591_00049.txt Node
Date: Wed Jan 03 10:09:51 EST 2024
User: Yrep
Spectrometer: HR+D1059
Trigger mode: 1
Integration Time (sec): 1.000000E-1
Scans to average: 1
Electric dark correction enabled: true
Nonlinearity correction enabled: false
Boxcar width: 0
XAxis mode: Wavelengths
Number of Pixels in Spectrum: 2048
>>>>>Begin Spectral Data<<<<<
223.165	-7.94
223.4	-7.94
223.635	-7.94
223.869	-14.94
224.104	-21.94
224.338	-10.94
224.573	-14.94
224.808	-5.94
225.042	-6.94
225.277	-15.94
225.511	8.06
225.746	-0.94
225.98	1.06
226.215	-0.94
226.449	21.06
226.683	13.06
226.918	24.06
227.152	34.06
227.387	27.06
227.621	37.06
227.856	43.06
228.09	46.06
228.324	51.06
228.559	53.06
228.793	49.06
229.027	53.06
229.262	51.06
229.496	66.06
229.73	70.06
229.964	63.06
230.199	74.06
230.433	75.06
230.667	67.06
230.901	69.06
231.136	66.06
231.37	69.06
231.604	71.06
231.838	71.06
232.072	74.06
232.306	83.06
232.541	83.06
232.775	94.06
233.009	79.06
233.243	75.06
233.477	80.06
233.711	75.06
233.945	80.06
234.179	75.06
234.413	84.06
234.647	84.06
234.881	78.06
235.115	75.06
235.349	65.06
235.583	81.06
235.817	88.06
236.051	74.06
236.285	57.06
236.519	69.06
236.753	88.06
236.987	81.06
237.221	78.06
237.455	77.06
237.689	70.06
237.922	81.06
238.156	73.06
238.39	77.06
238.624	79.06
238.858	69.06
239.091	62.06
239.325	77.06
239.559	75.06
239.793	70.06
240.027	84.06
240.26	67.06
240.494	76.06
240.728	68.06
240.961	72.06
241.195	73.06
241.429	66.06
241.662	84.06
241.896	80.06
242.13	89.06
242.363	63.06
242.597	66.06
242.83	73.06
243.064	76.06
243.298	74.06
243.531	84.06
243.765	91.06
243.998	83.06
244.232	86.06
244.465	66.06
244.699	75.06
244.932	77.06
245.166	68.06
245.399	82.06
245.633	67.06
245.866	65.06
246.099	69.06
246.333	78.06
246.566	75.06
246.8	73.06
247.033	86.06
247.266	83.06
247.5	89.06
247.733	91.06
247.966	79.06
248.2	77.06
248.433	75.06
248.666	79.06
248.899	60.06
249.133	82.06
249.366	79.06
249.599	93.06
249.832	76.06
250.066	75.06
250.299	85.06
250.532	87.06
250.765	85.06
250.998	81.06
251.231	77.06
251.465	85.06
251.698	86.06
251.931	69.06
252.164	82.06
252.397	78.06
252.63	76.06
252.863	70.06
253.096	77.06
253.329	78.06
253.562	87.06
253.795	97.06
254.028	76.06
254.261	69.06
254.494	90.06
254.727	76.06
254.96	77.06
255.193	91.06
255.426	71.06
255.659	91.06
255.892	73.06
256.124	78.06
256.357	73.06
256.59	83.06
256.823	73.06
257.056	68.06
257.289	50.06
257.521	95.06
257.754	91.06
257.987	79.06
258.22	90.06
258.452	65.06
258.685	68.06
258.918	82.06
259.151	84.06
259.383	73.06
259.616	72.06
259.849	69.06
260.081	93.06
260.314	79.06
260.547	84.06
260.779	75.06
261.012	77.06
261.244	77.06
261.477	89.06
261.71	93.06
261.942	105.06
262.175	92.06
262.407	85.06
262.64	92.06
262.872	91.06
263.105	75.06
263.337	81.06
263.57	87.06
263.802	82.06
264.035	71.06
264.267	75.06
264.499	64.06
264.732	81.06
264.964	82.06
265.197	88.06
265.429	69.06
265.661	72.06
265.894	73.06
266.126	78.06
266.358	87.06
266.591	89.06
266.823	87.06
267.055	77.06
267.287	94.06
267.52	82.06
267.752	69.06
267.984	74.06
268.216	79.06
268.448	82.06
268.681	75.06
268.913	71.06
269.145	82.06
269.377	77.06
269.609	77.06
269.841	91.06
270.073	93.06
270.306	84.06
270.538	93.06
270.77	95.06
271.002	92.06
271.234	78.06
271.466	87.06
271.698	79.06
271.93	88.06
272.162	81.06
272.394	83.06
272.626	79.06
272.858	84.06
273.09	84.06
273.322	90.06
273.553	77.06
273.785	80.06
274.017	94.06
274.249	84.06
274.481	79.06
274.713	84.06
274.945	80.06
275.176	77.06
275.408	67.06
275.64	81.06
275.872	85.06
276.104	91.06
276.335	83.06
276.567	86.06
276.799	101.06
277.031	85.06
277.262	88.06
277.494	80.06
277.726	84.06
277.957	86.06
278.189	95.06
278.421	84.06
278.652	72.06
278.884	94.06
279.115	71.06
279.347	90.06
279.579	76.06
279.81	88.06
280.042	81.06
280.273	100.06
280.505	84.06
280.736	81.06
280.968	87.06
281.199	83.06
281.431	90.06
281.662	78.06
281.894	89.06
282.125	102.06
282.356	120.06
282.588	107.06
282.819	97.06
283.051	75.06
283.282	81.06
283.513	76.06
283.745	73.06
283.976	77.06
284.207	87.06
284.439	76.06
284.67	75.06
284.901	83.06
285.132	88.06
285.364	94.06
285.595	90.06
285.826	95.06
286.057	83.06
286.288	82.06
286.52	84.06
286.751	82.06
286.982	93.06
287.213	91.06
287.444	77.06
287.675	83.06
287.906	97.06
288.138	95.06
288.369	84.06
288.6	83.06
288.831	91.06
289.062	79.06
289.293	83.06
289.524	93.06
289.755	69.06
289.986	79.06
290.217	93.06
290.448	78.06
290.679	87.06
290.91	81.06
291.141	78.06
291.371	75.06
291.602	88.06
291.833	79.06
292.064	88.06
292.295	103.06
292.526	88.06
292.757	86.06
292.987	72.06
293.218	87.06
293.449	78.06
293.68	74.06
293.91	84.06
294.141	90.06
294.372	87.06
294.603	91.06
294.833	94.06
295.064	73.06
295.295	75.06
295.525	78.06
295.756	92.06
295.987	94.06
296.217	121.06
296.448	117.06
296.679	94.06
296.909	108.06
297.14	81.06
297.37	91.06
297.601	85.06
297.831	84.06
298.062	62.06
298.292	93.06
298.523	85.06
298.753	87.06
298.984	82.06
299.214	70.06
299.445	77.06
299.675	95.06
299.905	102.06
300.136	94.06
300.366	62.06
300.597	91.06
300.827	92.06
301.057	87.06
301.288	79.06
301.518	93.06
301.748	83.06
301.979	83.06
302.209	91.06
302.439	79.06
302.669	82.06
302.9	82.06
303.13	97.06
303.36	95.06
303.59	82.06
303.82	92.06
304.051	94.06
304.281	81.06
304.511	81.06
304.741	76.06
304.971	87.06
305.201	80.06
305.431	92.06
305.661	99.06
305.891	99.06
306.121	92.06
306.352	91.06
306.582	101.06
306.812	86.06
307.042	85.06
307.272	97.06
307.502	95.06
307.731	101.06
307.961	92.06
308.191	98.06
308.421	96.06
308.651	97.06
308.881	107.06
309.111	83.06
309.341	87.06
309.571	91.06
309.8	93.06
310.03	91.06
310.26	83.06
310.49	87.06
310.72	99.06
310.949	76.06
311.179	76.06
311.409	91.06
311.639	87.06
311.868	77.06
312.098	116.06
312.328	105.06
312.557	97.06
312.787	91.06
313.017	89.06
313.246	92.06
313.476	71.06
313.706	92.06
313.935	98.06
314.165	81.06
314.394	88.06
314.624	91.06
314.853	91.06
315.083	98.06
315.312	94.06
315.542	77.06
315.771	82.06
316.001	98.06
316.23	89.06
316.46	95.06
316.689	84.06
316.919	94.06
317.148	80.06
317.377	95.06
317.607	95.06
317.836	86.06
318.065	82.06
318.295	86.06
318.524	100.06
318.753	81.06
318.983	99.06
319.212	91.06
319.441	86.06
319.67	103.06
319.9	91.06
320.129	109.06
320.358	96.06
320.587	94.06
320.816	82.06
321.046	97.06
321.275	98.06
321.504	83.06
321.733	78.06
321.962	86.06
322.191	108.06
322.42	100.06
322.649	89.06
322.878	102.06
323.108	106.06
323.337	117.06
323.566	122.06
323.795	142.06
324.024	165.06
324.253	306.06
324.482	621.06
324.71	1272.06
324.939	1601.06
325.168	595.06
325.397	190.06
325.626	134.06
325.855	122.06
326.084	114.06
326.313	121.06
326.542	135.06
326.77	197.06
326.999	365.06
327.228	729.06
327.457	1288.06
327.686	1017.06
327.914	309.06
328.143	175.06
328.372	172.06
328.6	138.06
328.829	102.06
329.058	115.06
329.287	121.06
329.515	100.06
329.744	117.06
329.972	106.06
330.201	163.06
330.43	200.06
330.658	147.06
330.887	111.06
331.115	100.06
331.344	103.06
331.572	92.06
331.801	87.06
332.03	87.06
332.258	100.06
332.486	78.06
332.715	82.06
332.943	84.06
333.172	89.06
333.4	85.06
333.629	89.06
333.857	108.06
334.085	125.06
334.314	175.06
334.542	237.06
334.771	227.06
334.999	133.06
335.227	86.06
335.455	102.06
335.684	86.06
335.912	90.06
336.14	86.06
336.369	98.06
336.597	94.06
336.825	85.06
337.053	88.06
337.281	87.06
337.51	87.06
337.738	100.06
337.966	84.06
338.194	84.06
338.422	93.06
338.65	88.06
338.878	88.06
339.106	86.06
339.334	80.06
339.562	73.06
339.79	85.06
340.018	94.06
340.246	95.06
340.474	77.06
340.702	72.06
340.93	100.06
341.158	86.06
341.386	92.06
341.614	89.06
341.842	89.06
342.07	92.06
342.298	81.06
342.526	79.06
342.754	89.06
342.981	94.06
343.209	98.06
343.437	92.06
343.665	92.06
343.893	93.06
344.12	87.06
344.348	96.06
344.576	90.06
344.804	89.06
345.031	94.06
345.259	74.06
345.487	80.06
345.714	90.06
345.942	82.06
346.17	82.06
346.397	90.06
346.625	78.06
346.853	93.06
347.08	87.06
347.308	96.06
347.535	89.06
347.763	89.06
347.99	77.06
348.218	100.06
348.445	92.06
348.673	92.06
348.9	85.06
349.128	84.06
349.355	91.06
349.583	70.06
349.81	87.06
350.037	87.06
350.265	94.06
350.492	77.06
350.72	87.06
350.947	100.06
351.174	94.06
351.402	95.06
351.629	90.06
351.856	106.06
352.083	86.06
352.311	105.06
352.538	102.06
352.765	87.06
352.992	98.06
353.22	108.06
353.447	100.06
353.674	88.06
353.901	90.06
354.128	109.06
354.355	91.06
354.583	101.06
354.81	85.06
355.037	88.06
355.264	89.06
355.491	98.06
355.718	82.06
355.945	102.06
356.172	84.06
356.399	87.06
356.626	88.06
356.853	86.06
357.08	98.06
357.307	96.06
357.534	95.06
357.761	86.06
357.988	101.06
358.215	105.06
358.441	84.06
358.668	96.06
358.895	83.06
359.122	89.06
359.349	81.06
359.576	85.06
359.802	92.06
360.029	100.06
360.256	87.06
360.483	87.06
360.709	90.06
360.936	98.06
361.163	110.06
361.39	94.06
361.616	93.06
361.843	82.06
362.07	82.06
362.296	79.06
362.523	79.06
362.749	86.06
362.976	84.06
363.203	85.06
363.429	79.06
363.656	78.06
363.882	87.06
364.109	83.06
364.335	87.06
364.562	79.06
364.788	80.06
365.015	90.06
365.241	94.06
365.468	85.06
365.694	97.06
365.92	82.06
366.147	77.06
366.373	84.06
366.599	75.06
366.826	104.06
367.052	106.06
367.278	95.06
367.505	83.06
367.731	85.06
367.957	92.06
368.184	93.06
368.41	87.06
368.636	105.06
368.862	103.06
369.089	88.06
369.315	100.06
369.541	82.06
369.767	87.06
369.993	88.06
370.219	79.06
370.445	85.06
370.672	83.06
370.898	82.06
371.124	88.06
371.35	91.06
371.576	74.06
371.802	97.06
372.028	94.06
372.254	101.06
372.48	92.06
372.706	85.06
372.932	81.06
373.158	80.06
373.384	84.06
373.61	91.06
373.835	77.06
374.061	90.06
374.287	105.06
374.513	84.06
374.739	96.06
374.965	88.06
375.191	80.06
375.416	86.06
375.642	88.06
375.868	83.06
376.094	85.06
376.319	76.06
376.545	85.06
376.771	99.06
376.997	86.06
377.222	83.06
377.448	85.06
377.674	82.06
377.899	92.06
378.125	74.06
378.35	101.06
378.576	78.06
378.802	89.06
379.027	79.06
379.253	94.06
379.478	87.06
379.704	95.06
379.929	89.06
380.155	87.06
380.38	90.06
380.606	88.06
380.831	99.06
381.057	78.06
381.282	92.06
381.507	94.06
381.733	104.06
381.958	99.06
382.184	107.06
382.409	87.06
382.634	95.06
382.86	101.06
383.085	102.06
383.31	108.06
383.535	82.06
383.761	101.06
383.986	94.06
384.211	88.06
384.436	94.06
384.662	106.06
384.887	97.06
385.112	92.06
385.337	113.06
385.562	100.06
385.787	107.06
386.013	109.06
386.238	99.06
386.463	108.06
386.688	112.06
386.913	89.06
387.138	104.06
387.363	97.06
387.588	97.06
387.813	94.06
388.038	105.06
388.263	97.06
388.488	97.06
388.713	82.06
388.938	99.06
389.163	88.06
389.387	96.06
389.612	80.06
389.837	93.06
390.062	106.06
390.287	87.06
390.512	100.06
390.736	93.06
390.961	94.06
391.186	70.06
391.411	81.06
391.636	79.06
391.86	80.06
392.085	89.06
392.31	83.06
392.534	82.06
392.759	76.06
392.984	84.06
393.208	90.06
393.433	102.06
393.658	102.06
393.882	85.06
394.107	76.06
394.331	91.06
394.556	89.06
394.78	82.06
395.005	81.06
395.229	84.06
395.454	87.06
395.678	87.06
395.903	83.06
396.127	74.06
396.352	75.06
396.576	83.06
396.801	92.06
397.025	85.06
397.249	92.06
397.474	75.06
397.698	68.06
397.922	84.06
398.147	78.06
398.371	90.06
398.595	94.06
398.82	86.06
399.044	82.06
399.268	66.06
399.492	85.06
399.717	78.06
399.941	87.06
400.165	91.06
400.389	94.06
400.613	82.06
400.837	79.06
401.062	84.06
401.286	79.06
401.51	92.06
401.734	69.06
401.958	103.06
402.182	99.06
402.406	116.06
402.63	98.06
402.854	84.06
403.078	94.06
403.302	82.06
403.526	75.06
403.75	86.06
403.974	87.06
404.198	81.06
404.422	88.06
404.645	85.06
404.869	76.06
405.093	100.06
405.317	98.06
405.541	82.06
405.765	105.06
405.988	107.06
406.212	157.06
406.436	180.06
406.66	141.06
406.883	102.06
407.107	93.06
407.331	99.06
407.555	92.06
407.778	90.06
408.002	105.06
408.226	80.06
408.449	88.06
408.673	67.06
408.896	87.06
409.12	91.06
409.344	95.06
409.567	76.06
409.791	86.06
410.014	83.06
410.238	87.06
410.461	78.06
410.685	88.06
410.908	89.06
411.132	105.06
411.355	97.06
411.578	95.06
411.802	86.06
412.025	102.06
412.249	82.06
412.472	87.06
412.695	97.06
412.919	97.06
413.142	86.06
413.365	87.06
413.589	78.06
413.812	85.06
414.035	96.06
414.258	82.06
414.482	102.06
414.705	93.06
414.928	93.06
415.151	86.06
415.374	99.06
415.597	84.06
415.821	87.06
416.044	84.06
416.267	95.06
416.49	67.06
416.713	76.06
416.936	78.06
417.159	85.06
417.382	89.06
417.605	77.06
417.828	86.06
418.051	97.06
418.274	108.06
418.497	87.06
418.72	93.06
418.943	79.06
419.166	93.06
419.389	90.06
419.611	87.06
419.834	77.06
420.057	85.06
420.28	85.06
420.503	76.06
420.726	89.06
420.948	86.06
421.171	94.06
421.394	85.06
421.617	93.06
421.839	81.06
422.062	84.06
422.285	96.06
422.507	101.06
422.73	95.06
422.953	84.06
423.175	86.06
423.398	85.06
423.621	90.06
423.843	79.06
424.066	76.06
424.288	96.06
424.511	92.06
424.733	95.06
424.956	84.06
425.178	84.06
425.401	91.06
425.623	107.06
425.846	89.06
426.068	86.06
426.291	78.06
426.513	84.06
426.735	77.06
426.958	91.06
427.18	93.06
427.402	126.06
427.625	123.06
427.847	109.06
428.069	122.06
428.292	92.06
428.514	91.06
428.736	77.06
428.958	79.06
429.181	97.06
429.403	78.06
429.625	73.06
429.847	91.06
430.069	82.06
430.292	84.06
430.514	97.06
430.736	71.06
430.958	75.06
431.18	61.06
431.402	100.06
431.624	89.06
431.846	78.06
432.068	88.06
432.29	90.06
432.512	85.06
432.734	75.06
432.956	88.06
433.178	94.06
433.4	88.06
433.622	79.06
433.844	87.06
434.066	99.06
434.287	86.06
434.509	89.06
434.731	83.06
434.953	78.06
435.175	81.06
435.397	73.06
435.618	89.06
435.84	94.06
436.062	110.06
436.284	100.06
436.505	102.06
436.727	94.06
436.949	86.06
437.17	90.06
437.392	89.06
437.614	87.06
437.835	82.06
438.057	101.06
438.278	93.06
438.5	81.06
438.721	89.06
438.943	84.06
439.165	87.06
439.386	75.06
439.608	87.06
439.829	90.06
440.05	92.06
440.272	117.06
440.493	99.06
440.715	87.06
440.936	97.06
441.158	87.06
441.379	82.06
441.6	79.06
441.822	93.06
442.043	90.06
442.264	92.06
442.486	100.06
442.707	92.06
442.928	82.06
443.149	103.06
443.371	101.06
443.592	108.06
443.813	95.06
444.034	100.06
444.255	92.06
444.476	83.06
444.698	101.06
444.919	83.06
445.14	121.06
445.361	134.06
445.582	103.06
445.803	121.06
446.024	110.06
446.245	127.06
446.466	114.06
446.687	86.06
446.908	89.06
447.129	92.06
447.35	91.06
447.571	86.06
447.792	91.06
448.013	70.06
448.234	86.06
448.455	87.06
448.675	101.06
448.896	98.06
449.117	82.06
449.338	96.06
449.559	116.06
449.779	119.06
450	92.06
450.221	82.06
450.442	81.06
450.662	82.06
450.883	90.06
451.104	98.06
451.324	97.06
451.545	96.06
451.766	82.06
451.986	94.06
452.207	83.06
452.428	94.06
452.648	78.06
452.869	89.06
453.089	90.06
453.31	98.06
453.53	99.06
453.751	83.06
453.971	88.06
454.192	98.06
454.412	84.06
454.633	85.06
454.853	98.06
455.073	77.06
455.294	74.06
455.514	88.06
455.734	84.06
455.955	79.06
456.175	90.06
456.395	83.06
456.616	74.06
456.836	85.06
457.056	77.06
457.276	78.06
457.497	84.06
457.717	92.06
457.937	88.06
458.157	84.06
458.377	96.06
458.598	79.06
458.818	119.06
459.038	131.06
459.258	98.06
459.478	78.06
459.698	86.06
459.918	90.06
460.138	92.06
460.358	73.06
460.578	70.06
460.798	80.06
461.018	96.06
461.238	89.06
461.458	79.06
461.678	72.06
461.898	79.06
462.118	70.06
462.338	77.06
462.558	83.06
462.777	74.06
462.997	91.06
463.217	83.06
463.437	77.06
463.657	80.06
463.876	87.06
464.096	81.06
464.316	79.06
464.536	87.06
464.755	97.06
464.975	99.06
465.195	114.06
465.414	135.06
465.634	85.06
465.854	77.06
466.073	81.06
466.293	84.06
466.512	93.06
466.732	94.06
466.951	82.06
467.171	89.06
467.391	103.06
467.61	99.06
467.829	85.06
468.049	130.06
468.268	148.06
468.488	94.06
468.707	88.06
468.927	90.06
469.146	74.06
469.365	95.06
469.585	79.06
469.804	93.06
470.023	92.06
470.243	89.06
470.462	93.06
470.681	90.06
470.901	95.06
471.12	72.06
471.339	87.06
471.558	75.06
471.777	82.06
471.997	109.06
472.216	181.06
472.435	297.06
472.654	127.06
472.873	88.06
473.092	79.06
473.311	74.06
473.53	90.06
473.749	80.06
473.968	88.06
474.187	95.06
474.406	98.06
474.625	91.06
474.844	89.06
475.063	78.06
475.282	90.06
475.501	85.06
475.72	88.06
475.939	81.06
476.158	94.06
476.377	85.06
476.596	86.06
476.814	79.06
477.033	77.06
477.252	90.06
477.471	75.06
477.69	85.06
477.908	78.06
478.127	88.06
478.346	87.06
478.564	90.06
478.783	89.06
479.002	86.06
479.22	80.06
479.439	94.06
479.658	89.06
479.876	89.06
480.095	89.06
480.313	94.06
480.532	99.06
480.751	99.06
480.969	191.06
481.188	468.06
481.406	300.06
481.624	116.06
481.843	92.06
482.061	90.06
482.28	86.06
482.498	86.06
482.717	81.06
482.935	91.06
483.153	80.06
483.372	94.06
483.59	70.06
483.808	86.06
484.027	80.06
484.245	93.06
484.463	85.06
484.681	94.06
484.9	90.06
485.118	97.06
485.336	92.06
485.554	97.06
485.772	101.06
485.99	98.06
486.209	99.06
486.427	84.06
486.645	98.06
486.863	113.06
487.081	86.06
487.299	87.06
487.517	93.06
487.735	89.06
487.953	96.06
488.171	92.06
488.389	79.06
488.607	98.06
488.825	84.06
489.043	93.06
489.261	110.06
489.479	81.06
489.696	70.06
489.914	79.06
490.132	88.06
490.35	77.06
490.568	86.06
490.786	91.06
491.003	82.06
491.221	94.06
491.439	91.06
491.657	94.06
491.874	81.06
492.092	95.06
492.31	81.06
492.527	73.06
492.745	74.06
492.963	90.06
493.18	95.06
493.398	92.06
493.615	94.06
493.833	82.06
494.05	88.06
494.268	95.06
494.485	71.06
494.703	99.06
494.92	82.06
495.138	69.06
495.355	98.06
495.573	95.06
495.79	78.06
496.008	87.06
496.225	66.06
496.442	76.06
496.66	85.06
496.877	95.06
497.094	79.06
497.312	86.06
497.529	78.06
497.746	72.06
497.963	83.06
498.181	87.06
498.398	73.06
498.615	95.06
498.832	99.06
499.049	82.06
499.267	86.06
499.484	70.06
499.701	86.06
499.918	105.06
500.135	79.06
500.352	89.06
500.569	103.06
500.786	80.06
501.003	82.06
501.22	81.06
501.437	93.06
501.654	77.06
501.871	85.06
502.088	88.06
502.305	91.06
502.522	89.06
502.739	92.06
502.956	89.06
503.172	94.06
503.389	70.06
503.606	90.06
503.823	105.06
504.04	90.06
504.256	81.06
504.473	92.06
504.69	94.06
504.907	83.06
505.123	76.06
505.34	94.06
505.557	77.06
505.773	79.06
505.99	88.06
506.207	77.06
506.423	62.06
506.64	91.06
506.856	68.06
507.073	90.06
507.289	106.06
507.506	90.06
507.722	93.06
507.939	103.06
508.155	86.06
508.372	90.06
508.588	91.06
508.805	90.06
509.021	86.06
509.238	96.06
509.454	99.06
509.67	93.06
509.887	98.06
510.103	105.06
510.319	157.06
510.536	552.06
510.752	1639.06
510.968	507.06
511.184	129.06
511.401	93.06
511.617	78.06
511.833	86.06
512.049	73.06
512.265	84.06
512.481	81.06
512.698	89.06
512.914	83.06
513.13	86.06
513.346	88.06
513.562	85.06
513.778	83.06
513.994	94.06
514.21	90.06
514.426	105.06
514.642	113.06
514.858	101.06
515.074	131.06
515.29	319.06
515.506	982.06
515.721	386.06
515.937	129.06
516.153	113.06
516.369	76.06
516.585	101.06
516.801	85.06
517.016	103.06
517.232	96.06
517.448	84.06
