Data from Circ_2010_H10_HRD10591_00078.txt Node
Date: Wed Jan 03 10:09:56 EST 2024
User: Yrep
Spectrometer: HR+D1059
Trigger mode: 1
Integration Time (sec): 1.000000E-1
Scans to average: 1
Electric dark correction enabled: true
Nonlinearity correction enabled: false
Boxcar width: 0
XAxis mode: Wavelengths
Number of Pixels in Spectrum: 2048
>>>>>Begin Spectral Data<<<<<
223.165	-11.69
223.4	-11.69
223.635	-11.69
223.869	-17.69
224.104	-24.69
224.338	-0.69
224.573	-11.69
224.808	-25.69
225.042	-7.69
225.277	-7.69
225.511	-9.69
225.746	5.31
225.98	-2.69
226.215	1.31
226.449	9.31
226.683	25.31
226.918	34.31
227.152	44.31
227.387	42.31
227.621	46.31
227.856	51.31
228.09	47.31
228.324	46.31
228.559	49.31
228.793	53.31
229.027	64.31
229.262	70.31
229.496	68.31
229.73	74.31
229.964	83.31
230.199	72.31
230.433	77.31
230.667	68.31
230.901	61.31
231.136	60.31
231.37	70.31
231.604	86.31
231.838	62.31
232.072	79.31
232.306	86.31
232.541	79.31
232.775	72.31
233.009	70.31
233.243	77.31
233.477	70.31
233.711	85.31
233.945	81.31
234.179	78.31
234.413	94.31
234.647	77.31
234.881	83.31
235.115	72.31
235.349	79.31
235.583	85.31
235.817	88.31
236.051	77.31
236.285	73.31
236.519	81.31
236.753	95.31
236.987	71.31
237.221	101.31
237.455	85.31
237.689	84.31
237.922	63.31
238.156	75.31
238.39	79.31
238.624	72.31
238.858	76.31
239.091	70.31
239.325	70.31
239.559	84.31
239.793	64.31
240.027	78.31
240.26	67.31
240.494	80.31
240.728	81.31
240.961	73.31
241.195	63.31
241.429	90.31
241.662	69.31
241.896	76.31
242.13	72.31
242.363	83.31
242.597	72.31
242.83	79.31
243.064	64.31
243.298	83.31
243.531	69.31
243.765	76.31
243.998	73.31
244.232	87.31
244.465	86.31
244.699	81.31
244.932	80.31
245.166	81.31
245.399	82.31
245.633	85.31
245.866	78.31
246.099	83.31
246.333	79.31
246.566	82.31
246.8	71.31
247.033	77.31
247.266	79.31
247.5	76.31
247.733	74.31
247.966	79.31
248.2	97.31
248.433	86.31
248.666	80.31
248.899	85.31
249.133	82.31
249.366	93.31
249.599	81.31
249.832	102.31
250.066	82.31
250.299	91.31
250.532	77.31
250.765	89.31
250.998	90.31
251.231	80.31
251.465	83.31
251.698	73.31
251.931	70.31
252.164	64.31
252.397	76.31
252.63	81.31
252.863	83.31
253.096	78.31
253.329	92.31
253.562	74.31
253.795	87.31
254.028	67.31
254.261	98.31
254.494	71.31
254.727	81.31
254.96	93.31
255.193	81.31
255.426	76.31
255.659	67.31
255.892	90.31
256.124	72.31
256.357	77.31
256.59	80.31
256.823	73.31
257.056	87.31
257.289	80.31
257.521	74.31
257.754	68.31
257.987	89.31
258.22	87.31
258.452	88.31
258.685	89.31
258.918	89.31
259.151	72.31
259.383	83.31
259.616	89.31
259.849	86.31
260.081	85.31
260.314	78.31
260.547	81.31
260.779	81.31
261.012	65.31
261.244	75.31
261.477	90.31
261.71	101.31
261.942	87.31
262.175	106.31
262.407	81.31
262.64	81.31
262.872	72.31
263.105	83.31
263.337	87.31
263.57	95.31
263.802	84.31
264.035	82.31
264.267	74.31
264.499	80.31
264.732	78.31
264.964	84.31
265.197	93.31
265.429	84.31
265.661	85.31
265.894	80.31
266.126	84.31
266.358	72.31
266.591	83.31
266.823	86.31
267.055	71.31
267.287	84.31
267.52	90.31
267.752	86.31
267.984	83.31
268.216	70.31
268.448	73.31
268.681	78.31
268.913	99.31
269.145	85.31
269.377	87.31
269.609	94.31
269.841	87.31
270.073	93.31
270.306	73.31
270.538	81.31
270.77	87.31
271.002	88.31
271.234	80.31
271.466	74.31
271.698	84.31
271.93	86.31
272.162	89.31
272.394	101.31
272.626	84.31
272.858	94.31
273.09	86.31
273.322	92.31
273.553	80.31
273.785	81.31
274.017	97.31
274.249	83.31
274.481	71.31
274.713	84.31
274.945	85.31
275.176	79.31
275.408	99.31
275.64	74.31
275.872	83.31
276.104	92.31
276.335	87.31
276.567	96.31
276.799	97.31
277.031	102.31
277.262	96.31
277.494	87.31
277.726	85.31
277.957	91.31
278.189	95.31
278.421	80.31
278.652	92.31
278.884	87.31
279.115	87.31
279.347	79.31
279.579	84.31
279.81	84.31
280.042	108.31
280.273	105.31
280.505	119.31
280.736	81.31
280.968	89.31
281.199	72.31
281.431	63.31
281.662	86.31
281.894	95.31
282.125	90.31
282.356	98.31
282.588	115.31
282.819	111.31
283.051	101.31
283.282	80.31
283.513	98.31
283.745	87.31
283.976	79.31
284.207	68.31
284.439	87.31
284.67	76.31
284.901	79.31
285.132	92.31
285.364	87.31
285.595	90.31
285.826	87.31
286.057	94.31
286.288	65.31
286.52	86.31
286.751	72.31
286.982	75.31
287.213	81.31
287.444	84.31
287.675	85.31
287.906	83.31
288.138	103.31
288.369	87.31
288.6	81.31
288.831	82.31
289.062	83.31
289.293	88.31
289.524	92.31
289.755	75.31
289.986	90.31
290.217	93.31
290.448	80.31
290.679	92.31
290.91	84.31
291.141	84.31
291.371	86.31
291.602	87.31
291.833	83.31
292.064	100.31
292.295	94.31
292.526	90.31
292.757	90.31
292.987	92.31
293.218	88.31
293.449	90.31
293.68	92.31
293.91	102.31
294.141	79.31
294.372	84.31
294.603	97.31
294.833	88.31
295.064	92.31
295.295	80.31
295.525	83.31
295.756	91.31
295.987	106.31
296.217	124.31
296.448	101.31
296.679	91.31
296.909	86.31
297.14	83.31
297.37	102.31
297.601	81.31
297.831	94.31
298.062	82.31
298.292	81.31
298.523	87.31
298.753	86.31
298.984	90.31
299.214	86.31
299.445	92.31
299.675	86.31
299.905	89.31
300.136	99.31
300.366	94.31
300.597	92.31
300.827	92.31
301.057	103.31
301.288	105.31
301.518	96.31
301.748	99.31
301.979	96.31
302.209	76.31
302.439	79.31
302.669	92.31
302.9	99.31
303.13	105.31
303.36	77.31
303.59	101.31
303.82	101.31
304.051	89.31
304.281	85.31
304.511	88.31
304.741	84.31
304.971	81.31
305.201	94.31
305.431	99.31
305.661	96.31
305.891	84.31
306.121	97.31
306.352	100.31
306.582	95.31
306.812	91.31
307.042	103.31
307.272	102.31
307.502	102.31
307.731	109.31
307.961	85.31
308.191	77.31
308.421	82.31
308.651	89.31
308.881	100.31
309.111	97.31
309.341	84.31
309.571	87.31
309.8	94.31
310.03	117.31
310.26	107.31
310.49	88.31
310.72	92.31
310.949	98.31
311.179	98.31
311.409	79.31
311.639	91.31
311.868	91.31
312.098	94.31
312.328	93.31
312.557	98.31
312.787	91.31
313.017	93.31
313.246	97.31
313.476	78.31
313.706	82.31
313.935	88.31
314.165	104.31
314.394	89.31
314.624	112.31
314.853	98.31
315.083	101.31
315.312	84.31
315.542	98.31
315.771	102.31
316.001	68.31
316.23	86.31
316.46	109.31
316.689	100.31
316.919	91.31
317.148	87.31
317.377	93.31
317.607	96.31
317.836	104.31
318.065	84.31
318.295	69.31
318.524	81.31
318.753	86.31
318.983	84.31
319.212	101.31
319.441	108.31
319.67	99.31
319.9	78.31
320.129	101.31
320.358	91.31
320.587	96.31
320.816	78.31
321.046	101.31
321.275	112.31
321.504	105.31
321.733	95.31
321.962	105.31
322.191	102.31
322.42	101.31
322.649	99.31
322.878	111.31
323.108	101.31
323.337	112.31
323.566	118.31
323.795	129.31
324.024	192.31
324.253	342.31
324.482	728.31
324.71	1414.31
324.939	1851.31
325.168	681.31
325.397	211.31
325.626	145.31
325.855	119.31
326.084	110.31
326.313	113.31
326.542	153.31
326.77	207.31
326.999	416.31
327.228	795.31
327.457	1461.31
327.686	1163.31
327.914	340.31
328.143	216.31
328.372	201.31
328.6	128.31
328.829	106.31
329.058	120.31
329.287	131.31
329.515	128.31
329.744	117.31
329.972	148.31
330.201	255.31
330.43	340.31
330.658	197.31
330.887	137.31
331.115	133.31
331.344	94.31
331.572	118.31
331.801	100.31
332.03	95.31
332.258	94.31
332.486	82.31
332.715	107.31
332.943	110.31
333.172	92.31
333.4	95.31
333.629	113.31
333.857	129.31
334.085	155.31
334.314	245.31
334.542	380.31
334.771	369.31
334.999	155.31
335.227	100.31
335.455	92.31
335.684	92.31
335.912	93.31
336.14	104.31
336.369	116.31
336.597	109.31
336.825	106.31
337.053	113.31
337.281	99.31
337.51	83.31
337.738	91.31
337.966	78.31
338.194	95.31
338.422	94.31
338.65	98.31
338.878	98.31
339.106	92.31
339.334	92.31
339.562	95.31
339.79	88.31
340.018	78.31
340.246	88.31
340.474	92.31
340.702	88.31
340.93	94.31
341.158	94.31
341.386	95.31
341.614	101.31
341.842	104.31
342.07	86.31
342.298	84.31
342.526	89.31
342.754	88.31
342.981	83.31
343.209	66.31
343.437	101.31
343.665	89.31
343.893	86.31
344.12	92.31
344.348	111.31
344.576	90.31
344.804	84.31
345.031	91.31
345.259	95.31
345.487	86.31
345.714	110.31
345.942	95.31
346.17	93.31
346.397	101.31
346.625	89.31
346.853	96.31
347.08	94.31
347.308	98.31
347.535	89.31
347.763	106.31
347.99	93.31
348.218	89.31
348.445	102.31
348.673	95.31
348.9	85.31
349.128	105.31
349.355	97.31
349.583	94.31
349.81	107.31
350.037	99.31
350.265	84.31
350.492	94.31
350.72	106.31
350.947	96.31
351.174	106.31
351.402	107.31
351.629	95.31
351.856	101.31
352.083	100.31
352.311	105.31
352.538	98.31
352.765	105.31
352.992	103.31
353.22	111.31
353.447	95.31
353.674	94.31
353.901	99.31
354.128	102.31
354.355	96.31
354.583	83.31
354.81	98.31
355.037	93.31
355.264	98.31
355.491	111.31
355.718	100.31
355.945	96.31
356.172	93.31
356.399	105.31
356.626	83.31
356.853	96.31
357.08	93.31
357.307	87.31
357.534	81.31
357.761	74.31
357.988	93.31
358.215	107.31
358.441	78.31
358.668	99.31
358.895	84.31
359.122	88.31
359.349	92.31
359.576	88.31
359.802	79.31
360.029	102.31
360.256	103.31
360.483	94.31
360.709	88.31
360.936	101.31
361.163	91.31
361.39	88.31
361.616	113.31
361.843	86.31
362.07	95.31
362.296	102.31
362.523	103.31
362.749	87.31
362.976	93.31
363.203	84.31
363.429	88.31
363.656	95.31
363.882	86.31
364.109	84.31
364.335	79.31
364.562	93.31
364.788	84.31
365.015	100.31
365.241	97.31
365.468	107.31
365.694	85.31
365.92	88.31
366.147	94.31
366.373	93.31
366.599	82.31
366.826	91.31
367.052	90.31
367.278	86.31
367.505	102.31
367.731	88.31
367.957	90.31
368.184	99.31
368.41	92.31
368.636	101.31
368.862	107.31
369.089	106.31
369.315	92.31
369.541	93.31
369.767	91.31
369.993	89.31
370.219	89.31
370.445	91.31
370.672	94.31
370.898	88.31
371.124	101.31
371.35	96.31
371.576	72.31
371.802	80.31
372.028	100.31
372.254	109.31
372.48	102.31
372.706	86.31
372.932	89.31
373.158	97.31
373.384	87.31
373.61	96.31
373.835	83.31
374.061	83.31
374.287	92.31
374.513	102.31
374.739	76.31
374.965	98.31
375.191	97.31
375.416	89.31
375.642	87.31
375.868	108.31
376.094	80.31
376.319	81.31
376.545	99.31
376.771	71.31
376.997	81.31
377.222	97.31
377.448	82.31
377.674	85.31
377.899	79.31
378.125	89.31
378.35	96.31
378.576	89.31
378.802	83.31
379.027	87.31
379.253	80.31
379.478	92.31
379.704	84.31
379.929	96.31
380.155	92.31
380.38	99.31
380.606	88.31
380.831	98.31
381.057	92.31
381.282	85.31
381.507	95.31
381.733	83.31
381.958	99.31
382.184	87.31
382.409	102.31
382.634	89.31
382.86	102.31
383.085	89.31
383.31	104.31
383.535	96.31
383.761	95.31
383.986	105.31
384.211	93.31
384.436	81.31
384.662	96.31
384.887	105.31
385.112	100.31
385.337	110.31
385.562	93.31
385.787	98.31
386.013	104.31
386.238	92.31
386.463	99.31
386.688	104.31
386.913	99.31
387.138	92.31
387.363	85.31
387.588	101.31
387.813	96.31
388.038	87.31
388.263	108.31
388.488	102.31
388.713	105.31
388.938	103.31
389.163	101.31
389.387	97.31
389.612	77.31
389.837	89.31
390.062	96.31
390.287	92.31
390.512	87.31
390.736	83.31
390.961	101.31
391.186	90.31
391.411	95.31
391.636	71.31
391.86	77.31
392.085	74.31
392.31	79.31
392.534	87.31
392.759	79.31
392.984	69.31
393.208	93.31
393.433	86.31
393.658	107.31
393.882	91.31
394.107	91.31
394.331	75.31
394.556	83.31
394.78	108.31
395.005	96.31
395.229	92.31
395.454	94.31
395.678	83.31
395.903	86.31
396.127	89.31
396.352	86.31
396.576	75.31
396.801	72.31
397.025	78.31
397.249	91.31
397.474	95.31
397.698	77.31
397.922	89.31
398.147	90.31
398.371	88.31
398.595	85.31
398.82	83.31
399.044	80.31
399.268	74.31
399.492	94.31
399.717	84.31
399.941	85.31
400.165	94.31
400.389	76.31
400.613	94.31
400.837	91.31
401.062	90.31
401.286	78.31
401.51	86.31
401.734	86.31
401.958	83.31
402.182	111.31
402.406	136.31
402.63	111.31
402.854	96.31
403.078	99.31
403.302	99.31
403.526	99.31
403.75	80.31
403.974	88.31
404.198	77.31
404.422	93.31
404.645	92.31
404.869	89.31
405.093	96.31
405.317	104.31
405.541	103.31
405.765	74.31
405.988	115.31
406.212	135.31
406.436	193.31
406.66	137.31
406.883	89.31
407.107	94.31
407.331	95.31
407.555	96.31
407.778	85.31
408.002	79.31
408.226	79.31
408.449	97.31
408.673	86.31
408.896	89.31
409.12	96.31
409.344	87.31
409.567	90.31
409.791	102.31
410.014	80.31
410.238	90.31
410.461	81.31
410.685	98.31
410.908	92.31
411.132	89.31
411.355	101.31
411.578	88.31
411.802	87.31
412.025	80.31
412.249	102.31
412.472	88.31
412.695	106.31
412.919	79.31
413.142	86.31
413.365	85.31
413.589	76.31
413.812	96.31
414.035	81.31
414.258	89.31
414.482	94.31
414.705	86.31
414.928	102.31
415.151	88.31
415.374	71.31
415.597	95.31
415.821	88.31
416.044	88.31
416.267	81.31
416.49	75.31
416.713	91.31
416.936	84.31
417.159	88.31
417.382	77.31
417.605	89.31
417.828	114.31
418.051	91.31
418.274	80.31
418.497	81.31
418.72	77.31
418.943	88.31
419.166	78.31
419.389	86.31
419.611	84.31
419.834	93.31
420.057	102.31
420.28	67.31
420.503	86.31
420.726	87.31
420.948	89.31
421.171	89.31
421.394	92.31
421.617	71.31
421.839	81.31
422.062	89.31
422.285	90.31
422.507	108.31
422.73	91.31
422.953	85.31
423.175	85.31
423.398	91.31
423.621	85.31
423.843	101.31
424.066	91.31
424.288	84.31
424.511	117.31
424.733	92.31
424.956	86.31
425.178	103.31
425.401	98.31
425.623	103.31
425.846	86.31
426.068	86.31
426.291	94.31
426.513	92.31
426.735	77.31
426.958	101.31
427.18	96.31
427.402	114.31
427.625	139.31
427.847	131.31
428.069	141.31
428.292	93.31
428.514	86.31
428.736	84.31
428.958	83.31
429.181	101.31
429.403	93.31
429.625	89.31
429.847	103.31
430.069	96.31
430.292	75.31
430.514	93.31
430.736	86.31
430.958	84.31
431.18	88.31
431.402	86.31
431.624	73.31
431.846	75.31
432.068	88.31
432.29	77.31
432.512	81.31
432.734	86.31
432.956	81.31
433.178	100.31
433.4	123.31
433.622	93.31
433.844	95.31
434.066	74.31
434.287	78.31
434.509	89.31
434.731	85.31
434.953	74.31
435.175	86.31
435.397	78.31
435.618	82.31
435.84	84.31
436.062	120.31
436.284	121.31
436.505	82.31
436.727	87.31
436.949	84.31
437.17	93.31
437.392	93.31
437.614	96.31
437.835	95.31
438.057	84.31
438.278	106.31
438.5	115.31
438.721	109.31
438.943	109.31
439.165	72.31
439.386	80.31
439.608	100.31
439.829	82.31
440.05	96.31
440.272	140.31
440.493	98.31
440.715	84.31
440.936	85.31
441.158	99.31
441.379	87.31
441.6	86.31
441.822	91.31
442.043	94.31
442.264	99.31
442.486	92.31
442.707	85.31
442.928	114.31
443.149	123.31
443.371	115.31
443.592	115.31
443.813	97.31
444.034	90.31
444.255	92.31
444.476	81.31
444.698	82.31
444.919	95.31
445.14	122.31
445.361	115.31
445.582	110.31
445.803	133.31
446.024	122.31
446.245	123.31
446.466	103.31
446.687	95.31
446.908	96.31
447.129	88.31
447.35	94.31
447.571	89.31
447.792	89.31
448.013	101.31
448.234	97.31
448.455	98.31
448.675	102.31
448.896	114.31
449.117	107.31
449.338	102.31
449.559	111.31
449.779	126.31
450	94.31
450.221	77.31
450.442	96.31
450.662	85.31
450.883	103.31
451.104	102.31
451.324	89.31
451.545	78.31
451.766	88.31
451.986	71.31
452.207	79.31
452.428	98.31
452.648	89.31
452.869	84.31
453.089	109.31
453.31	118.31
453.53	95.31
453.751	94.31
453.971	86.31
454.192	104.31
454.412	86.31
454.633	81.31
454.853	86.31
455.073	94.31
455.294	93.31
455.514	104.31
455.734	85.31
455.955	98.31
456.175	91.31
456.395	73.31
456.616	93.31
456.836	91.31
457.056	87.31
457.276	89.31
457.497	83.31
457.717	87.31
457.937	90.31
458.157	75.31
458.377	94.31
458.598	101.31
458.818	126.31
459.038	129.31
459.258	107.31
459.478	88.31
459.698	92.31
459.918	93.31
460.138	96.31
460.358	85.31
460.578	84.31
460.798	100.31
461.018	97.31
461.238	76.31
461.458	75.31
461.678	75.31
461.898	106.31
462.118	81.31
462.338	88.31
462.558	83.31
462.777	77.31
462.997	86.31
463.217	89.31
463.437	88.31
463.657	78.31
463.876	88.31
464.096	94.31
464.316	78.31
464.536	93.31
464.755	89.31
464.975	117.31
465.195	148.31
465.414	142.31
465.634	99.31
465.854	89.31
466.073	78.31
466.293	90.31
466.512	82.31
466.732	88.31
466.951	86.31
467.171	79.31
467.391	94.31
467.61	105.31
467.829	116.31
468.049	174.31
468.268	194.31
468.488	107.31
468.707	90.31
468.927	79.31
469.146	81.31
469.365	90.31
469.585	99.31
469.804	94.31
470.023	80.31
470.243	89.31
470.462	85.31
470.681	111.31
470.901	100.31
471.12	91.31
471.339	94.31
471.558	84.31
471.777	95.31
471.997	106.31
472.216	280.31
472.435	522.31
472.654	169.31
472.873	89.31
473.092	77.31
473.311	92.31
473.53	96.31
473.749	89.31
473.968	91.31
474.187	101.31
474.406	96.31
474.625	78.31
474.844	91.31
475.063	94.31
475.282	92.31
475.501	88.31
475.72	75.31
475.939	73.31
476.158	84.31
476.377	84.31
476.596	97.31
476.814	95.31
477.033	85.31
477.252	73.31
477.471	81.31
477.69	86.31
477.908	87.31
478.127	92.31
478.346	82.31
478.564	79.31
478.783	96.31
479.002	83.31
479.22	71.31
479.439	99.31
479.658	102.31
479.876	96.31
480.095	79.31
480.313	89.31
480.532	115.31
480.751	143.31
480.969	265.31
481.188	843.31
481.406	554.31
481.624	126.31
481.843	90.31
482.061	90.31
482.28	86.31
482.498	86.31
482.717	84.31
482.935	94.31
483.153	83.31
483.372	92.31
483.59	95.31
483.808	91.31
484.027	89.31
484.245	87.31
484.463	84.31
484.681	103.31
484.9	105.31
485.118	96.31
485.336	101.31
485.554	89.31
485.772	95.31
485.99	96.31
486.209	107.31
486.427	108.31
486.645	109.31
486.863	108.31
487.081	97.31
487.299	87.31
487.517	84.31
487.735	82.31
487.953	99.31
488.171	86.31
488.389	92.31
488.607	102.31
488.825	94.31
489.043	92.31
489.261	83.31
489.479	90.31
489.696	88.31
489.914	71.31
490.132	85.31
490.35	97.31
490.568	103.31
490.786	93.31
491.003	74.31
491.221	86.31
491.439	84.31
491.657	91.31
491.874	97.31
492.092	95.31
492.31	94.31
492.527	81.31
492.745	95.31
492.963	88.31
493.18	97.31
493.398	83.31
493.615	99.31
493.833	91.31
494.05	85.31
494.268	95.31
494.485	107.31
494.703	89.31
494.92	76.31
495.138	104.31
495.355	78.31
495.573	89.31
495.79	87.31
496.008	86.31
496.225	81.31
496.442	90.31
496.66	94.31
496.877	89.31
497.094	81.31
497.312	75.31
497.529	84.31
497.746	94.31
497.963	87.31
498.181	93.31
498.398	91.31
498.615	109.31
498.832	97.31
499.049	81.31
499.267	91.31
499.484	91.31
499.701	86.31
499.918	108.31
500.135	78.31
500.352	90.31
500.569	109.31
500.786	83.31
501.003	91.31
501.22	91.31
501.437	92.31
501.654	86.31
501.871	113.31
502.088	89.31
502.305	85.31
502.522	78.31
502.739	101.31
502.956	96.31
503.172	72.31
503.389	94.31
503.606	98.31
503.823	101.31
504.04	86.31
504.256	87.31
504.473	92.31
504.69	88.31
504.907	97.31
505.123	109.31
505.34	90.31
505.557	88.31
505.773	87.31
505.99	92.31
506.207	104.31
506.423	85.31
506.64	94.31
506.856	105.31
507.073	91.31
507.289	91.31
507.506	103.31
507.722	93.31
507.939	107.31
508.155	91.31
508.372	90.31
508.588	79.31
508.805	112.31
509.021	93.31
509.238	106.31
509.454	97.31
509.67	103.31
509.887	102.31
510.103	131.31
510.319	189.31
510.536	601.31
510.752	1895.31
510.968	567.31
511.184	136.31
511.401	110.31
511.617	92.31
511.833	81.31
512.049	79.31
512.265	79.31
512.481	83.31
512.698	90.31
512.914	89.31
513.13	97.31
513.346	98.31
513.562	107.31
513.778	94.31
513.994	105.31
514.21	101.31
514.426	109.31
514.642	118.31
514.858	124.31
515.074	149.31
515.29	362.31
515.506	1236.31
515.721	466.31
515.937	137.31
