Data from Circ_2010_H10_HRD10591_00035.txt Node
Date: Wed Jan 03 10:09:48 EST 2024
User: Yrep
Spectrometer: HR+D1059
Trigger mode: 1
Integration Time (sec): 1.000000E-1
Scans to average: 1
Electric dark correction enabled: true
Nonlinearity correction enabled: false
Boxcar width: 0
XAxis mode: Wavelengths
Number of Pixels in Spectrum: 2048
>>>>>Begin Spectral Data<<<<<
223.165	-24.12
223.4	-24.12
223.635	-24.12
223.869	-18.12
224.104	-16.12
224.338	-18.12
224.573	-19.12
224.808	-10.12
225.042	-3.12
225.277	8.88
225.511	-11.12
225.746	7.88
225.98	11.88
226.215	7.88
226.449	21.88
226.683	21.88
226.918	13.88
227.152	25.88
227.387	25.88
227.621	43.88
227.856	37.88
228.09	54.88
228.324	46.88
228.559	55.88
228.793	67.88
229.027	59.88
229.262	65.88
229.496	72.88
229.73	87.88
229.964	80.88
230.199	75.88
230.433	68.88
230.667	79.88
230.901	71.88
231.136	76.88
231.37	86.88
231.604	82.88
231.838	90.88
232.072	86.88
232.306	79.88
232.541	78.88
232.775	80.88
233.009	76.88
233.243	79.88
233.477	68.88
233.711	62.88
233.945	80.88
234.179	87.88
234.413	88.88
234.647	88.88
234.881	62.88
235.115	83.88
235.349	82.88
235.583	70.88
235.817	81.88
236.051	82.88
236.285	76.88
236.519	70.88
236.753	76.88
236.987	90.88
237.221	86.88
237.455	87.88
237.689	99.88
237.922	82.88
238.156	67.88
238.39	72.88
238.624	69.88
238.858	67.88
239.091	73.88
239.325	87.88
239.559	73.88
239.793	75.88
240.027	71.88
240.26	80.88
240.494	69.88
240.728	77.88
240.961	87.88
241.195	81.88
241.429	81.88
241.662	88.88
241.896	73.88
242.13	79.88
242.363	75.88
242.597	78.88
242.83	85.88
243.064	80.88
243.298	69.88
243.531	86.88
243.765	76.88
243.998	83.88
244.232	85.88
244.465	85.88
244.699	90.88
244.932	79.88
245.166	69.88
245.399	76.88
245.633	50.88
245.866	77.88
246.099	89.88
246.333	70.88
246.566	77.88
246.8	85.88
247.033	59.88
247.266	76.88
247.5	83.88
247.733	89.88
247.966	90.88
248.2	80.88
248.433	81.88
248.666	64.88
248.899	76.88
249.133	81.88
249.366	84.88
249.599	99.88
249.832	87.88
250.066	72.88
250.299	87.88
250.532	79.88
250.765	91.88
250.998	80.88
251.231	76.88
251.465	67.88
251.698	73.88
251.931	67.88
252.164	47.88
252.397	69.88
252.63	75.88
252.863	71.88
253.096	90.88
253.329	75.88
253.562	86.88
253.795	74.88
254.028	80.88
254.261	88.88
254.494	89.88
254.727	84.88
254.96	74.88
255.193	85.88
255.426	87.88
255.659	77.88
255.892	69.88
256.124	87.88
256.357	65.88
256.59	75.88
256.823	71.88
257.056	86.88
257.289	74.88
257.521	88.88
257.754	70.88
257.987	78.88
258.22	91.88
258.452	76.88
258.685	91.88
258.918	81.88
259.151	78.88
259.383	91.88
259.616	89.88
259.849	67.88
260.081	78.88
260.314	82.88
260.547	87.88
260.779	70.88
261.012	85.88
261.244	70.88
261.477	89.88
261.71	100.88
261.942	92.88
262.175	90.88
262.407	87.88
262.64	78.88
262.872	69.88
263.105	67.88
263.337	75.88
263.57	70.88
263.802	96.88
264.035	91.88
264.267	72.88
264.499	84.88
264.732	95.88
264.964	96.88
265.197	80.88
265.429	91.88
265.661	87.88
265.894	79.88
266.126	78.88
266.358	76.88
266.591	79.88
266.823	85.88
267.055	78.88
267.287	92.88
267.52	74.88
267.752	79.88
267.984	92.88
268.216	78.88
268.448	79.88
268.681	82.88
268.913	85.88
269.145	80.88
269.377	82.88
269.609	67.88
269.841	86.88
270.073	80.88
270.306	82.88
270.538	83.88
270.77	109.88
271.002	83.88
271.234	98.88
271.466	65.88
271.698	85.88
271.93	76.88
272.162	76.88
272.394	80.88
272.626	92.88
272.858	76.88
273.09	87.88
273.322	93.88
273.553	78.88
273.785	99.88
274.017	89.88
274.249	78.88
274.481	92.88
274.713	87.88
274.945	85.88
275.176	91.88
275.408	94.88
275.64	78.88
275.872	99.88
276.104	88.88
276.335	87.88
276.567	98.88
276.799	104.88
277.031	89.88
277.262	84.88
277.494	102.88
277.726	88.88
277.957	81.88
278.189	87.88
278.421	83.88
278.652	80.88
278.884	89.88
279.115	96.88
279.347	85.88
279.579	85.88
279.81	89.88
280.042	89.88
280.273	100.88
280.505	101.88
280.736	93.88
280.968	81.88
281.199	85.88
281.431	85.88
281.662	82.88
281.894	65.88
282.125	89.88
282.356	115.88
282.588	135.88
282.819	110.88
283.051	91.88
283.282	84.88
283.513	76.88
283.745	83.88
283.976	80.88
284.207	93.88
284.439	81.88
284.67	80.88
284.901	80.88
285.132	98.88
285.364	102.88
285.595	82.88
285.826	90.88
286.057	95.88
286.288	81.88
286.52	89.88
286.751	87.88
286.982	73.88
287.213	86.88
287.444	79.88
287.675	87.88
287.906	96.88
288.138	99.88
288.369	87.88
288.6	92.88
288.831	97.88
289.062	97.88
289.293	88.88
289.524	86.88
289.755	87.88
289.986	86.88
290.217	82.88
290.448	91.88
290.679	84.88
290.91	93.88
291.141	84.88
291.371	84.88
291.602	87.88
291.833	84.88
292.064	85.88
292.295	80.88
292.526	80.88
292.757	74.88
292.987	94.88
293.218	94.88
293.449	92.88
293.68	83.88
293.91	82.88
294.141	94.88
294.372	99.88
294.603	97.88
294.833	81.88
295.064	93.88
295.295	96.88
295.525	77.88
295.756	90.88
295.987	94.88
296.217	103.88
296.448	103.88
296.679	89.88
296.909	78.88
297.14	94.88
297.37	77.88
297.601	84.88
297.831	78.88
298.062	92.88
298.292	86.88
298.523	103.88
298.753	86.88
298.984	102.88
299.214	84.88
299.445	81.88
299.675	83.88
299.905	92.88
300.136	102.88
300.366	92.88
300.597	85.88
300.827	87.88
301.057	95.88
301.288	100.88
301.518	90.88
301.748	81.88
301.979	91.88
302.209	91.88
302.439	82.88
302.669	84.88
302.9	74.88
303.13	89.88
303.36	96.88
303.59	104.88
303.82	105.88
304.051	85.88
304.281	95.88
304.511	72.88
304.741	96.88
304.971	99.88
305.201	91.88
305.431	78.88
305.661	85.88
305.891	91.88
306.121	100.88
306.352	95.88
306.582	101.88
306.812	92.88
307.042	89.88
307.272	86.88
307.502	99.88
307.731	105.88
307.961	80.88
308.191	91.88
308.421	83.88
308.651	90.88
308.881	87.88
309.111	102.88
309.341	106.88
309.571	82.88
309.8	76.88
310.03	75.88
310.26	106.88
310.49	93.88
310.72	90.88
310.949	87.88
311.179	102.88
311.409	93.88
311.639	88.88
311.868	89.88
312.098	81.88
312.328	109.88
312.557	94.88
312.787	107.88
313.017	97.88
313.246	99.88
313.476	92.88
313.706	94.88
313.935	96.88
314.165	106.88
314.394	90.88
314.624	99.88
314.853	88.88
315.083	103.88
315.312	88.88
315.542	94.88
315.771	91.88
316.001	96.88
316.23	90.88
316.46	92.88
316.689	91.88
316.919	77.88
317.148	89.88
317.377	92.88
317.607	83.88
317.836	101.88
318.065	94.88
318.295	90.88
318.524	87.88
318.753	94.88
318.983	84.88
319.212	83.88
319.441	92.88
319.67	102.88
319.9	73.88
320.129	96.88
320.358	82.88
320.587	91.88
320.816	92.88
321.046	104.88
321.275	85.88
321.504	99.88
321.733	95.88
321.962	99.88
322.191	88.88
322.42	87.88
322.649	92.88
322.878	101.88
323.108	109.88
323.337	100.88
323.566	101.88
323.795	142.88
324.024	183.88
324.253	337.88
324.482	665.88
324.71	1369.88
324.939	1843.88
325.168	683.88
325.397	220.88
325.626	147.88
325.855	135.88
326.084	113.88
326.313	129.88
326.542	122.88
326.77	204.88
326.999	391.88
327.228	807.88
327.457	1439.88
327.686	1096.88
327.914	317.88
328.143	183.88
328.372	195.88
328.6	133.88
328.829	121.88
329.058	115.88
329.287	115.88
329.515	101.88
329.744	103.88
329.972	141.88
330.201	174.88
330.43	231.88
330.658	166.88
330.887	137.88
331.115	116.88
331.344	93.88
331.572	106.88
331.801	91.88
332.03	85.88
332.258	88.88
332.486	94.88
332.715	103.88
332.943	92.88
333.172	96.88
333.4	106.88
333.629	100.88
333.857	125.88
334.085	126.88
334.314	182.88
334.542	280.88
334.771	255.88
334.999	128.88
335.227	98.88
335.455	96.88
335.684	90.88
335.912	92.88
336.14	92.88
336.369	91.88
336.597	95.88
336.825	99.88
337.053	89.88
337.281	81.88
337.51	77.88
337.738	91.88
337.966	93.88
338.194	86.88
338.422	105.88
338.65	90.88
338.878	91.88
339.106	81.88
339.334	85.88
339.562	90.88
339.79	84.88
340.018	76.88
340.246	104.88
340.474	95.88
340.702	96.88
340.93	87.88
341.158	85.88
341.386	86.88
341.614	117.88
341.842	90.88
342.07	77.88
342.298	96.88
342.526	93.88
342.754	87.88
342.981	88.88
343.209	81.88
343.437	98.88
343.665	102.88
343.893	90.88
344.12	81.88
344.348	80.88
344.576	85.88
344.804	81.88
345.031	98.88
345.259	89.88
345.487	93.88
345.714	83.88
345.942	73.88
346.17	83.88
346.397	91.88
346.625	106.88
346.853	94.88
347.08	87.88
347.308	104.88
347.535	103.88
347.763	111.88
347.99	95.88
348.218	106.88
348.445	91.88
348.673	97.88
348.9	109.88
349.128	94.88
349.355	89.88
349.583	93.88
349.81	89.88
350.037	101.88
350.265	102.88
350.492	87.88
350.72	92.88
350.947	94.88
351.174	98.88
351.402	105.88
351.629	107.88
351.856	106.88
352.083	88.88
352.311	109.88
352.538	92.88
352.765	108.88
352.992	124.88
353.22	94.88
353.447	106.88
353.674	115.88
353.901	103.88
354.128	97.88
354.355	84.88
354.583	95.88
354.81	100.88
355.037	99.88
355.264	95.88
355.491	94.88
355.718	90.88
355.945	91.88
356.172	94.88
356.399	84.88
356.626	87.88
356.853	91.88
357.08	91.88
357.307	87.88
357.534	100.88
357.761	101.88
357.988	108.88
358.215	101.88
358.441	107.88
358.668	96.88
358.895	96.88
359.122	88.88
359.349	90.88
359.576	95.88
359.802	84.88
360.029	105.88
360.256	99.88
360.483	102.88
360.709	84.88
360.936	95.88
361.163	86.88
361.39	85.88
361.616	73.88
361.843	87.88
362.07	81.88
362.296	101.88
362.523	92.88
362.749	84.88
362.976	80.88
363.203	88.88
363.429	85.88
363.656	87.88
363.882	107.88
364.109	95.88
364.335	79.88
364.562	101.88
364.788	107.88
365.015	81.88
365.241	104.88
365.468	93.88
365.694	96.88
365.92	84.88
366.147	100.88
366.373	93.88
366.599	83.88
366.826	97.88
367.052	88.88
367.278	88.88
367.505	82.88
367.731	79.88
367.957	99.88
368.184	95.88
368.41	115.88
368.636	102.88
368.862	102.88
369.089	97.88
369.315	81.88
369.541	93.88
369.767	96.88
369.993	82.88
370.219	76.88
370.445	87.88
370.672	99.88
370.898	92.88
371.124	87.88
371.35	93.88
371.576	92.88
371.802	94.88
372.028	82.88
372.254	87.88
372.48	87.88
372.706	88.88
372.932	87.88
373.158	97.88
373.384	80.88
373.61	93.88
373.835	96.88
374.061	80.88
374.287	96.88
374.513	91.88
374.739	85.88
374.965	87.88
375.191	89.88
375.416	92.88
375.642	89.88
375.868	74.88
376.094	99.88
376.319	88.88
376.545	80.88
376.771	101.88
376.997	98.88
377.222	73.88
377.448	100.88
377.674	94.88
377.899	77.88
378.125	92.88
378.35	97.88
378.576	78.88
378.802	79.88
379.027	105.88
379.253	107.88
379.478	96.88
379.704	82.88
379.929	110.88
380.155	95.88
380.38	92.88
380.606	90.88
380.831	95.88
381.057	83.88
381.282	89.88
381.507	93.88
381.733	85.88
381.958	106.88
382.184	95.88
382.409	94.88
382.634	87.88
382.86	107.88
383.085	106.88
383.31	99.88
383.535	111.88
383.761	88.88
383.986	105.88
384.211	105.88
384.436	108.88
384.662	96.88
384.887	99.88
385.112	99.88
385.337	101.88
385.562	96.88
385.787	105.88
386.013	105.88
386.238	115.88
386.463	100.88
386.688	96.88
386.913	97.88
387.138	100.88
387.363	94.88
387.588	107.88
387.813	97.88
388.038	99.88
388.263	117.88
388.488	105.88
388.713	103.88
388.938	100.88
389.163	98.88
389.387	94.88
389.612	100.88
389.837	91.88
390.062	92.88
390.287	88.88
390.512	94.88
390.736	91.88
390.961	100.88
391.186	89.88
391.411	105.88
391.636	93.88
391.86	79.88
392.085	95.88
392.31	84.88
392.534	100.88
392.759	88.88
392.984	75.88
393.208	97.88
393.433	102.88
393.658	96.88
393.882	82.88
394.107	85.88
394.331	86.88
394.556	88.88
394.78	95.88
395.005	101.88
395.229	84.88
395.454	88.88
395.678	78.88
395.903	96.88
396.127	94.88
396.352	92.88
396.576	95.88
396.801	81.88
397.025	80.88
397.249	86.88
397.474	62.88
397.698	88.88
397.922	85.88
398.147	87.88
398.371	94.88
398.595	98.88
398.82	86.88
399.044	73.88
399.268	91.88
399.492	77.88
399.717	79.88
399.941	98.88
400.165	94.88
400.389	83.88
400.613	97.88
400.837	75.88
401.062	90.88
401.286	93.88
401.51	84.88
401.734	88.88
401.958	93.88
402.182	112.88
402.406	143.88
402.63	97.88
402.854	85.88
403.078	71.88
403.302	104.88
403.526	93.88
403.75	71.88
403.974	93.88
404.198	73.88
404.422	83.88
404.645	88.88
404.869	86.88
405.093	96.88
405.317	101.88
405.541	103.88
405.765	100.88
405.988	105.88
406.212	159.88
406.436	211.88
406.66	148.88
406.883	91.88
407.107	77.88
407.331	87.88
407.555	91.88
407.778	86.88
408.002	87.88
408.226	87.88
408.449	69.88
408.673	92.88
408.896	81.88
409.12	110.88
409.344	87.88
409.567	106.88
409.791	96.88
410.014	76.88
410.238	92.88
410.461	103.88
410.685	96.88
410.908	105.88
411.132	89.88
411.355	93.88
411.578	104.88
411.802	95.88
412.025	89.88
412.249	82.88
412.472	90.88
412.695	82.88
412.919	81.88
413.142	87.88
413.365	94.88
413.589	102.88
413.812	96.88
414.035	82.88
414.258	101.88
414.482	78.88
414.705	76.88
414.928	96.88
415.151	89.88
415.374	82.88
415.597	92.88
415.821	97.88
416.044	97.88
416.267	93.88
416.49	79.88
416.713	92.88
416.936	94.88
417.159	81.88
417.382	93.88
417.605	88.88
417.828	102.88
418.051	81.88
418.274	77.88
418.497	71.88
418.72	78.88
418.943	88.88
419.166	94.88
419.389	85.88
419.611	84.88
419.834	90.88
420.057	78.88
420.28	84.88
420.503	94.88
420.726	108.88
420.948	95.88
421.171	103.88
421.394	91.88
421.617	88.88
421.839	86.88
422.062	86.88
422.285	91.88
422.507	89.88
422.73	92.88
422.953	105.88
423.175	91.88
423.398	92.88
423.621	84.88
423.843	90.88
424.066	97.88
424.288	91.88
424.511	98.88
424.733	91.88
424.956	97.88
425.178	94.88
425.401	99.88
425.623	97.88
425.846	72.88
426.068	85.88
426.291	76.88
426.513	86.88
426.735	86.88
426.958	99.88
427.18	103.88
427.402	134.88
427.625	157.88
427.847	145.88
428.069	115.88
428.292	88.88
428.514	97.88
428.736	86.88
428.958	91.88
429.181	84.88
429.403	95.88
429.625	88.88
429.847	90.88
430.069	75.88
430.292	96.88
430.514	78.88
430.736	93.88
430.958	91.88
431.18	92.88
431.402	75.88
431.624	88.88
431.846	84.88
432.068	80.88
432.29	91.88
432.512	87.88
432.734	92.88
432.956	80.88
433.178	92.88
433.4	86.88
433.622	86.88
433.844	82.88
434.066	84.88
434.287	94.88
434.509	85.88
434.731	78.88
434.953	81.88
435.175	78.88
435.397	88.88
435.618	91.88
435.84	86.88
436.062	117.88
436.284	109.88
436.505	101.88
436.727	100.88
436.949	91.88
437.17	90.88
437.392	91.88
437.614	87.88
437.835	91.88
438.057	111.88
438.278	123.88
438.5	97.88
438.721	120.88
438.943	95.88
439.165	82.88
439.386	86.88
439.608	88.88
439.829	107.88
440.05	120.88
440.272	137.88
440.493	92.88
440.715	85.88
440.936	74.88
441.158	92.88
441.379	77.88
441.6	92.88
441.822	109.88
442.043	87.88
442.264	101.88
442.486	94.88
442.707	86.88
442.928	100.88
443.149	104.88
443.371	130.88
443.592	108.88
443.813	117.88
444.034	93.88
444.255	97.88
444.476	102.88
444.698	88.88
444.919	89.88
445.14	135.88
445.361	142.88
445.582	127.88
445.803	144.88
446.024	126.88
446.245	122.88
446.466	97.88
446.687	87.88
446.908	81.88
447.129	87.88
447.35	84.88
447.571	87.88
447.792	89.88
448.013	93.88
448.234	92.88
448.455	90.88
448.675	94.88
448.896	109.88
449.117	96.88
449.338	84.88
449.559	122.88
449.779	124.88
450	89.88
450.221	88.88
450.442	96.88
450.662	89.88
450.883	94.88
451.104	101.88
451.324	92.88
451.545	65.88
451.766	85.88
451.986	84.88
452.207	79.88
452.428	86.88
452.648	94.88
452.869	94.88
453.089	108.88
453.31	104.88
453.53	94.88
453.751	99.88
453.971	98.88
454.192	100.88
454.412	80.88
454.633	85.88
454.853	90.88
455.073	83.88
455.294	92.88
455.514	89.88
455.734	96.88
455.955	75.88
456.175	78.88
456.395	77.88
456.616	80.88
456.836	83.88
457.056	84.88
457.276	89.88
457.497	81.88
457.717	79.88
457.937	73.88
458.157	78.88
458.377	81.88
458.598	97.88
458.818	109.88
459.038	156.88
459.258	118.88
459.478	83.88
459.698	90.88
459.918	85.88
460.138	87.88
460.358	85.88
460.578	72.88
460.798	85.88
461.018	94.88
461.238	81.88
461.458	84.88
461.678	81.88
461.898	83.88
462.118	76.88
462.338	85.88
462.558	87.88
462.777	89.88
462.997	77.88
463.217	86.88
463.437	91.88
463.657	84.88
463.876	77.88
464.096	91.88
464.316	101.88
464.536	92.88
464.755	100.88
464.975	112.88
465.195	140.88
465.414	148.88
465.634	98.88
465.854	89.88
466.073	103.88
466.293	95.88
466.512	90.88
466.732	80.88
466.951	91.88
467.171	82.88
467.391	92.88
467.61	100.88
467.829	100.88
468.049	120.88
468.268	147.88
468.488	94.88
468.707	103.88
468.927	97.88
469.146	88.88
469.365	88.88
469.585	89.88
469.804	100.88
470.023	88.88
470.243	96.88
470.462	101.88
470.681	96.88
470.901	103.88
471.12	94.88
471.339	70.88
471.558	100.88
471.777	93.88
471.997	99.88
472.216	196.88
472.435	329.88
472.654	132.88
472.873	110.88
473.092	83.88
473.311	84.88
473.53	80.88
473.749	105.88
473.968	88.88
474.187	85.88
474.406	106.88
474.625	98.88
474.844	89.88
475.063	87.88
475.282	69.88
475.501	77.88
475.72	94.88
475.939	85.88
476.158	84.88
476.377	86.88
476.596	83.88
476.814	80.88
477.033	70.88
477.252	89.88
477.471	95.88
477.69	86.88
477.908	85.88
478.127	93.88
478.346	95.88
478.564	106.88
478.783	106.88
479.002	99.88
479.22	84.88
479.439	93.88
479.658	84.88
479.876	89.88
480.095	85.88
480.313	95.88
480.532	100.88
480.751	120.88
480.969	191.88
481.188	581.88
481.406	363.88
481.624	121.88
481.843	87.88
482.061	96.88
482.28	94.88
482.498	93.88
482.717	78.88
482.935	67.88
483.153	89.88
483.372	89.88
483.59	87.88
483.808	87.88
484.027	83.88
484.245	90.88
484.463	88.88
484.681	102.88
484.9	96.88
485.118	86.88
485.336	86.88
485.554	105.88
485.772	100.88
485.99	103.88
486.209	115.88
486.427	114.88
486.645	115.88
486.863	109.88
487.081	94.88
487.299	93.88
487.517	104.88
487.735	88.88
487.953	96.88
488.171	100.88
488.389	91.88
488.607	100.88
488.825	91.88
489.043	87.88
489.261	86.88
489.479	91.88
489.696	89.88
489.914	84.88
490.132	99.88
490.35	86.88
490.568	97.88
490.786	92.88
491.003	91.88
491.221	89.88
491.439	83.88
491.657	104.88
491.874	83.88
492.092	87.88
492.31	100.88
492.527	79.88
492.745	88.88
492.963	97.88
493.18	90.88
493.398	96.88
493.615	76.88
493.833	81.88
494.05	93.88
494.268	93.88
494.485	76.88
494.703	81.88
494.92	91.88
495.138	71.88
495.355	81.88
495.573	93.88
495.79	89.88
496.008	100.88
496.225	81.88
496.442	83.88
496.66	92.88
496.877	94.88
497.094	90.88
497.312	88.88
497.529	88.88
497.746	87.88
497.963	84.88
498.181	100.88
498.398	104.88
498.615	92.88
498.832	93.88
499.049	103.88
499.267	89.88
499.484	93.88
499.701	89.88
499.918	100.88
500.135	92.88
500.352	77.88
500.569	93.88
500.786	90.88
501.003	95.88
501.22	89.88
501.437	87.88
501.654	101.88
501.871	101.88
502.088	97.88
502.305	89.88
502.522	90.88
502.739	77.88
502.956	96.88
503.172	84.88
503.389	79.88
503.606	105.88
503.823	91.88
504.04	99.88
504.256	95.88
504.473	96.88
504.69	84.88
504.907	88.88
505.123	95.88
505.34	83.88
505.557	94.88
505.773	100.88
505.99	77.88
506.207	93.88
506.423	78.88
506.64	87.88
506.856	87.88
507.073	81.88
507.289	113.88
507.506	95.88
507.722	102.88
507.939	104.88
508.155	104.88
508.372	96.88
508.588	108.88
508.805	82.88
509.021	94.88
509.238	92.88
509.454	78.88
509.67	100.88
509.887	97.88
510.103	123.88
510.319	170.88
510.536	572.88
510.752	1845.88
510.968	569.88
511.184	147.88
511.401	91.88
511.617	94.88
511.833	99.88
512.049	95.88
512.265	91.88
512.481	81.88
512.698	87.88
512.914	87.88
513.13	97.88
513.346	98.88
513.562	101.88
513.778	89.88
513.994	104.88
514.21	110.88
514.426	105.88
514.642	117.88
514.858	118.88
515.074	145.88
515.29	341.88
515.506	1169.88
515.721	469.88
515.937	142.88
516.153	107.88
