Data from Circ_2010_H10_HRD10591_00100.txt Node
Date: Wed Jan 03 10:10:01 EST 2024
User: Yrep
Spectrometer: HR+D1059
Trigger mode: 1
Integration Time (sec): 1.000000E-1
Scans to average: 1
Electric dark correction enabled: true
Nonlinearity correction enabled: false
Boxcar width: 0
XAxis mode: Wavelengths
Number of Pixels in Spectrum: 2048
>>>>>Begin Spectral Data<<<<<
223.165	-15.25
223.4	-15.25
223.635	-15.25
223.869	-10.25
224.104	-24.25
224.338	-7.25
224.573	-13.25
224.808	-23.25
225.042	-8.25
225.277	-3.25
225.511	4.75
225.746	-0.25
225.98	10.75
226.215	-0.25
226.449	19.75
226.683	22.75
226.918	19.75
227.152	27.75
227.387	45.75
227.621	37.75
227.856	49.75
228.09	36.75
228.324	43.75
228.559	57.75
228.793	56.75
229.027	77.75
229.262	76.75
229.496	56.75
229.73	86.75
229.964	72.75
230.199	72.75
230.433	79.75
230.667	68.75
230.901	79.75
231.136	67.75
231.37	80.75
231.604	80.75
231.838	63.75
232.072	80.75
232.306	77.75
232.541	71.75
232.775	75.75
233.009	82.75
233.243	71.75
233.477	81.75
233.711	81.75
233.945	73.75
234.179	74.75
234.413	81.75
234.647	82.75
234.881	70.75
235.115	84.75
235.349	75.75
235.583	70.75
235.817	71.75
236.051	92.75
236.285	86.75
236.519	75.75
236.753	54.75
236.987	74.75
237.221	85.75
237.455	79.75
237.689	70.75
237.922	73.75
238.156	74.75
238.39	68.75
238.624	70.75
238.858	61.75
239.091	77.75
239.325	63.75
239.559	80.75
239.793	77.75
240.027	79.75
240.26	73.75
240.494	75.75
240.728	76.75
240.961	75.75
241.195	68.75
241.429	80.75
241.662	74.75
241.896	76.75
242.13	83.75
242.363	66.75
242.597	75.75
242.83	71.75
243.064	94.75
243.298	86.75
243.531	67.75
243.765	69.75
243.998	70.75
244.232	77.75
244.465	97.75
244.699	89.75
244.932	85.75
245.166	85.75
245.399	72.75
245.633	80.75
245.866	70.75
246.099	75.75
246.333	70.75
246.566	76.75
246.8	78.75
247.033	77.75
247.266	80.75
247.5	73.75
247.733	61.75
247.966	76.75
248.2	79.75
248.433	74.75
248.666	89.75
248.899	76.75
249.133	75.75
249.366	94.75
249.599	63.75
249.832	72.75
250.066	82.75
250.299	74.75
250.532	84.75
250.765	85.75
250.998	72.75
251.231	83.75
251.465	74.75
251.698	66.75
251.931	74.75
252.164	75.75
252.397	69.75
252.63	77.75
252.863	87.75
253.096	83.75
253.329	78.75
253.562	77.75
253.795	70.75
254.028	83.75
254.261	85.75
254.494	70.75
254.727	75.75
254.96	85.75
255.193	85.75
255.426	67.75
255.659	79.75
255.892	85.75
256.124	84.75
256.357	70.75
256.59	82.75
256.823	84.75
257.056	80.75
257.289	83.75
257.521	80.75
257.754	80.75
257.987	78.75
258.22	73.75
258.452	81.75
258.685	83.75
258.918	84.75
259.151	81.75
259.383	76.75
259.616	65.75
259.849	69.75
260.081	90.75
260.314	79.75
260.547	88.75
260.779	76.75
261.012	87.75
261.244	86.75
261.477	81.75
261.71	99.75
261.942	92.75
262.175	106.75
262.407	78.75
262.64	81.75
262.872	74.75
263.105	76.75
263.337	90.75
263.57	84.75
263.802	88.75
264.035	76.75
264.267	100.75
264.499	85.75
264.732	82.75
264.964	91.75
265.197	78.75
265.429	76.75
265.661	85.75
265.894	80.75
266.126	90.75
266.358	84.75
266.591	88.75
266.823	87.75
267.055	82.75
267.287	75.75
267.52	64.75
267.752	83.75
267.984	89.75
268.216	83.75
268.448	90.75
268.681	83.75
268.913	78.75
269.145	86.75
269.377	86.75
269.609	87.75
269.841	81.75
270.073	81.75
270.306	81.75
270.538	84.75
270.77	91.75
271.002	91.75
271.234	70.75
271.466	77.75
271.698	89.75
271.93	83.75
272.162	87.75
272.394	103.75
272.626	90.75
272.858	87.75
273.09	85.75
273.322	62.75
273.553	91.75
273.785	79.75
274.017	84.75
274.249	92.75
274.481	85.75
274.713	92.75
274.945	93.75
275.176	77.75
275.408	88.75
275.64	79.75
275.872	84.75
276.104	81.75
276.335	84.75
276.567	94.75
276.799	96.75
277.031	99.75
277.262	98.75
277.494	109.75
277.726	92.75
277.957	82.75
278.189	86.75
278.421	83.75
278.652	68.75
278.884	88.75
279.115	80.75
279.347	75.75
279.579	82.75
279.81	92.75
280.042	99.75
280.273	101.75
280.505	93.75
280.736	96.75
280.968	80.75
281.199	81.75
281.431	85.75
281.662	101.75
281.894	78.75
282.125	88.75
282.356	102.75
282.588	116.75
282.819	92.75
283.051	79.75
283.282	81.75
283.513	82.75
283.745	93.75
283.976	90.75
284.207	87.75
284.439	84.75
284.67	81.75
284.901	97.75
285.132	85.75
285.364	83.75
285.595	70.75
285.826	84.75
286.057	73.75
286.288	76.75
286.52	78.75
286.751	88.75
286.982	85.75
287.213	62.75
287.444	71.75
287.675	79.75
287.906	87.75
288.138	72.75
288.369	77.75
288.6	86.75
288.831	94.75
289.062	80.75
289.293	82.75
289.524	88.75
289.755	97.75
289.986	89.75
290.217	84.75
290.448	83.75
290.679	87.75
290.91	74.75
291.141	84.75
291.371	86.75
291.602	85.75
291.833	79.75
292.064	86.75
292.295	87.75
292.526	95.75
292.757	91.75
292.987	84.75
293.218	102.75
293.449	90.75
293.68	88.75
293.91	84.75
294.141	91.75
294.372	86.75
294.603	87.75
294.833	93.75
295.064	84.75
295.295	91.75
295.525	86.75
295.756	95.75
295.987	106.75
296.217	122.75
296.448	113.75
296.679	85.75
296.909	87.75
297.14	71.75
297.37	84.75
297.601	76.75
297.831	82.75
298.062	92.75
298.292	84.75
298.523	78.75
298.753	95.75
298.984	67.75
299.214	77.75
299.445	79.75
299.675	79.75
299.905	102.75
300.136	84.75
300.366	73.75
300.597	86.75
300.827	88.75
301.057	100.75
301.288	89.75
301.518	86.75
301.748	90.75
301.979	95.75
302.209	93.75
302.439	86.75
302.669	84.75
302.9	86.75
303.13	93.75
303.36	105.75
303.59	90.75
303.82	103.75
304.051	99.75
304.281	90.75
304.511	83.75
304.741	90.75
304.971	90.75
305.201	88.75
305.431	79.75
305.661	99.75
305.891	99.75
306.121	69.75
306.352	87.75
306.582	101.75
306.812	92.75
307.042	96.75
307.272	95.75
307.502	87.75
307.731	105.75
307.961	98.75
308.191	103.75
308.421	87.75
308.651	84.75
308.881	90.75
309.111	92.75
309.341	82.75
309.571	83.75
309.8	102.75
310.03	86.75
310.26	80.75
310.49	87.75
310.72	108.75
310.949	100.75
311.179	91.75
311.409	100.75
311.639	91.75
311.868	80.75
312.098	100.75
312.328	98.75
312.557	104.75
312.787	102.75
313.017	101.75
313.246	107.75
313.476	101.75
313.706	98.75
313.935	81.75
314.165	103.75
314.394	101.75
314.624	77.75
314.853	82.75
315.083	87.75
315.312	72.75
315.542	81.75
315.771	83.75
316.001	87.75
316.23	88.75
316.46	87.75
316.689	93.75
316.919	77.75
317.148	101.75
317.377	75.75
317.607	76.75
317.836	88.75
318.065	86.75
318.295	80.75
318.524	97.75
318.753	84.75
318.983	89.75
319.212	80.75
319.441	96.75
319.67	109.75
319.9	99.75
320.129	83.75
320.358	95.75
320.587	95.75
320.816	86.75
321.046	90.75
321.275	90.75
321.504	94.75
321.733	97.75
321.962	88.75
322.191	103.75
322.42	101.75
322.649	108.75
322.878	121.75
323.108	93.75
323.337	119.75
323.566	120.75
323.795	136.75
324.024	165.75
324.253	317.75
324.482	656.75
324.71	1362.75
324.939	1797.75
325.168	673.75
325.397	207.75
325.626	155.75
325.855	106.75
326.084	109.75
326.313	121.75
326.542	144.75
326.77	202.75
326.999	394.75
327.228	808.75
327.457	1398.75
327.686	1111.75
327.914	332.75
328.143	210.75
328.372	206.75
328.6	130.75
328.829	108.75
329.058	119.75
329.287	104.75
329.515	104.75
329.744	119.75
329.972	157.75
330.201	261.75
330.43	300.75
330.658	176.75
330.887	139.75
331.115	100.75
331.344	91.75
331.572	98.75
331.801	86.75
332.03	109.75
332.258	87.75
332.486	89.75
332.715	103.75
332.943	91.75
333.172	91.75
333.4	101.75
333.629	96.75
333.857	122.75
334.085	148.75
334.314	245.75
334.542	395.75
334.771	353.75
334.999	148.75
335.227	108.75
335.455	104.75
335.684	88.75
335.912	105.75
336.14	96.75
336.369	88.75
336.597	102.75
336.825	94.75
337.053	80.75
337.281	94.75
337.51	90.75
337.738	94.75
337.966	80.75
338.194	91.75
338.422	88.75
338.65	87.75
338.878	90.75
339.106	91.75
339.334	88.75
339.562	85.75
339.79	87.75
340.018	93.75
340.246	99.75
340.474	88.75
340.702	86.75
340.93	94.75
341.158	89.75
341.386	103.75
341.614	104.75
341.842	110.75
342.07	98.75
342.298	93.75
342.526	92.75
342.754	85.75
342.981	98.75
343.209	95.75
343.437	98.75
343.665	80.75
343.893	93.75
344.12	101.75
344.348	91.75
344.576	86.75
344.804	90.75
345.031	84.75
345.259	99.75
345.487	102.75
345.714	110.75
345.942	92.75
346.17	97.75
346.397	92.75
346.625	91.75
346.853	72.75
347.08	80.75
347.308	109.75
347.535	83.75
347.763	94.75
347.99	100.75
348.218	88.75
348.445	105.75
348.673	90.75
348.9	83.75
349.128	95.75
349.355	85.75
349.583	98.75
349.81	100.75
350.037	85.75
350.265	91.75
350.492	80.75
350.72	92.75
350.947	87.75
351.174	100.75
351.402	110.75
351.629	81.75
351.856	95.75
352.083	109.75
352.311	100.75
352.538	100.75
352.765	108.75
352.992	121.75
353.22	94.75
353.447	105.75
353.674	96.75
353.901	84.75
354.128	84.75
354.355	82.75
354.583	99.75
354.81	94.75
355.037	93.75
355.264	95.75
355.491	90.75
355.718	95.75
355.945	82.75
356.172	103.75
356.399	99.75
356.626	90.75
356.853	92.75
357.08	104.75
357.307	98.75
357.534	103.75
357.761	114.75
357.988	95.75
358.215	103.75
358.441	94.75
358.668	85.75
358.895	91.75
359.122	102.75
359.349	103.75
359.576	99.75
359.802	99.75
360.029	109.75
360.256	104.75
360.483	89.75
360.709	80.75
360.936	93.75
361.163	92.75
361.39	90.75
361.616	90.75
361.843	90.75
362.07	86.75
362.296	68.75
362.523	90.75
362.749	82.75
362.976	98.75
363.203	91.75
363.429	85.75
363.656	85.75
363.882	78.75
364.109	84.75
364.335	87.75
364.562	88.75
364.788	91.75
365.015	94.75
365.241	91.75
365.468	81.75
365.694	89.75
365.92	97.75
366.147	73.75
366.373	104.75
366.599	83.75
366.826	94.75
367.052	76.75
367.278	84.75
367.505	100.75
367.731	101.75
367.957	101.75
368.184	80.75
368.41	98.75
368.636	101.75
368.862	117.75
369.089	95.75
369.315	93.75
369.541	90.75
369.767	74.75
369.993	94.75
370.219	93.75
370.445	91.75
370.672	79.75
370.898	72.75
371.124	106.75
371.35	98.75
371.576	84.75
371.802	72.75
372.028	85.75
372.254	102.75
372.48	99.75
372.706	94.75
372.932	95.75
373.158	78.75
373.384	84.75
373.61	87.75
373.835	99.75
374.061	83.75
374.287	92.75
374.513	99.75
374.739	92.75
374.965	75.75
375.191	85.75
375.416	90.75
375.642	80.75
375.868	91.75
376.094	92.75
376.319	90.75
376.545	91.75
376.771	99.75
376.997	94.75
377.222	83.75
377.448	89.75
377.674	90.75
377.899	102.75
378.125	79.75
378.35	91.75
378.576	95.75
378.802	98.75
379.027	106.75
379.253	100.75
379.478	77.75
379.704	84.75
379.929	102.75
380.155	99.75
380.38	84.75
380.606	94.75
380.831	101.75
381.057	82.75
381.282	96.75
381.507	89.75
381.733	76.75
381.958	108.75
382.184	107.75
382.409	94.75
382.634	104.75
382.86	92.75
383.085	95.75
383.31	88.75
383.535	108.75
383.761	96.75
383.986	95.75
384.211	92.75
384.436	103.75
384.662	86.75
384.887	96.75
385.112	106.75
385.337	97.75
385.562	95.75
385.787	79.75
386.013	104.75
386.238	98.75
386.463	97.75
386.688	112.75
386.913	94.75
387.138	104.75
387.363	89.75
387.588	96.75
387.813	88.75
388.038	102.75
388.263	103.75
388.488	108.75
388.713	99.75
388.938	93.75
389.163	89.75
389.387	87.75
389.612	103.75
389.837	84.75
390.062	95.75
390.287	93.75
390.512	100.75
390.736	92.75
390.961	98.75
391.186	97.75
391.411	85.75
391.636	97.75
391.86	84.75
392.085	95.75
392.31	86.75
392.534	79.75
392.759	93.75
392.984	86.75
393.208	88.75
393.433	88.75
393.658	79.75
393.882	85.75
394.107	97.75
394.331	90.75
394.556	88.75
394.78	94.75
395.005	73.75
395.229	76.75
395.454	78.75
395.678	74.75
395.903	74.75
396.127	86.75
396.352	89.75
396.576	91.75
396.801	73.75
397.025	73.75
397.249	96.75
397.474	98.75
397.698	95.75
397.922	95.75
398.147	82.75
398.371	84.75
398.595	92.75
398.82	76.75
399.044	84.75
399.268	96.75
399.492	80.75
399.717	89.75
399.941	94.75
400.165	98.75
400.389	87.75
400.613	80.75
400.837	95.75
401.062	90.75
401.286	103.75
401.51	94.75
401.734	81.75
401.958	89.75
402.182	105.75
402.406	127.75
402.63	109.75
402.854	95.75
403.078	92.75
403.302	94.75
403.526	78.75
403.75	86.75
403.974	105.75
404.198	81.75
404.422	83.75
404.645	82.75
404.869	93.75
405.093	89.75
405.317	119.75
405.541	99.75
405.765	97.75
405.988	101.75
406.212	146.75
406.436	180.75
406.66	132.75
406.883	110.75
407.107	102.75
407.331	82.75
407.555	104.75
407.778	93.75
408.002	86.75
408.226	82.75
408.449	89.75
408.673	116.75
408.896	92.75
409.12	102.75
409.344	94.75
409.567	90.75
409.791	85.75
410.014	98.75
410.238	92.75
410.461	84.75
410.685	70.75
410.908	100.75
411.132	96.75
411.355	94.75
411.578	93.75
411.802	94.75
412.025	100.75
412.249	101.75
412.472	90.75
412.695	95.75
412.919	107.75
413.142	85.75
413.365	90.75
413.589	100.75
413.812	88.75
414.035	93.75
414.258	78.75
414.482	78.75
414.705	87.75
414.928	103.75
415.151	81.75
415.374	101.75
415.597	87.75
415.821	93.75
416.044	90.75
416.267	93.75
416.49	82.75
416.713	82.75
416.936	83.75
417.159	90.75
417.382	88.75
417.605	104.75
417.828	90.75
418.051	99.75
418.274	71.75
418.497	89.75
418.72	87.75
418.943	96.75
419.166	91.75
419.389	85.75
419.611	82.75
419.834	81.75
420.057	91.75
420.28	87.75
420.503	83.75
420.726	91.75
420.948	77.75
421.171	87.75
421.394	100.75
421.617	100.75
421.839	84.75
422.062	85.75
422.285	96.75
422.507	92.75
422.73	109.75
422.953	87.75
423.175	89.75
423.398	104.75
423.621	90.75
423.843	79.75
424.066	85.75
424.288	111.75
424.511	102.75
424.733	100.75
424.956	101.75
425.178	93.75
425.401	99.75
425.623	100.75
425.846	83.75
426.068	102.75
426.291	103.75
426.513	94.75
426.735	93.75
426.958	96.75
427.18	90.75
427.402	125.75
427.625	154.75
427.847	142.75
428.069	138.75
428.292	92.75
428.514	88.75
428.736	94.75
428.958	102.75
429.181	102.75
429.403	82.75
429.625	73.75
429.847	90.75
430.069	110.75
430.292	100.75
430.514	85.75
430.736	75.75
430.958	92.75
431.18	81.75
431.402	88.75
431.624	95.75
431.846	79.75
432.068	79.75
432.29	85.75
432.512	93.75
432.734	92.75
432.956	105.75
433.178	93.75
433.4	94.75
433.622	86.75
433.844	93.75
434.066	88.75
434.287	94.75
434.509	97.75
434.731	89.75
434.953	90.75
435.175	87.75
435.397	90.75
435.618	96.75
435.84	93.75
436.062	109.75
436.284	113.75
436.505	108.75
436.727	107.75
436.949	89.75
437.17	80.75
437.392	76.75
437.614	91.75
437.835	101.75
438.057	95.75
438.278	98.75
438.5	106.75
438.721	112.75
438.943	88.75
439.165	91.75
439.386	76.75
439.608	80.75
439.829	103.75
440.05	109.75
440.272	126.75
440.493	100.75
440.715	98.75
440.936	89.75
441.158	78.75
441.379	83.75
441.6	91.75
441.822	99.75
442.043	90.75
442.264	99.75
442.486	94.75
442.707	72.75
442.928	101.75
443.149	119.75
443.371	118.75
443.592	97.75
443.813	107.75
444.034	95.75
444.255	104.75
444.476	90.75
444.698	89.75
444.919	78.75
445.14	133.75
445.361	118.75
445.582	104.75
445.803	147.75
446.024	137.75
446.245	129.75
446.466	118.75
446.687	95.75
446.908	86.75
447.129	92.75
447.35	76.75
447.571	80.75
447.792	87.75
448.013	89.75
448.234	101.75
448.455	98.75
448.675	119.75
448.896	99.75
449.117	90.75
449.338	107.75
449.559	121.75
449.779	131.75
450	92.75
450.221	85.75
450.442	98.75
450.662	86.75
450.883	92.75
451.104	97.75
451.324	97.75
451.545	82.75
451.766	82.75
451.986	90.75
452.207	83.75
452.428	94.75
452.648	95.75
452.869	99.75
453.089	108.75
453.31	95.75
453.53	82.75
453.751	87.75
453.971	89.75
454.192	84.75
454.412	84.75
454.633	74.75
454.853	80.75
455.073	96.75
455.294	82.75
455.514	93.75
455.734	105.75
455.955	82.75
456.175	84.75
456.395	74.75
456.616	85.75
456.836	88.75
457.056	100.75
457.276	79.75
457.497	95.75
457.717	84.75
457.937	95.75
458.157	88.75
458.377	78.75
458.598	91.75
458.818	127.75
459.038	131.75
459.258	98.75
459.478	79.75
459.698	87.75
459.918	95.75
460.138	103.75
460.358	78.75
460.578	78.75
460.798	80.75
461.018	87.75
461.238	86.75
461.458	94.75
461.678	83.75
461.898	101.75
462.118	90.75
462.338	83.75
462.558	78.75
462.777	72.75
462.997	108.75
463.217	82.75
463.437	75.75
463.657	89.75
463.876	85.75
464.096	88.75
464.316	96.75
464.536	100.75
464.755	94.75
464.975	100.75
465.195	138.75
465.414	143.75
465.634	93.75
465.854	79.75
466.073	70.75
466.293	90.75
466.512	91.75
466.732	85.75
466.951	91.75
467.171	89.75
467.391	92.75
467.61	87.75
467.829	118.75
468.049	168.75
468.268	201.75
468.488	116.75
468.707	70.75
468.927	82.75
469.146	87.75
469.365	93.75
469.585	80.75
469.804	92.75
470.023	105.75
470.243	86.75
470.462	98.75
470.681	100.75
470.901	81.75
471.12	76.75
471.339	87.75
471.558	90.75
471.777	94.75
471.997	125.75
472.216	277.75
472.435	507.75
472.654	178.75
472.873	110.75
473.092	85.75
473.311	100.75
473.53	92.75
473.749	92.75
473.968	94.75
474.187	104.75
474.406	90.75
474.625	94.75
474.844	72.75
475.063	77.75
475.282	72.75
475.501	91.75
475.72	86.75
475.939	79.75
476.158	76.75
476.377	87.75
476.596	77.75
476.814	87.75
477.033	88.75
477.252	80.75
477.471	104.75
477.69	85.75
477.908	92.75
478.127	85.75
478.346	88.75
478.564	87.75
478.783	92.75
479.002	88.75
479.22	102.75
479.439	89.75
479.658	92.75
479.876	95.75
480.095	102.75
480.313	100.75
480.532	103.75
480.751	120.75
480.969	264.75
481.188	848.75
481.406	543.75
481.624	156.75
481.843	101.75
482.061	77.75
482.28	88.75
482.498	92.75
482.717	83.75
482.935	102.75
483.153	88.75
483.372	84.75
483.59	94.75
483.808	93.75
484.027	85.75
484.245	80.75
484.463	89.75
484.681	76.75
484.9	99.75
485.118	84.75
485.336	95.75
485.554	88.75
485.772	86.75
485.99	92.75
486.209	101.75
486.427	93.75
486.645	109.75
486.863	118.75
487.081	96.75
487.299	98.75
487.517	97.75
487.735	89.75
487.953	89.75
488.171	84.75
488.389	101.75
488.607	96.75
488.825	90.75
489.043	90.75
489.261	84.75
489.479	91.75
489.696	89.75
489.914	76.75
490.132	89.75
490.35	87.75
490.568	84.75
490.786	89.75
491.003	91.75
491.221	80.75
491.439	103.75
491.657	88.75
491.874	93.75
492.092	105.75
492.31	96.75
492.527	96.75
492.745	91.75
492.963	95.75
493.18	91.75
493.398	85.75
493.615	91.75
493.833	99.75
494.05	91.75
494.268	87.75
494.485	87.75
494.703	96.75
494.92	96.75
495.138	92.75
495.355	72.75
495.573	86.75
495.79	86.75
496.008	96.75
496.225	100.75
496.442	91.75
496.66	83.75
496.877	85.75
497.094	96.75
497.312	77.75
497.529	90.75
497.746	92.75
497.963	98.75
498.181	100.75
498.398	98.75
498.615	115.75
498.832	91.75
499.049	79.75
499.267	86.75
499.484	80.75
499.701	84.75
499.918	79.75
500.135	86.75
500.352	86.75
500.569	89.75
500.786	86.75
501.003	76.75
501.22	91.75
501.437	87.75
501.654	92.75
501.871	93.75
502.088	84.75
502.305	96.75
502.522	87.75
502.739	82.75
502.956	92.75
503.172	80.75
503.389	83.75
503.606	103.75
503.823	86.75
504.04	100.75
504.256	98.75
504.473	102.75
504.69	95.75
504.907	93.75
505.123	92.75
505.34	79.75
505.557	98.75
505.773	94.75
505.99	94.75
506.207	90.75
506.423	98.75
506.64	92.75
506.856	74.75
507.073	102.75
507.289	92.75
507.506	95.75
507.722	109.75
507.939	112.75
508.155	96.75
508.372	87.75
508.588	95.75
508.805	78.75
509.021	91.75
509.238	88.75
509.454	90.75
509.67	86.75
509.887	101.75
510.103	106.75
510.319	160.75
510.536	511.75
510.752	1621.75
510.968	491.75
511.184	127.75
511.401	88.75
511.617	92.75
511.833	94.75
512.049	88.75
512.265	88.75
512.481	86.75
512.698	91.75
512.914	99.75
513.13	100.75
513.346	86.75
513.562	91.75
513.778	99.75
513.994	82.75
514.21	100.75
514.426	96.75
514.642	128.75
514.858	114.75
515.074	118.75
515.29	319.75
515.506	983.75
515.721	413.75
515.937	150.75
516.153	101.75
