Data from Circ_2010_H10_HRD10591_00079.txt Node
Date: Wed Jan 03 10:09:57 EST 2024
User: Yrep
Spectrometer: HR+D1059
Trigger mode: 1
Integration Time (sec): 1.000000E-1
Scans to average: 1
Electric dark correction enabled: true
Nonlinearity correction enabled: false
Boxcar width: 0
XAxis mode: Wavelengths
Number of Pixels in Spectrum: 2048
>>>>>Begin Spectral Data<<<<<
223.165	-13.19
223.4	-13.19
223.635	-13.19
223.869	-20.19
224.104	-23.19
224.338	-9.19
224.573	-5.19
224.808	-18.19
225.042	-4.19
225.277	-10.19
225.511	-2.19
225.746	2.81
225.98	-6.19
226.215	-3.19
226.449	10.81
226.683	25.81
226.918	37.81
227.152	37.81
227.387	30.81
227.621	38.81
227.856	44.81
228.09	61.81
228.324	42.81
228.559	46.81
228.793	51.81
229.027	64.81
229.262	65.81
229.496	70.81
229.73	78.81
229.964	75.81
230.199	59.81
230.433	78.81
230.667	82.81
230.901	70.81
231.136	88.81
231.37	78.81
231.604	89.81
231.838	80.81
232.072	76.81
232.306	75.81
232.541	69.81
232.775	78.81
233.009	80.81
233.243	77.81
233.477	65.81
233.711	72.81
233.945	56.81
234.179	86.81
234.413	76.81
234.647	81.81
234.881	68.81
235.115	64.81
235.349	92.81
235.583	78.81
235.817	76.81
236.051	74.81
236.285	73.81
236.519	76.81
236.753	62.81
236.987	75.81
237.221	82.81
237.455	73.81
237.689	83.81
237.922	75.81
238.156	72.81
238.39	72.81
238.624	71.81
238.858	85.81
239.091	70.81
239.325	76.81
239.559	85.81
239.793	74.81
240.027	78.81
240.26	89.81
240.494	77.81
240.728	64.81
240.961	82.81
241.195	64.81
241.429	63.81
241.662	71.81
241.896	85.81
242.13	77.81
242.363	88.81
242.597	73.81
242.83	53.81
243.064	70.81
243.298	68.81
243.531	77.81
243.765	71.81
243.998	85.81
244.232	71.81
244.465	75.81
244.699	92.81
244.932	76.81
245.166	83.81
245.399	71.81
245.633	74.81
245.866	73.81
246.099	85.81
246.333	70.81
246.566	77.81
246.8	81.81
247.033	72.81
247.266	73.81
247.5	66.81
247.733	85.81
247.966	85.81
248.2	89.81
248.433	85.81
248.666	75.81
248.899	69.81
249.133	70.81
249.366	80.81
249.599	80.81
249.832	78.81
250.066	66.81
250.299	62.81
250.532	70.81
250.765	75.81
250.998	87.81
251.231	86.81
251.465	80.81
251.698	85.81
251.931	76.81
252.164	81.81
252.397	80.81
252.63	83.81
252.863	83.81
253.096	82.81
253.329	85.81
253.562	82.81
253.795	91.81
254.028	77.81
254.261	87.81
254.494	83.81
254.727	85.81
254.96	84.81
255.193	74.81
255.426	89.81
255.659	74.81
255.892	81.81
256.124	82.81
256.357	77.81
256.59	86.81
256.823	85.81
257.056	76.81
257.289	66.81
257.521	75.81
257.754	77.81
257.987	77.81
258.22	76.81
258.452	81.81
258.685	86.81
258.918	67.81
259.151	88.81
259.383	84.81
259.616	78.81
259.849	84.81
260.081	76.81
260.314	78.81
260.547	88.81
260.779	84.81
261.012	89.81
261.244	96.81
261.477	113.81
261.71	103.81
261.942	93.81
262.175	101.81
262.407	76.81
262.64	82.81
262.872	72.81
263.105	84.81
263.337	66.81
263.57	83.81
263.802	90.81
264.035	85.81
264.267	72.81
264.499	71.81
264.732	79.81
264.964	73.81
265.197	88.81
265.429	86.81
265.661	66.81
265.894	76.81
266.126	73.81
266.358	78.81
266.591	71.81
266.823	75.81
267.055	87.81
267.287	81.81
267.52	80.81
267.752	78.81
267.984	93.81
268.216	85.81
268.448	87.81
268.681	78.81
268.913	86.81
269.145	87.81
269.377	80.81
269.609	69.81
269.841	79.81
270.073	73.81
270.306	73.81
270.538	92.81
270.77	84.81
271.002	98.81
271.234	75.81
271.466	82.81
271.698	72.81
271.93	78.81
272.162	89.81
272.394	84.81
272.626	85.81
272.858	72.81
273.09	89.81
273.322	84.81
273.553	81.81
273.785	89.81
274.017	103.81
274.249	74.81
274.481	78.81
274.713	86.81
274.945	90.81
275.176	86.81
275.408	86.81
275.64	82.81
275.872	85.81
276.104	83.81
276.335	86.81
276.567	97.81
276.799	91.81
277.031	98.81
277.262	94.81
277.494	95.81
277.726	81.81
277.957	76.81
278.189	70.81
278.421	100.81
278.652	79.81
278.884	81.81
279.115	81.81
279.347	82.81
279.579	96.81
279.81	93.81
280.042	99.81
280.273	104.81
280.505	116.81
280.736	96.81
280.968	85.81
281.199	87.81
281.431	86.81
281.662	91.81
281.894	91.81
282.125	94.81
282.356	107.81
282.588	115.81
282.819	110.81
283.051	87.81
283.282	79.81
283.513	87.81
283.745	81.81
283.976	91.81
284.207	88.81
284.439	95.81
284.67	96.81
284.901	73.81
285.132	80.81
285.364	88.81
285.595	77.81
285.826	86.81
286.057	80.81
286.288	81.81
286.52	74.81
286.751	88.81
286.982	85.81
287.213	80.81
287.444	98.81
287.675	87.81
287.906	90.81
288.138	78.81
288.369	92.81
288.6	89.81
288.831	83.81
289.062	96.81
289.293	84.81
289.524	94.81
289.755	92.81
289.986	71.81
290.217	86.81
290.448	87.81
290.679	83.81
290.91	80.81
291.141	80.81
291.371	81.81
291.602	82.81
291.833	89.81
292.064	73.81
292.295	85.81
292.526	88.81
292.757	69.81
292.987	82.81
293.218	88.81
293.449	85.81
293.68	90.81
293.91	85.81
294.141	97.81
294.372	68.81
294.603	87.81
294.833	84.81
295.064	93.81
295.295	80.81
295.525	94.81
295.756	109.81
295.987	105.81
296.217	110.81
296.448	97.81
296.679	95.81
296.909	84.81
297.14	91.81
297.37	93.81
297.601	77.81
297.831	88.81
298.062	97.81
298.292	85.81
298.523	87.81
298.753	75.81
298.984	85.81
299.214	90.81
299.445	97.81
299.675	77.81
299.905	83.81
300.136	85.81
300.366	94.81
300.597	80.81
300.827	86.81
301.057	87.81
301.288	86.81
301.518	84.81
301.748	89.81
301.979	117.81
302.209	95.81
302.439	84.81
302.669	88.81
302.9	82.81
303.13	92.81
303.36	90.81
303.59	89.81
303.82	106.81
304.051	82.81
304.281	91.81
304.511	86.81
304.741	76.81
304.971	76.81
305.201	94.81
305.431	98.81
305.661	92.81
305.891	80.81
306.121	83.81
306.352	101.81
306.582	84.81
306.812	84.81
307.042	81.81
307.272	106.81
307.502	96.81
307.731	88.81
307.961	103.81
308.191	81.81
308.421	92.81
308.651	92.81
308.881	92.81
309.111	93.81
309.341	80.81
309.571	90.81
309.8	92.81
310.03	81.81
310.26	76.81
310.49	82.81
310.72	99.81
310.949	88.81
311.179	68.81
311.409	82.81
311.639	80.81
311.868	88.81
312.098	108.81
312.328	94.81
312.557	99.81
312.787	91.81
313.017	76.81
313.246	90.81
313.476	85.81
313.706	77.81
313.935	98.81
314.165	92.81
314.394	105.81
314.624	74.81
314.853	86.81
315.083	89.81
315.312	88.81
315.542	95.81
315.771	89.81
316.001	96.81
316.23	76.81
316.46	97.81
316.689	101.81
316.919	88.81
317.148	91.81
317.377	86.81
317.607	80.81
317.836	102.81
318.065	75.81
318.295	91.81
318.524	99.81
318.753	83.81
318.983	76.81
319.212	95.81
319.441	84.81
319.67	87.81
319.9	74.81
320.129	71.81
320.358	83.81
320.587	98.81
320.816	94.81
321.046	100.81
321.275	102.81
321.504	93.81
321.733	77.81
321.962	89.81
322.191	91.81
322.42	82.81
322.649	83.81
322.878	93.81
323.108	104.81
323.337	118.81
323.566	116.81
323.795	134.81
324.024	174.81
324.253	341.81
324.482	660.81
324.71	1362.81
324.939	1777.81
325.168	673.81
325.397	205.81
325.626	125.81
325.855	96.81
326.084	119.81
326.313	114.81
326.542	143.81
326.77	213.81
326.999	385.81
327.228	772.81
327.457	1402.81
327.686	1138.81
327.914	317.81
328.143	194.81
328.372	194.81
328.6	150.81
328.829	118.81
329.058	117.81
329.287	131.81
329.515	104.81
329.744	122.81
329.972	147.81
330.201	238.81
330.43	298.81
330.658	175.81
330.887	132.81
331.115	109.81
331.344	92.81
331.572	94.81
331.801	101.81
332.03	79.81
332.258	101.81
332.486	88.81
332.715	82.81
332.943	96.81
333.172	78.81
333.4	95.81
333.629	86.81
333.857	126.81
334.085	149.81
334.314	221.81
334.542	362.81
334.771	345.81
334.999	137.81
335.227	92.81
335.455	104.81
335.684	109.81
335.912	77.81
336.14	92.81
336.369	110.81
336.597	93.81
336.825	86.81
337.053	88.81
337.281	89.81
337.51	88.81
337.738	91.81
337.966	95.81
338.194	97.81
338.422	95.81
338.65	79.81
338.878	91.81
339.106	77.81
339.334	70.81
339.562	88.81
339.79	83.81
340.018	88.81
340.246	89.81
340.474	89.81
340.702	80.81
340.93	93.81
341.158	84.81
341.386	88.81
341.614	91.81
341.842	81.81
342.07	97.81
342.298	88.81
342.526	88.81
342.754	88.81
342.981	77.81
343.209	96.81
343.437	99.81
343.665	78.81
343.893	84.81
344.12	89.81
344.348	82.81
344.576	95.81
344.804	88.81
345.031	90.81
345.259	92.81
345.487	91.81
345.714	99.81
345.942	86.81
346.17	105.81
346.397	89.81
346.625	101.81
346.853	100.81
347.08	92.81
347.308	108.81
347.535	97.81
347.763	92.81
347.99	85.81
348.218	88.81
348.445	81.81
348.673	100.81
348.9	91.81
349.128	107.81
349.355	104.81
349.583	91.81
349.81	73.81
350.037	93.81
350.265	102.81
350.492	81.81
350.72	94.81
350.947	109.81
351.174	115.81
351.402	114.81
351.629	89.81
351.856	93.81
352.083	100.81
352.311	99.81
352.538	105.81
352.765	97.81
352.992	105.81
353.22	100.81
353.447	93.81
353.674	109.81
353.901	91.81
354.128	95.81
354.355	78.81
354.583	84.81
354.81	105.81
355.037	90.81
355.264	88.81
355.491	101.81
355.718	99.81
355.945	86.81
356.172	82.81
356.399	90.81
356.626	97.81
356.853	95.81
357.08	90.81
357.307	92.81
357.534	87.81
357.761	98.81
357.988	89.81
358.215	91.81
358.441	82.81
358.668	81.81
358.895	91.81
359.122	75.81
359.349	90.81
359.576	78.81
359.802	96.81
360.029	116.81
360.256	112.81
360.483	94.81
360.709	97.81
360.936	84.81
361.163	87.81
361.39	89.81
361.616	77.81
361.843	89.81
362.07	93.81
362.296	106.81
362.523	88.81
362.749	85.81
362.976	91.81
363.203	86.81
363.429	93.81
363.656	101.81
363.882	72.81
364.109	85.81
364.335	78.81
364.562	84.81
364.788	92.81
365.015	84.81
365.241	93.81
365.468	105.81
365.694	72.81
365.92	103.81
366.147	96.81
366.373	70.81
366.599	68.81
366.826	94.81
367.052	73.81
367.278	94.81
367.505	87.81
367.731	97.81
367.957	83.81
368.184	89.81
368.41	92.81
368.636	108.81
368.862	93.81
369.089	104.81
369.315	83.81
369.541	98.81
369.767	93.81
369.993	86.81
370.219	95.81
370.445	90.81
370.672	85.81
370.898	76.81
371.124	83.81
371.35	75.81
371.576	71.81
371.802	87.81
372.028	95.81
372.254	100.81
372.48	88.81
372.706	84.81
372.932	86.81
373.158	89.81
373.384	85.81
373.61	84.81
373.835	86.81
374.061	74.81
374.287	86.81
374.513	86.81
374.739	95.81
374.965	99.81
375.191	87.81
375.416	101.81
375.642	86.81
375.868	93.81
376.094	80.81
376.319	89.81
376.545	82.81
376.771	77.81
376.997	85.81
377.222	72.81
377.448	84.81
377.674	90.81
377.899	91.81
378.125	88.81
378.35	82.81
378.576	77.81
378.802	93.81
379.027	93.81
379.253	96.81
379.478	89.81
379.704	97.81
379.929	83.81
380.155	86.81
380.38	82.81
380.606	111.81
380.831	90.81
381.057	96.81
381.282	83.81
381.507	84.81
381.733	87.81
381.958	94.81
382.184	94.81
382.409	101.81
382.634	105.81
382.86	84.81
383.085	89.81
383.31	98.81
383.535	84.81
383.761	80.81
383.986	96.81
384.211	104.81
384.436	99.81
384.662	106.81
384.887	102.81
385.112	92.81
385.337	98.81
385.562	91.81
385.787	97.81
386.013	109.81
386.238	104.81
386.463	105.81
386.688	114.81
386.913	87.81
387.138	85.81
387.363	100.81
387.588	77.81
387.813	94.81
388.038	98.81
388.263	106.81
388.488	103.81
388.713	91.81
388.938	89.81
389.163	86.81
389.387	109.81
389.612	85.81
389.837	91.81
390.062	90.81
390.287	100.81
390.512	101.81
390.736	96.81
390.961	87.81
391.186	80.81
391.411	78.81
391.636	90.81
391.86	88.81
392.085	90.81
392.31	81.81
392.534	74.81
392.759	73.81
392.984	87.81
393.208	83.81
393.433	89.81
393.658	82.81
393.882	75.81
394.107	81.81
394.331	98.81
394.556	90.81
394.78	83.81
395.005	89.81
395.229	88.81
395.454	85.81
395.678	92.81
395.903	84.81
396.127	77.81
396.352	85.81
396.576	76.81
396.801	82.81
397.025	74.81
397.249	76.81
397.474	82.81
397.698	79.81
397.922	81.81
398.147	80.81
398.371	84.81
398.595	90.81
398.82	71.81
399.044	86.81
399.268	99.81
399.492	83.81
399.717	81.81
399.941	85.81
400.165	76.81
400.389	77.81
400.613	76.81
400.837	77.81
401.062	79.81
401.286	69.81
401.51	82.81
401.734	89.81
401.958	85.81
402.182	93.81
402.406	115.81
402.63	110.81
402.854	91.81
403.078	98.81
403.302	77.81
403.526	77.81
403.75	85.81
403.974	78.81
404.198	86.81
404.422	98.81
404.645	76.81
404.869	80.81
405.093	98.81
405.317	98.81
405.541	96.81
405.765	64.81
405.988	101.81
406.212	132.81
406.436	187.81
406.66	123.81
406.883	94.81
407.107	100.81
407.331	90.81
407.555	81.81
407.778	83.81
408.002	84.81
408.226	88.81
408.449	92.81
408.673	83.81
408.896	89.81
409.12	95.81
409.344	84.81
409.567	83.81
409.791	90.81
410.014	83.81
410.238	91.81
410.461	89.81
410.685	103.81
410.908	85.81
411.132	90.81
411.355	88.81
411.578	97.81
411.802	91.81
412.025	82.81
412.249	85.81
412.472	97.81
412.695	101.81
412.919	100.81
413.142	88.81
413.365	86.81
413.589	93.81
413.812	101.81
414.035	68.81
414.258	72.81
414.482	81.81
414.705	88.81
414.928	77.81
415.151	79.81
415.374	95.81
415.597	86.81
415.821	87.81
416.044	86.81
416.267	83.81
416.49	89.81
416.713	89.81
416.936	83.81
417.159	85.81
417.382	83.81
417.605	83.81
417.828	96.81
418.051	88.81
418.274	80.81
418.497	76.81
418.72	80.81
418.943	65.81
419.166	98.81
419.389	80.81
419.611	81.81
419.834	88.81
420.057	86.81
420.28	82.81
420.503	79.81
420.726	85.81
420.948	89.81
421.171	80.81
421.394	80.81
421.617	83.81
421.839	75.81
422.062	89.81
422.285	97.81
422.507	90.81
422.73	96.81
422.953	83.81
423.175	86.81
423.398	84.81
423.621	70.81
423.843	84.81
424.066	82.81
424.288	76.81
424.511	94.81
424.733	105.81
424.956	94.81
425.178	100.81
425.401	86.81
425.623	82.81
425.846	81.81
426.068	77.81
426.291	102.81
426.513	97.81
426.735	93.81
426.958	84.81
427.18	116.81
427.402	113.81
427.625	160.81
427.847	141.81
428.069	123.81
428.292	92.81
428.514	89.81
428.736	90.81
428.958	93.81
429.181	76.81
429.403	83.81
429.625	90.81
429.847	102.81
430.069	91.81
430.292	88.81
430.514	78.81
430.736	87.81
430.958	92.81
431.18	91.81
431.402	84.81
431.624	81.81
431.846	79.81
432.068	84.81
432.29	85.81
432.512	82.81
432.734	78.81
432.956	104.81
433.178	90.81
433.4	84.81
433.622	79.81
433.844	85.81
434.066	83.81
434.287	89.81
434.509	85.81
434.731	83.81
434.953	74.81
435.175	88.81
435.397	90.81
435.618	81.81
435.84	98.81
436.062	114.81
436.284	118.81
436.505	93.81
436.727	93.81
436.949	83.81
437.17	85.81
437.392	78.81
437.614	87.81
437.835	92.81
438.057	101.81
438.278	90.81
438.5	85.81
438.721	116.81
438.943	107.81
439.165	80.81
439.386	80.81
439.608	78.81
439.829	96.81
440.05	91.81
440.272	117.81
440.493	92.81
440.715	80.81
440.936	77.81
441.158	76.81
441.379	90.81
441.6	89.81
441.822	89.81
442.043	94.81
442.264	95.81
442.486	101.81
442.707	79.81
442.928	102.81
443.149	110.81
443.371	104.81
443.592	111.81
443.813	100.81
444.034	89.81
444.255	86.81
444.476	92.81
444.698	86.81
444.919	92.81
445.14	139.81
445.361	122.81
445.582	100.81
445.803	107.81
446.024	125.81
446.245	125.81
446.466	106.81
446.687	88.81
446.908	90.81
447.129	85.81
447.35	74.81
447.571	77.81
447.792	98.81
448.013	96.81
448.234	86.81
448.455	103.81
448.675	95.81
448.896	105.81
449.117	88.81
449.338	97.81
449.559	112.81
449.779	128.81
450	95.81
450.221	84.81
450.442	76.81
450.662	95.81
450.883	97.81
451.104	112.81
451.324	83.81
451.545	81.81
451.766	80.81
451.986	68.81
452.207	74.81
452.428	91.81
452.648	88.81
452.869	109.81
453.089	107.81
453.31	103.81
453.53	68.81
453.751	91.81
453.971	99.81
454.192	98.81
454.412	81.81
454.633	81.81
454.853	80.81
455.073	83.81
455.294	91.81
455.514	85.81
455.734	87.81
455.955	65.81
456.175	86.81
456.395	90.81
456.616	86.81
456.836	81.81
457.056	87.81
457.276	90.81
457.497	89.81
457.717	85.81
457.937	84.81
458.157	77.81
458.377	90.81
458.598	104.81
458.818	133.81
459.038	122.81
459.258	96.81
459.478	71.81
459.698	82.81
459.918	88.81
460.138	78.81
460.358	81.81
460.578	91.81
460.798	82.81
461.018	71.81
461.238	89.81
461.458	77.81
461.678	70.81
461.898	97.81
462.118	72.81
462.338	88.81
462.558	90.81
462.777	66.81
462.997	82.81
463.217	78.81
463.437	89.81
463.657	95.81
463.876	99.81
464.096	81.81
464.316	89.81
464.536	92.81
464.755	75.81
464.975	99.81
465.195	137.81
465.414	132.81
465.634	99.81
465.854	80.81
466.073	87.81
466.293	82.81
466.512	88.81
466.732	95.81
466.951	79.81
467.171	80.81
467.391	84.81
467.61	100.81
467.829	89.81
468.049	156.81
468.268	207.81
468.488	92.81
468.707	92.81
468.927	78.81
469.146	83.81
469.365	94.81
469.585	89.81
469.804	94.81
470.023	97.81
470.243	80.81
470.462	96.81
470.681	97.81
470.901	92.81
471.12	85.81
471.339	84.81
471.558	84.81
471.777	86.81
471.997	123.81
472.216	244.81
472.435	474.81
472.654	171.81
472.873	94.81
473.092	74.81
473.311	72.81
473.53	84.81
473.749	93.81
473.968	88.81
474.187	107.81
474.406	96.81
474.625	88.81
474.844	83.81
475.063	84.81
475.282	83.81
475.501	77.81
475.72	77.81
475.939	84.81
476.158	100.81
476.377	89.81
476.596	69.81
476.814	96.81
477.033	94.81
477.252	85.81
477.471	75.81
477.69	93.81
477.908	78.81
478.127	94.81
478.346	86.81
478.564	80.81
478.783	83.81
479.002	82.81
479.22	84.81
479.439	99.81
479.658	103.81
479.876	100.81
480.095	84.81
480.313	88.81
480.532	77.81
480.751	120.81
480.969	252.81
481.188	772.81
481.406	518.81
481.624	134.81
481.843	96.81
482.061	85.81
482.28	68.81
482.498	80.81
482.717	80.81
482.935	75.81
483.153	77.81
483.372	89.81
483.59	85.81
483.808	87.81
484.027	88.81
484.245	93.81
484.463	78.81
484.681	80.81
484.9	83.81
485.118	102.81
485.336	91.81
485.554	90.81
485.772	84.81
485.99	78.81
486.209	100.81
486.427	97.81
486.645	99.81
486.863	113.81
487.081	85.81
487.299	101.81
487.517	85.81
487.735	81.81
487.953	106.81
488.171	90.81
488.389	81.81
488.607	79.81
488.825	86.81
489.043	89.81
489.261	97.81
489.479	84.81
489.696	83.81
489.914	80.81
490.132	82.81
490.35	84.81
490.568	78.81
490.786	79.81
491.003	78.81
491.221	81.81
491.439	88.81
491.657	86.81
491.874	79.81
492.092	90.81
492.31	84.81
492.527	97.81
492.745	85.81
492.963	79.81
493.18	83.81
493.398	85.81
493.615	105.81
493.833	90.81
494.05	82.81
494.268	89.81
494.485	88.81
494.703	95.81
494.92	77.81
495.138	92.81
495.355	86.81
495.573	94.81
495.79	72.81
496.008	77.81
496.225	78.81
496.442	96.81
496.66	92.81
496.877	82.81
497.094	85.81
497.312	82.81
497.529	87.81
497.746	88.81
497.963	87.81
498.181	89.81
498.398	97.81
498.615	96.81
498.832	99.81
499.049	87.81
499.267	62.81
499.484	77.81
499.701	89.81
499.918	83.81
500.135	86.81
500.352	82.81
500.569	84.81
500.786	85.81
501.003	74.81
501.22	90.81
501.437	80.81
501.654	92.81
501.871	101.81
502.088	89.81
502.305	84.81
502.522	76.81
502.739	92.81
502.956	84.81
503.172	89.81
503.389	95.81
503.606	91.81
503.823	78.81
504.04	93.81
504.256	77.81
504.473	90.81
504.69	82.81
504.907	86.81
505.123	90.81
505.34	85.81
505.557	84.81
505.773	99.81
505.99	82.81
506.207	88.81
506.423	99.81
506.64	85.81
506.856	95.81
507.073	78.81
507.289	73.81
507.506	85.81
507.722	114.81
507.939	109.81
508.155	99.81
508.372	95.81
508.588	94.81
508.805	87.81
509.021	97.81
509.238	80.81
509.454	91.81
509.67	102.81
509.887	98.81
510.103	112.81
510.319	172.81
510.536	530.81
510.752	1587.81
510.968	492.81
511.184	127.81
511.401	83.81
511.617	83.81
511.833	98.81
512.049	90.81
512.265	87.81
512.481	96.81
512.698	82.81
512.914	77.81
513.13	90.81
513.346	82.81
513.562	92.81
513.778	101.81
513.994	88.81
514.21	97.81
514.426	95.81
514.642	106.81
514.858	106.81
515.074	141.81
515.29	316.81
515.506	1001.81
515.721	417.81
515.937	137.81
516.153	102.81
516.369	93.81
516.585	80.81
516.801	77.81
517.016	89.81
517.232	86.81
