Data from Circ_2010_H10_HRD10591_00001.txt Node
Date: Wed Jan 03 10:09:41 EST 2024
User: Yrep
Spectrometer: HR+D1059
Trigger mode: 1
Integration Time (sec): 1.000000E-1
Scans to average: 1
Electric dark correction enabled: true
Nonlinearity correction enabled: false
Boxcar width: 0
XAxis mode: Wavelengths
Number of Pixels in Spectrum: 2048
>>>>>Begin Spectral Data<<<<<
223.165	-12.44
223.4	-12.44
223.635	-12.44
223.869	-16.44
224.104	-21.44
224.338	-15.44
224.573	-10.44
224.808	-18.44
225.042	-3.44
225.277	-12.44
225.511	3.56
225.746	4.56
225.98	-6.44
226.215	24.56
226.449	0.56
226.683	29.56
226.918	25.56
227.152	28.56
227.387	33.56
227.621	43.56
227.856	46.56
228.09	45.56
228.324	56.56
228.559	49.56
228.793	53.56
229.027	63.56
229.262	84.56
229.496	67.56
229.73	64.56
229.964	65.56
230.199	81.56
230.433	61.56
230.667	77.56
230.901	77.56
231.136	89.56
231.37	82.56
231.604	77.56
231.838	62.56
232.072	78.56
232.306	75.56
232.541	88.56
232.775	92.56
233.009	77.56
233.243	74.56
233.477	76.56
233.711	85.56
233.945	78.56
234.179	79.56
234.413	89.56
234.647	69.56
234.881	77.56
235.115	75.56
235.349	91.56
235.583	74.56
235.817	89.56
236.051	81.56
236.285	87.56
236.519	90.56
236.753	96.56
236.987	81.56
237.221	85.56
237.455	73.56
237.689	67.56
237.922	63.56
238.156	86.56
238.39	84.56
238.624	71.56
238.858	83.56
239.091	75.56
239.325	81.56
239.559	76.56
239.793	70.56
240.027	69.56
240.26	72.56
240.494	70.56
240.728	78.56
240.961	75.56
241.195	70.56
241.429	75.56
241.662	83.56
241.896	78.56
242.13	82.56
242.363	82.56
242.597	80.56
242.83	80.56
243.064	87.56
243.298	71.56
243.531	80.56
243.765	75.56
243.998	83.56
244.232	74.56
244.465	80.56
244.699	84.56
244.932	58.56
245.166	85.56
245.399	64.56
245.633	85.56
245.866	65.56
246.099	77.56
246.333	79.56
246.566	87.56
246.8	84.56
247.033	85.56
247.266	82.56
247.5	85.56
247.733	82.56
247.966	80.56
248.2	80.56
248.433	84.56
248.666	71.56
248.899	76.56
249.133	82.56
249.366	91.56
249.599	89.56
249.832	85.56
250.066	82.56
250.299	72.56
250.532	76.56
250.765	75.56
250.998	70.56
251.231	91.56
251.465	87.56
251.698	77.56
251.931	87.56
252.164	97.56
252.397	90.56
252.63	74.56
252.863	71.56
253.096	81.56
253.329	63.56
253.562	68.56
253.795	95.56
254.028	91.56
254.261	87.56
254.494	60.56
254.727	85.56
254.96	79.56
255.193	77.56
255.426	68.56
255.659	75.56
255.892	95.56
256.124	79.56
256.357	87.56
256.59	79.56
256.823	80.56
257.056	78.56
257.289	85.56
257.521	74.56
257.754	83.56
257.987	80.56
258.22	89.56
258.452	87.56
258.685	83.56
258.918	85.56
259.151	65.56
259.383	77.56
259.616	79.56
259.849	82.56
260.081	78.56
260.314	90.56
260.547	89.56
260.779	94.56
261.012	78.56
261.244	75.56
261.477	76.56
261.71	94.56
261.942	94.56
262.175	104.56
262.407	86.56
262.64	92.56
262.872	78.56
263.105	74.56
263.337	79.56
263.57	79.56
263.802	67.56
264.035	81.56
264.267	75.56
264.499	88.56
264.732	81.56
264.964	89.56
265.197	76.56
265.429	80.56
265.661	80.56
265.894	81.56
266.126	85.56
266.358	75.56
266.591	81.56
266.823	90.56
267.055	94.56
267.287	102.56
267.52	84.56
267.752	74.56
267.984	83.56
268.216	79.56
268.448	78.56
268.681	85.56
268.913	79.56
269.145	74.56
269.377	88.56
269.609	88.56
269.841	105.56
270.073	88.56
270.306	101.56
270.538	82.56
270.77	75.56
271.002	86.56
271.234	89.56
271.466	95.56
271.698	81.56
271.93	91.56
272.162	84.56
272.394	93.56
272.626	75.56
272.858	90.56
273.09	85.56
273.322	86.56
273.553	80.56
273.785	70.56
274.017	84.56
274.249	88.56
274.481	93.56
274.713	78.56
274.945	80.56
275.176	80.56
275.408	88.56
275.64	79.56
275.872	80.56
276.104	89.56
276.335	88.56
276.567	93.56
276.799	100.56
277.031	98.56
277.262	91.56
277.494	91.56
277.726	75.56
277.957	91.56
278.189	84.56
278.421	90.56
278.652	100.56
278.884	83.56
279.115	85.56
279.347	89.56
279.579	85.56
279.81	92.56
280.042	100.56
280.273	94.56
280.505	89.56
280.736	91.56
280.968	85.56
281.199	82.56
281.431	79.56
281.662	92.56
281.894	88.56
282.125	98.56
282.356	106.56
282.588	133.56
282.819	103.56
283.051	82.56
283.282	79.56
283.513	99.56
283.745	84.56
283.976	80.56
284.207	91.56
284.439	89.56
284.67	89.56
284.901	83.56
285.132	90.56
285.364	76.56
285.595	81.56
285.826	80.56
286.057	94.56
286.288	90.56
286.52	92.56
286.751	91.56
286.982	97.56
287.213	77.56
287.444	96.56
287.675	81.56
287.906	87.56
288.138	87.56
288.369	94.56
288.6	93.56
288.831	89.56
289.062	91.56
289.293	97.56
289.524	94.56
289.755	93.56
289.986	81.56
290.217	88.56
290.448	88.56
290.679	93.56
290.91	86.56
291.141	85.56
291.371	77.56
291.602	86.56
291.833	92.56
292.064	89.56
292.295	93.56
292.526	84.56
292.757	84.56
292.987	91.56
293.218	81.56
293.449	98.56
293.68	92.56
293.91	83.56
294.141	96.56
294.372	102.56
294.603	87.56
294.833	88.56
295.064	94.56
295.295	84.56
295.525	107.56
295.756	90.56
295.987	108.56
296.217	145.56
296.448	128.56
296.679	100.56
296.909	86.56
297.14	89.56
297.37	76.56
297.601	85.56
297.831	88.56
298.062	86.56
298.292	80.56
298.523	75.56
298.753	71.56
298.984	78.56
299.214	95.56
299.445	86.56
299.675	107.56
299.905	85.56
300.136	101.56
300.366	81.56
300.597	89.56
300.827	100.56
301.057	101.56
301.288	92.56
301.518	97.56
301.748	92.56
301.979	103.56
302.209	97.56
302.439	97.56
302.669	81.56
302.9	91.56
303.13	91.56
303.36	88.56
303.59	103.56
303.82	94.56
304.051	92.56
304.281	85.56
304.511	92.56
304.741	89.56
304.971	78.56
305.201	87.56
305.431	87.56
305.661	91.56
305.891	80.56
306.121	91.56
306.352	99.56
306.582	89.56
306.812	85.56
307.042	80.56
307.272	99.56
307.502	85.56
307.731	96.56
307.961	107.56
308.191	103.56
308.421	100.56
308.651	87.56
308.881	92.56
309.111	97.56
309.341	90.56
309.571	91.56
309.8	113.56
310.03	89.56
310.26	103.56
310.49	96.56
310.72	107.56
310.949	84.56
311.179	105.56
311.409	93.56
311.639	108.56
311.868	93.56
312.098	89.56
312.328	96.56
312.557	84.56
312.787	96.56
313.017	94.56
313.246	96.56
313.476	102.56
313.706	96.56
313.935	105.56
314.165	85.56
314.394	99.56
314.624	81.56
314.853	106.56
315.083	91.56
315.312	95.56
315.542	81.56
315.771	102.56
316.001	72.56
316.23	86.56
316.46	74.56
316.689	96.56
316.919	88.56
317.148	95.56
317.377	88.56
317.607	104.56
317.836	100.56
318.065	89.56
318.295	92.56
318.524	90.56
318.753	96.56
318.983	86.56
319.212	102.56
319.441	99.56
319.67	104.56
319.9	100.56
320.129	86.56
320.358	84.56
320.587	101.56
320.816	91.56
321.046	100.56
321.275	112.56
321.504	101.56
321.733	100.56
321.962	118.56
322.191	106.56
322.42	87.56
322.649	101.56
322.878	102.56
323.108	110.56
323.337	116.56
323.566	127.56
323.795	135.56
324.024	187.56
324.253	346.56
324.482	707.56
324.71	1441.56
324.939	1857.56
325.168	698.56
325.397	223.56
325.626	158.56
325.855	108.56
326.084	126.56
326.313	124.56
326.542	150.56
326.77	216.56
326.999	411.56
327.228	834.56
327.457	1468.56
327.686	1125.56
327.914	333.56
328.143	168.56
328.372	156.56
328.6	124.56
328.829	104.56
329.058	113.56
329.287	134.56
329.515	112.56
329.744	109.56
329.972	107.56
330.201	128.56
330.43	145.56
330.658	143.56
330.887	140.56
331.115	100.56
331.344	90.56
331.572	101.56
331.801	97.56
332.03	94.56
332.258	99.56
332.486	85.56
332.715	97.56
332.943	101.56
333.172	82.56
333.4	93.56
333.629	100.56
333.857	115.56
334.085	115.56
334.314	107.56
334.542	157.56
334.771	161.56
334.999	105.56
335.227	91.56
335.455	96.56
335.684	103.56
335.912	91.56
336.14	108.56
336.369	79.56
336.597	95.56
336.825	94.56
337.053	90.56
337.281	93.56
337.51	102.56
337.738	88.56
337.966	99.56
338.194	96.56
338.422	82.56
338.65	85.56
338.878	84.56
339.106	95.56
339.334	96.56
339.562	93.56
339.79	88.56
340.018	88.56
340.246	96.56
340.474	88.56
340.702	97.56
340.93	84.56
341.158	88.56
341.386	86.56
341.614	94.56
341.842	107.56
342.07	89.56
342.298	93.56
342.526	88.56
342.754	92.56
342.981	95.56
343.209	86.56
343.437	89.56
343.665	96.56
343.893	90.56
344.12	94.56
344.348	86.56
344.576	95.56
344.804	96.56
345.031	91.56
345.259	93.56
345.487	103.56
345.714	95.56
345.942	96.56
346.17	82.56
346.397	99.56
346.625	105.56
346.853	110.56
347.08	102.56
347.308	92.56
347.535	94.56
347.763	107.56
347.99	88.56
348.218	99.56
348.445	121.56
348.673	116.56
348.9	91.56
349.128	104.56
349.355	100.56
349.583	93.56
349.81	92.56
350.037	97.56
350.265	100.56
350.492	93.56
350.72	92.56
350.947	95.56
351.174	94.56
351.402	106.56
351.629	106.56
351.856	93.56
352.083	96.56
352.311	97.56
352.538	115.56
352.765	102.56
352.992	109.56
353.22	111.56
353.447	104.56
353.674	106.56
353.901	88.56
354.128	109.56
354.355	99.56
354.583	94.56
354.81	96.56
355.037	97.56
355.264	88.56
355.491	107.56
355.718	97.56
355.945	94.56
356.172	99.56
356.399	96.56
356.626	103.56
356.853	119.56
357.08	103.56
357.307	102.56
357.534	85.56
357.761	104.56
357.988	96.56
358.215	84.56
358.441	101.56
358.668	89.56
358.895	105.56
359.122	102.56
359.349	86.56
359.576	100.56
359.802	99.56
360.029	107.56
360.256	108.56
360.483	109.56
360.709	92.56
360.936	89.56
361.163	101.56
361.39	106.56
361.616	89.56
361.843	91.56
362.07	94.56
362.296	95.56
362.523	98.56
362.749	93.56
362.976	81.56
363.203	90.56
363.429	93.56
363.656	96.56
363.882	91.56
364.109	92.56
364.335	79.56
364.562	84.56
364.788	100.56
365.015	98.56
365.241	96.56
365.468	106.56
365.694	110.56
365.92	92.56
366.147	89.56
366.373	78.56
366.599	86.56
366.826	93.56
367.052	88.56
367.278	94.56
367.505	99.56
367.731	91.56
367.957	90.56
368.184	96.56
368.41	96.56
368.636	115.56
368.862	115.56
369.089	88.56
369.315	90.56
369.541	104.56
369.767	86.56
369.993	91.56
370.219	90.56
370.445	87.56
370.672	88.56
370.898	95.56
371.124	85.56
371.35	81.56
371.576	92.56
371.802	71.56
372.028	75.56
372.254	86.56
372.48	94.56
372.706	91.56
372.932	91.56
373.158	81.56
373.384	93.56
373.61	89.56
373.835	91.56
374.061	87.56
374.287	116.56
374.513	87.56
374.739	95.56
374.965	108.56
375.191	100.56
375.416	91.56
375.642	76.56
375.868	94.56
376.094	91.56
376.319	94.56
376.545	87.56
376.771	96.56
376.997	100.56
377.222	86.56
377.448	88.56
377.674	88.56
377.899	77.56
378.125	76.56
378.35	90.56
378.576	83.56
378.802	80.56
379.027	81.56
379.253	94.56
379.478	94.56
379.704	99.56
379.929	107.56
380.155	91.56
380.38	91.56
380.606	105.56
380.831	94.56
381.057	94.56
381.282	88.56
381.507	101.56
381.733	106.56
381.958	97.56
382.184	96.56
382.409	96.56
382.634	101.56
382.86	85.56
383.085	86.56
383.31	102.56
383.535	88.56
383.761	103.56
383.986	100.56
384.211	96.56
384.436	107.56
384.662	107.56
384.887	116.56
385.112	101.56
385.337	119.56
385.562	116.56
385.787	114.56
386.013	108.56
386.238	117.56
386.463	115.56
386.688	102.56
386.913	104.56
387.138	94.56
387.363	98.56
387.588	100.56
387.813	100.56
388.038	102.56
388.263	122.56
388.488	106.56
388.713	96.56
388.938	99.56
389.163	91.56
389.387	87.56
389.612	105.56
389.837	86.56
390.062	75.56
390.287	90.56
390.512	91.56
390.736	87.56
390.961	93.56
391.186	94.56
391.411	100.56
391.636	93.56
391.86	80.56
392.085	93.56
392.31	76.56
392.534	80.56
392.759	87.56
392.984	91.56
393.208	110.56
393.433	138.56
393.658	120.56
393.882	90.56
394.107	81.56
394.331	78.56
394.556	85.56
394.78	90.56
395.005	104.56
395.229	98.56
395.454	85.56
395.678	80.56
395.903	98.56
396.127	86.56
396.352	84.56
396.576	93.56
396.801	86.56
397.025	101.56
397.249	104.56
397.474	86.56
397.698	95.56
397.922	103.56
398.147	95.56
398.371	90.56
398.595	81.56
398.82	91.56
399.044	89.56
399.268	82.56
399.492	76.56
399.717	95.56
399.941	87.56
400.165	96.56
400.389	88.56
400.613	79.56
400.837	86.56
401.062	90.56
401.286	99.56
401.51	100.56
401.734	82.56
401.958	97.56
402.182	119.56
402.406	149.56
402.63	100.56
402.854	85.56
403.078	77.56
403.302	87.56
403.526	101.56
403.75	95.56
403.974	89.56
404.198	75.56
404.422	81.56
404.645	86.56
404.869	92.56
405.093	105.56
405.317	90.56
405.541	91.56
405.765	102.56
405.988	130.56
406.212	155.56
406.436	198.56
406.66	138.56
406.883	97.56
407.107	86.56
407.331	89.56
407.555	107.56
407.778	100.56
408.002	93.56
408.226	91.56
408.449	96.56
408.673	91.56
408.896	92.56
409.12	89.56
409.344	83.56
409.567	91.56
409.791	92.56
410.014	101.56
410.238	81.56
410.461	103.56
410.685	88.56
410.908	93.56
411.132	98.56
411.355	100.56
411.578	87.56
411.802	87.56
412.025	96.56
412.249	91.56
412.472	91.56
412.695	93.56
412.919	106.56
413.142	85.56
413.365	77.56
413.589	106.56
413.812	84.56
414.035	86.56
414.258	83.56
414.482	87.56
414.705	86.56
414.928	76.56
415.151	105.56
415.374	94.56
415.597	73.56
415.821	87.56
416.044	71.56
416.267	81.56
416.49	83.56
416.713	101.56
416.936	90.56
417.159	84.56
417.382	79.56
417.605	80.56
417.828	81.56
418.051	87.56
418.274	78.56
418.497	96.56
418.72	88.56
418.943	102.56
419.166	88.56
419.389	92.56
419.611	84.56
419.834	75.56
420.057	80.56
420.28	82.56
420.503	83.56
420.726	81.56
420.948	92.56
421.171	87.56
421.394	83.56
421.617	83.56
421.839	79.56
422.062	84.56
422.285	93.56
422.507	109.56
422.73	120.56
422.953	104.56
423.175	86.56
423.398	72.56
423.621	91.56
423.843	87.56
424.066	89.56
424.288	91.56
424.511	88.56
424.733	89.56
424.956	88.56
425.178	93.56
425.401	92.56
425.623	95.56
425.846	91.56
426.068	92.56
426.291	96.56
426.513	88.56
426.735	91.56
426.958	87.56
427.18	94.56
427.402	118.56
427.625	157.56
427.847	130.56
428.069	120.56
428.292	99.56
428.514	93.56
428.736	93.56
428.958	86.56
429.181	82.56
429.403	88.56
429.625	97.56
429.847	84.56
430.069	94.56
430.292	93.56
430.514	81.56
430.736	78.56
430.958	84.56
431.18	80.56
431.402	97.56
431.624	84.56
431.846	91.56
432.068	98.56
432.29	89.56
432.512	88.56
432.734	85.56
432.956	84.56
433.178	105.56
433.4	92.56
433.622	86.56
433.844	97.56
434.066	87.56
434.287	92.56
434.509	79.56
434.731	87.56
434.953	101.56
435.175	86.56
435.397	77.56
435.618	86.56
435.84	96.56
436.062	118.56
436.284	92.56
436.505	91.56
436.727	92.56
436.949	94.56
437.17	82.56
437.392	86.56
437.614	71.56
437.835	106.56
438.057	109.56
438.278	112.56
438.5	93.56
438.721	104.56
438.943	95.56
439.165	89.56
439.386	82.56
439.608	100.56
439.829	93.56
440.05	110.56
440.272	142.56
440.493	91.56
440.715	81.56
440.936	91.56
441.158	75.56
441.379	88.56
441.6	81.56
441.822	88.56
442.043	89.56
442.264	101.56
442.486	89.56
442.707	85.56
442.928	109.56
443.149	123.56
443.371	134.56
443.592	102.56
443.813	121.56
444.034	82.56
444.255	82.56
444.476	83.56
444.698	93.56
444.919	87.56
445.14	123.56
445.361	118.56
445.582	104.56
445.803	111.56
446.024	129.56
446.245	118.56
446.466	116.56
446.687	91.56
446.908	86.56
447.129	104.56
447.35	96.56
447.571	98.56
447.792	106.56
448.013	99.56
448.234	105.56
448.455	93.56
448.675	113.56
448.896	118.56
449.117	103.56
449.338	91.56
449.559	123.56
449.779	121.56
450	95.56
450.221	73.56
450.442	91.56
450.662	78.56
450.883	101.56
451.104	106.56
451.324	85.56
451.545	83.56
451.766	81.56
451.986	93.56
452.207	97.56
452.428	101.56
452.648	101.56
452.869	103.56
453.089	93.56
453.31	127.56
453.53	94.56
453.751	71.56
453.971	90.56
454.192	108.56
454.412	92.56
454.633	91.56
454.853	96.56
455.073	84.56
455.294	83.56
455.514	88.56
455.734	75.56
455.955	82.56
456.175	89.56
456.395	73.56
456.616	80.56
456.836	71.56
457.056	84.56
457.276	91.56
457.497	75.56
457.717	83.56
457.937	69.56
458.157	72.56
458.377	87.56
458.598	108.56
458.818	131.56
459.038	139.56
459.258	106.56
459.478	79.56
459.698	85.56
459.918	88.56
460.138	76.56
460.358	87.56
460.578	67.56
460.798	94.56
461.018	90.56
461.238	82.56
461.458	99.56
461.678	89.56
461.898	93.56
462.118	89.56
462.338	86.56
462.558	74.56
462.777	102.56
462.997	80.56
463.217	93.56
463.437	87.56
463.657	87.56
463.876	91.56
464.096	99.56
464.316	85.56
464.536	88.56
464.755	96.56
464.975	102.56
465.195	149.56
465.414	140.56
465.634	95.56
465.854	100.56
466.073	84.56
466.293	80.56
466.512	93.56
466.732	90.56
466.951	90.56
467.171	93.56
467.391	87.56
467.61	107.56
467.829	100.56
468.049	112.56
468.268	103.56
468.488	90.56
468.707	94.56
468.927	82.56
469.146	76.56
469.365	78.56
469.585	83.56
469.804	83.56
470.023	96.56
470.243	73.56
470.462	102.56
470.681	103.56
470.901	91.56
471.12	84.56
471.339	80.56
471.558	95.56
471.777	108.56
471.997	94.56
472.216	130.56
472.435	183.56
472.654	105.56
472.873	94.56
473.092	88.56
473.311	77.56
473.53	88.56
473.749	90.56
473.968	84.56
474.187	100.56
474.406	81.56
474.625	101.56
474.844	97.56
475.063	81.56
475.282	80.56
475.501	89.56
475.72	85.56
475.939	86.56
476.158	77.56
476.377	85.56
476.596	84.56
476.814	90.56
477.033	91.56
477.252	94.56
477.471	98.56
477.69	83.56
477.908	93.56
478.127	76.56
478.346	96.56
478.564	72.56
478.783	93.56
479.002	104.56
479.22	98.56
479.439	91.56
479.658	83.56
479.876	76.56
480.095	88.56
480.313	101.56
480.532	77.56
480.751	87.56
480.969	125.56
481.188	265.56
481.406	189.56
481.624	102.56
481.843	78.56
482.061	80.56
482.28	87.56
482.498	93.56
482.717	90.56
482.935	84.56
483.153	96.56
483.372	96.56
483.59	90.56
483.808	94.56
484.027	86.56
484.245	108.56
484.463	80.56
484.681	104.56
484.9	103.56
485.118	94.56
485.336	92.56
485.554	91.56
485.772	96.56
485.99	108.56
486.209	84.56
486.427	108.56
486.645	107.56
486.863	101.56
487.081	93.56
487.299	91.56
487.517	101.56
487.735	103.56
487.953	88.56
488.171	97.56
488.389	102.56
488.607	94.56
488.825	82.56
489.043	93.56
489.261	88.56
489.479	88.56
489.696	94.56
489.914	84.56
490.132	76.56
490.35	86.56
490.568	85.56
490.786	93.56
491.003	82.56
491.221	86.56
491.439	108.56
491.657	101.56
491.874	96.56
492.092	78.56
492.31	91.56
492.527	93.56
492.745	79.56
492.963	94.56
493.18	95.56
493.398	88.56
493.615	92.56
493.833	92.56
494.05	93.56
494.268	93.56
494.485	108.56
494.703	92.56
494.92	88.56
495.138	94.56
495.355	96.56
495.573	88.56
495.79	84.56
496.008	91.56
496.225	86.56
496.442	80.56
496.66	96.56
496.877	86.56
497.094	89.56
497.312	86.56
497.529	82.56
497.746	92.56
497.963	87.56
498.181	96.56
498.398	90.56
498.615	111.56
498.832	107.56
499.049	95.56
499.267	107.56
499.484	86.56
499.701	92.56
499.918	82.56
500.135	77.56
500.352	86.56
500.569	86.56
500.786	93.56
501.003	91.56
501.22	96.56
501.437	89.56
501.654	82.56
501.871	86.56
502.088	87.56
502.305	93.56
502.522	88.56
502.739	79.56
502.956	98.56
503.172	85.56
503.389	92.56
503.606	101.56
503.823	103.56
504.04	71.56
504.256	92.56
504.473	110.56
504.69	91.56
504.907	84.56
505.123	85.56
505.34	91.56
505.557	108.56
505.773	94.56
505.99	83.56
506.207	90.56
506.423	86.56
506.64	89.56
506.856	104.56
507.073	98.56
507.289	88.56
507.506	94.56
507.722	110.56
507.939	108.56
508.155	91.56
508.372	88.56
508.588	73.56
508.805	92.56
509.021	101.56
509.238	82.56
509.454	98.56
509.67	115.56
509.887	127.56
510.103	140.56
510.319	191.56
510.536	673.56
510.752	2133.56
510.968	619.56
511.184	149.56
511.401	112.56
511.617	97.56
511.833	98.56
512.049	91.56
512.265	100.56
512.481	81.56
512.698	92.56
512.914	99.56
513.13	89.56
513.346	96.56
513.562	95.56
513.778	96.56
513.994	87.56
514.21	83.56
514.426	108.56
514.642	125.56
514.858	113.56
515.074	154.56
515.29	385.56
515.506	1235.56
515.721	466.56
