Data from Circ_2010_H10_HRD10591_00075.txt Node
Date: Wed Jan 03 10:09:56 EST 2024
User: Yrep
Spectrometer: HR+D1059
Trigger mode: 1
Integration Time (sec): 1.000000E-1
Scans to average: 1
Electric dark correction enabled: true
Nonlinearity correction enabled: false
Boxcar width: 0
XAxis mode: Wavelengths
Number of Pixels in Spectrum: 2048
>>>>>Begin Spectral Data<<<<<
223.165	-21.56
223.4	-21.56
223.635	-21.56
223.869	-2.56
224.104	-23.56
224.338	-6.56
224.573	-16.56
224.808	-24.56
225.042	-20.56
225.277	-18.56
225.511	2.44
225.746	11.44
225.98	3.44
226.215	9.44
226.449	17.44
226.683	30.44
226.918	25.44
227.152	34.44
227.387	39.44
227.621	30.44
227.856	36.44
228.09	62.44
228.324	56.44
228.559	53.44
228.793	51.44
229.027	46.44
229.262	66.44
229.496	62.44
229.73	80.44
229.964	71.44
230.199	83.44
230.433	60.44
230.667	76.44
230.901	73.44
231.136	79.44
231.37	74.44
231.604	72.44
231.838	80.44
232.072	85.44
232.306	76.44
232.541	98.44
232.775	79.44
233.009	88.44
233.243	84.44
233.477	72.44
233.711	70.44
233.945	78.44
234.179	77.44
234.413	80.44
234.647	75.44
234.881	74.44
235.115	83.44
235.349	68.44
235.583	81.44
235.817	78.44
236.051	65.44
236.285	70.44
236.519	68.44
236.753	86.44
236.987	81.44
237.221	98.44
237.455	78.44
237.689	70.44
237.922	74.44
238.156	76.44
238.39	62.44
238.624	74.44
238.858	81.44
239.091	88.44
239.325	77.44
239.559	90.44
239.793	91.44
240.027	71.44
240.26	66.44
240.494	80.44
240.728	73.44
240.961	70.44
241.195	73.44
241.429	77.44
241.662	79.44
241.896	72.44
242.13	78.44
242.363	80.44
242.597	76.44
242.83	87.44
243.064	72.44
243.298	74.44
243.531	62.44
243.765	81.44
243.998	80.44
244.232	60.44
244.465	83.44
244.699	80.44
244.932	80.44
245.166	75.44
245.399	93.44
245.633	84.44
245.866	76.44
246.099	65.44
246.333	80.44
246.566	82.44
246.8	86.44
247.033	85.44
247.266	79.44
247.5	67.44
247.733	78.44
247.966	84.44
248.2	76.44
248.433	76.44
248.666	80.44
248.899	78.44
249.133	86.44
249.366	83.44
249.599	102.44
249.832	75.44
250.066	67.44
250.299	70.44
250.532	73.44
250.765	63.44
250.998	95.44
251.231	83.44
251.465	78.44
251.698	79.44
251.931	85.44
252.164	81.44
252.397	76.44
252.63	77.44
252.863	77.44
253.096	82.44
253.329	87.44
253.562	88.44
253.795	79.44
254.028	79.44
254.261	67.44
254.494	82.44
254.727	93.44
254.96	85.44
255.193	79.44
255.426	83.44
255.659	93.44
255.892	73.44
256.124	89.44
256.357	87.44
256.59	83.44
256.823	63.44
257.056	77.44
257.289	84.44
257.521	63.44
257.754	70.44
257.987	71.44
258.22	84.44
258.452	82.44
258.685	84.44
258.918	88.44
259.151	88.44
259.383	74.44
259.616	86.44
259.849	81.44
260.081	77.44
260.314	75.44
260.547	80.44
260.779	84.44
261.012	85.44
261.244	85.44
261.477	79.44
261.71	95.44
261.942	105.44
262.175	88.44
262.407	87.44
262.64	76.44
262.872	91.44
263.105	78.44
263.337	79.44
263.57	83.44
263.802	68.44
264.035	75.44
264.267	81.44
264.499	76.44
264.732	81.44
264.964	73.44
265.197	68.44
265.429	79.44
265.661	90.44
265.894	73.44
266.126	83.44
266.358	75.44
266.591	77.44
266.823	82.44
267.055	78.44
267.287	88.44
267.52	86.44
267.752	84.44
267.984	78.44
268.216	77.44
268.448	84.44
268.681	86.44
268.913	85.44
269.145	89.44
269.377	78.44
269.609	74.44
269.841	81.44
270.073	82.44
270.306	78.44
270.538	85.44
270.77	79.44
271.002	78.44
271.234	86.44
271.466	88.44
271.698	86.44
271.93	98.44
272.162	77.44
272.394	76.44
272.626	86.44
272.858	81.44
273.09	84.44
273.322	88.44
273.553	82.44
273.785	81.44
274.017	67.44
274.249	81.44
274.481	95.44
274.713	101.44
274.945	88.44
275.176	93.44
275.408	80.44
275.64	87.44
275.872	85.44
276.104	84.44
276.335	77.44
276.567	100.44
276.799	111.44
277.031	94.44
277.262	102.44
277.494	85.44
277.726	84.44
277.957	75.44
278.189	91.44
278.421	94.44
278.652	87.44
278.884	91.44
279.115	92.44
279.347	78.44
279.579	91.44
279.81	93.44
280.042	95.44
280.273	99.44
280.505	99.44
280.736	79.44
280.968	83.44
281.199	75.44
281.431	85.44
281.662	75.44
281.894	82.44
282.125	99.44
282.356	109.44
282.588	119.44
282.819	94.44
283.051	100.44
283.282	91.44
283.513	84.44
283.745	80.44
283.976	84.44
284.207	84.44
284.439	80.44
284.67	105.44
284.901	88.44
285.132	86.44
285.364	98.44
285.595	79.44
285.826	78.44
286.057	86.44
286.288	84.44
286.52	86.44
286.751	78.44
286.982	83.44
287.213	74.44
287.444	72.44
287.675	76.44
287.906	66.44
288.138	74.44
288.369	83.44
288.6	91.44
288.831	92.44
289.062	72.44
289.293	83.44
289.524	80.44
289.755	89.44
289.986	80.44
290.217	87.44
290.448	78.44
290.679	90.44
290.91	79.44
291.141	85.44
291.371	90.44
291.602	72.44
291.833	82.44
292.064	78.44
292.295	89.44
292.526	85.44
292.757	79.44
292.987	93.44
293.218	85.44
293.449	91.44
293.68	91.44
293.91	83.44
294.141	87.44
294.372	103.44
294.603	88.44
294.833	89.44
295.064	84.44
295.295	75.44
295.525	70.44
295.756	102.44
295.987	99.44
296.217	118.44
296.448	123.44
296.679	95.44
296.909	94.44
297.14	81.44
297.37	84.44
297.601	78.44
297.831	93.44
298.062	82.44
298.292	77.44
298.523	84.44
298.753	95.44
298.984	94.44
299.214	86.44
299.445	85.44
299.675	87.44
299.905	99.44
300.136	76.44
300.366	98.44
300.597	87.44
300.827	89.44
301.057	94.44
301.288	107.44
301.518	93.44
301.748	79.44
301.979	90.44
302.209	96.44
302.439	93.44
302.669	70.44
302.9	80.44
303.13	89.44
303.36	67.44
303.59	87.44
303.82	108.44
304.051	75.44
304.281	92.44
304.511	91.44
304.741	84.44
304.971	87.44
305.201	93.44
305.431	83.44
305.661	79.44
305.891	87.44
306.121	92.44
306.352	97.44
306.582	100.44
306.812	103.44
307.042	81.44
307.272	97.44
307.502	98.44
307.731	100.44
307.961	104.44
308.191	83.44
308.421	105.44
308.651	85.44
308.881	97.44
309.111	101.44
309.341	87.44
309.571	91.44
309.8	101.44
310.03	82.44
310.26	93.44
310.49	84.44
310.72	82.44
310.949	105.44
311.179	97.44
311.409	87.44
311.639	90.44
311.868	84.44
312.098	91.44
312.328	94.44
312.557	100.44
312.787	96.44
313.017	91.44
313.246	88.44
313.476	74.44
313.706	74.44
313.935	88.44
314.165	86.44
314.394	91.44
314.624	82.44
314.853	88.44
315.083	85.44
315.312	94.44
315.542	86.44
315.771	87.44
316.001	108.44
316.23	92.44
316.46	75.44
316.689	78.44
316.919	84.44
317.148	90.44
317.377	99.44
317.607	98.44
317.836	90.44
318.065	80.44
318.295	83.44
318.524	86.44
318.753	97.44
318.983	99.44
319.212	84.44
319.441	98.44
319.67	85.44
319.9	99.44
320.129	99.44
320.358	76.44
320.587	100.44
320.816	102.44
321.046	104.44
321.275	97.44
321.504	99.44
321.733	73.44
321.962	89.44
322.191	101.44
322.42	92.44
322.649	109.44
322.878	115.44
323.108	100.44
323.337	111.44
323.566	118.44
323.795	135.44
324.024	174.44
324.253	330.44
324.482	701.44
324.71	1357.44
324.939	1745.44
325.168	658.44
325.397	190.44
325.626	129.44
325.855	98.44
326.084	113.44
326.313	98.44
326.542	150.44
326.77	209.44
326.999	395.44
327.228	771.44
327.457	1384.44
327.686	1094.44
327.914	324.44
328.143	193.44
328.372	174.44
328.6	146.44
328.829	122.44
329.058	109.44
329.287	110.44
329.515	95.44
329.744	131.44
329.972	133.44
330.201	229.44
330.43	263.44
330.658	168.44
330.887	131.44
331.115	98.44
331.344	100.44
331.572	93.44
331.801	90.44
332.03	109.44
332.258	92.44
332.486	87.44
332.715	93.44
332.943	91.44
333.172	100.44
333.4	87.44
333.629	86.44
333.857	120.44
334.085	159.44
334.314	204.44
334.542	324.44
334.771	306.44
334.999	143.44
335.227	93.44
335.455	87.44
335.684	98.44
335.912	90.44
336.14	88.44
336.369	97.44
336.597	95.44
336.825	92.44
337.053	79.44
337.281	73.44
337.51	90.44
337.738	103.44
337.966	79.44
338.194	82.44
338.422	90.44
338.65	87.44
338.878	88.44
339.106	85.44
339.334	90.44
339.562	82.44
339.79	74.44
340.018	92.44
340.246	84.44
340.474	78.44
340.702	94.44
340.93	88.44
341.158	80.44
341.386	81.44
341.614	102.44
341.842	95.44
342.07	86.44
342.298	98.44
342.526	67.44
342.754	76.44
342.981	82.44
343.209	87.44
343.437	91.44
343.665	84.44
343.893	90.44
344.12	87.44
344.348	87.44
344.576	91.44
344.804	76.44
345.031	97.44
345.259	97.44
345.487	100.44
345.714	101.44
345.942	77.44
346.17	81.44
346.397	97.44
346.625	66.44
346.853	73.44
347.08	71.44
347.308	90.44
347.535	94.44
347.763	97.44
347.99	94.44
348.218	113.44
348.445	88.44
348.673	94.44
348.9	79.44
349.128	92.44
349.355	86.44
349.583	92.44
349.81	96.44
350.037	99.44
350.265	92.44
350.492	111.44
350.72	97.44
350.947	95.44
351.174	104.44
351.402	110.44
351.629	99.44
351.856	86.44
352.083	98.44
352.311	88.44
352.538	103.44
352.765	107.44
352.992	106.44
353.22	98.44
353.447	99.44
353.674	83.44
353.901	80.44
354.128	97.44
354.355	85.44
354.583	94.44
354.81	99.44
355.037	106.44
355.264	89.44
355.491	90.44
355.718	90.44
355.945	84.44
356.172	96.44
356.399	105.44
356.626	98.44
356.853	73.44
357.08	84.44
357.307	90.44
357.534	94.44
357.761	100.44
357.988	84.44
358.215	99.44
358.441	96.44
358.668	87.44
358.895	82.44
359.122	102.44
359.349	66.44
359.576	93.44
359.802	92.44
360.029	95.44
360.256	103.44
360.483	100.44
360.709	80.44
360.936	82.44
361.163	86.44
361.39	87.44
361.616	95.44
361.843	94.44
362.07	103.44
362.296	97.44
362.523	78.44
362.749	72.44
362.976	80.44
363.203	91.44
363.429	78.44
363.656	80.44
363.882	90.44
364.109	87.44
364.335	84.44
364.562	83.44
364.788	87.44
365.015	103.44
365.241	94.44
365.468	85.44
365.694	105.44
365.92	88.44
366.147	93.44
366.373	95.44
366.599	91.44
366.826	84.44
367.052	86.44
367.278	86.44
367.505	98.44
367.731	89.44
367.957	84.44
368.184	74.44
368.41	100.44
368.636	101.44
368.862	101.44
369.089	84.44
369.315	90.44
369.541	91.44
369.767	94.44
369.993	85.44
370.219	92.44
370.445	98.44
370.672	70.44
370.898	78.44
371.124	85.44
371.35	88.44
371.576	95.44
371.802	78.44
372.028	88.44
372.254	93.44
372.48	86.44
372.706	70.44
372.932	90.44
373.158	78.44
373.384	88.44
373.61	77.44
373.835	78.44
374.061	91.44
374.287	74.44
374.513	87.44
374.739	87.44
374.965	82.44
375.191	82.44
375.416	77.44
375.642	88.44
375.868	83.44
376.094	93.44
376.319	93.44
376.545	87.44
376.771	84.44
376.997	83.44
377.222	90.44
377.448	94.44
377.674	69.44
377.899	93.44
378.125	76.44
378.35	76.44
378.576	91.44
378.802	86.44
379.027	92.44
379.253	87.44
379.478	80.44
379.704	83.44
379.929	80.44
380.155	88.44
380.38	81.44
380.606	96.44
380.831	100.44
381.057	91.44
381.282	92.44
381.507	86.44
381.733	98.44
381.958	75.44
382.184	84.44
382.409	93.44
382.634	101.44
382.86	91.44
383.085	105.44
383.31	109.44
383.535	107.44
383.761	87.44
383.986	79.44
384.211	94.44
384.436	114.44
384.662	103.44
384.887	104.44
385.112	111.44
385.337	105.44
385.562	98.44
385.787	106.44
386.013	105.44
386.238	110.44
386.463	93.44
386.688	106.44
386.913	114.44
387.138	92.44
387.363	92.44
387.588	94.44
387.813	119.44
388.038	108.44
388.263	90.44
388.488	105.44
388.713	102.44
388.938	88.44
389.163	96.44
389.387	86.44
389.612	90.44
389.837	94.44
390.062	81.44
390.287	83.44
390.512	82.44
390.736	85.44
390.961	99.44
391.186	95.44
391.411	88.44
391.636	76.44
391.86	90.44
392.085	84.44
392.31	89.44
392.534	79.44
392.759	91.44
392.984	88.44
393.208	94.44
393.433	95.44
393.658	83.44
393.882	78.44
394.107	80.44
394.331	82.44
394.556	87.44
394.78	89.44
395.005	84.44
395.229	81.44
395.454	83.44
395.678	71.44
395.903	87.44
396.127	99.44
396.352	75.44
396.576	95.44
396.801	83.44
397.025	80.44
397.249	89.44
397.474	84.44
397.698	78.44
397.922	92.44
398.147	89.44
398.371	86.44
398.595	74.44
398.82	83.44
399.044	91.44
399.268	80.44
399.492	76.44
399.717	86.44
399.941	92.44
400.165	84.44
400.389	84.44
400.613	86.44
400.837	95.44
401.062	86.44
401.286	71.44
401.51	88.44
401.734	85.44
401.958	102.44
402.182	103.44
402.406	137.44
402.63	107.44
402.854	94.44
403.078	80.44
403.302	76.44
403.526	78.44
403.75	80.44
403.974	73.44
404.198	96.44
404.422	79.44
404.645	95.44
404.869	91.44
405.093	96.44
405.317	88.44
405.541	95.44
405.765	88.44
405.988	100.44
406.212	157.44
406.436	172.44
406.66	130.44
406.883	92.44
407.107	94.44
407.331	93.44
407.555	96.44
407.778	90.44
408.002	95.44
408.226	98.44
408.449	75.44
408.673	84.44
408.896	68.44
409.12	100.44
409.344	89.44
409.567	81.44
409.791	99.44
410.014	89.44
410.238	103.44
410.461	87.44
410.685	86.44
410.908	93.44
411.132	89.44
411.355	93.44
411.578	87.44
411.802	91.44
412.025	85.44
412.249	78.44
412.472	94.44
412.695	103.44
412.919	94.44
413.142	91.44
413.365	75.44
413.589	86.44
413.812	98.44
414.035	95.44
414.258	90.44
414.482	92.44
414.705	102.44
414.928	88.44
415.151	96.44
415.374	99.44
415.597	91.44
415.821	78.44
416.044	92.44
416.267	100.44
416.49	80.44
416.713	78.44
416.936	91.44
417.159	91.44
417.382	73.44
417.605	89.44
417.828	97.44
418.051	77.44
418.274	98.44
418.497	83.44
418.72	80.44
418.943	80.44
419.166	78.44
419.389	88.44
419.611	89.44
419.834	86.44
420.057	106.44
420.28	87.44
420.503	77.44
420.726	82.44
420.948	91.44
421.171	94.44
421.394	85.44
421.617	77.44
421.839	84.44
422.062	91.44
422.285	92.44
422.507	90.44
422.73	109.44
422.953	86.44
423.175	85.44
423.398	93.44
423.621	83.44
423.843	100.44
424.066	104.44
424.288	80.44
424.511	76.44
424.733	73.44
424.956	87.44
425.178	94.44
425.401	93.44
425.623	103.44
425.846	93.44
426.068	87.44
426.291	88.44
426.513	84.44
426.735	83.44
426.958	96.44
427.18	107.44
427.402	118.44
427.625	142.44
427.847	128.44
428.069	139.44
428.292	93.44
428.514	113.44
428.736	84.44
428.958	81.44
429.181	90.44
429.403	85.44
429.625	85.44
429.847	102.44
430.069	111.44
430.292	88.44
430.514	79.44
430.736	85.44
430.958	82.44
431.18	88.44
431.402	79.44
431.624	80.44
431.846	81.44
432.068	74.44
432.29	92.44
432.512	102.44
432.734	83.44
432.956	75.44
433.178	103.44
433.4	82.44
433.622	82.44
433.844	86.44
434.066	67.44
434.287	80.44
434.509	96.44
434.731	84.44
434.953	78.44
435.175	83.44
435.397	91.44
435.618	92.44
435.84	86.44
436.062	110.44
436.284	98.44
436.505	104.44
436.727	76.44
436.949	93.44
437.17	96.44
437.392	83.44
437.614	93.44
437.835	94.44
438.057	95.44
438.278	88.44
438.5	103.44
438.721	111.44
438.943	97.44
439.165	87.44
439.386	84.44
439.608	94.44
439.829	83.44
440.05	127.44
440.272	135.44
440.493	90.44
440.715	86.44
440.936	90.44
441.158	80.44
441.379	95.44
441.6	89.44
441.822	90.44
442.043	93.44
442.264	93.44
442.486	98.44
442.707	84.44
442.928	91.44
443.149	114.44
443.371	130.44
443.592	71.44
443.813	90.44
444.034	107.44
444.255	84.44
444.476	96.44
444.698	78.44
444.919	72.44
445.14	114.44
445.361	125.44
445.582	94.44
445.803	110.44
446.024	116.44
446.245	127.44
446.466	91.44
446.687	101.44
446.908	92.44
447.129	87.44
447.35	76.44
447.571	94.44
447.792	83.44
448.013	87.44
448.234	102.44
448.455	99.44
448.675	106.44
448.896	98.44
449.117	88.44
449.338	94.44
449.559	98.44
449.779	125.44
450	95.44
450.221	80.44
450.442	74.44
450.662	83.44
450.883	84.44
451.104	107.44
451.324	90.44
451.545	92.44
451.766	90.44
451.986	98.44
452.207	83.44
452.428	95.44
452.648	97.44
452.869	87.44
453.089	99.44
453.31	103.44
453.53	86.44
453.751	96.44
453.971	92.44
454.192	113.44
454.412	82.44
454.633	94.44
454.853	86.44
455.073	86.44
455.294	81.44
455.514	91.44
455.734	81.44
455.955	87.44
456.175	78.44
456.395	84.44
456.616	90.44
456.836	80.44
457.056	85.44
457.276	82.44
457.497	80.44
457.717	82.44
457.937	89.44
458.157	78.44
458.377	80.44
458.598	98.44
458.818	122.44
459.038	117.44
459.258	100.44
459.478	86.44
459.698	78.44
459.918	76.44
460.138	86.44
460.358	80.44
460.578	83.44
460.798	90.44
461.018	87.44
461.238	84.44
461.458	88.44
461.678	92.44
461.898	90.44
462.118	86.44
462.338	80.44
462.558	57.44
462.777	90.44
462.997	75.44
463.217	78.44
463.437	81.44
463.657	64.44
463.876	83.44
464.096	91.44
464.316	85.44
464.536	100.44
464.755	92.44
464.975	91.44
465.195	133.44
465.414	125.44
465.634	80.44
465.854	80.44
466.073	81.44
466.293	78.44
466.512	85.44
466.732	78.44
466.951	91.44
467.171	78.44
467.391	92.44
467.61	92.44
467.829	104.44
468.049	154.44
468.268	176.44
468.488	99.44
468.707	91.44
468.927	81.44
469.146	86.44
469.365	84.44
469.585	76.44
469.804	93.44
470.023	90.44
470.243	85.44
470.462	91.44
470.681	91.44
470.901	99.44
471.12	84.44
471.339	78.44
471.558	83.44
471.777	100.44
471.997	116.44
472.216	233.44
472.435	414.44
472.654	169.44
472.873	92.44
473.092	83.44
473.311	73.44
473.53	86.44
473.749	80.44
473.968	72.44
474.187	91.44
474.406	85.44
474.625	94.44
474.844	99.44
475.063	96.44
475.282	80.44
475.501	67.44
475.72	73.44
475.939	82.44
476.158	82.44
476.377	79.44
476.596	82.44
476.814	83.44
477.033	86.44
477.252	99.44
477.471	84.44
477.69	96.44
477.908	95.44
478.127	79.44
478.346	80.44
478.564	91.44
478.783	77.44
479.002	114.44
479.22	93.44
479.439	100.44
479.658	108.44
479.876	107.44
480.095	90.44
480.313	95.44
480.532	100.44
480.751	124.44
480.969	243.44
481.188	702.44
481.406	445.44
481.624	116.44
481.843	82.44
482.061	87.44
482.28	103.44
482.498	93.44
482.717	78.44
482.935	82.44
483.153	94.44
483.372	79.44
483.59	91.44
483.808	82.44
484.027	93.44
484.245	105.44
484.463	107.44
484.681	93.44
484.9	75.44
485.118	86.44
485.336	87.44
485.554	95.44
485.772	100.44
485.99	98.44
486.209	95.44
486.427	106.44
486.645	92.44
486.863	111.44
487.081	106.44
487.299	85.44
487.517	79.44
487.735	80.44
487.953	86.44
488.171	95.44
488.389	80.44
488.607	86.44
488.825	77.44
489.043	80.44
489.261	90.44
489.479	82.44
489.696	80.44
489.914	92.44
490.132	93.44
490.35	98.44
490.568	100.44
490.786	77.44
491.003	86.44
491.221	85.44
491.439	82.44
491.657	87.44
491.874	98.44
492.092	90.44
492.31	94.44
492.527	91.44
492.745	86.44
492.963	70.44
493.18	88.44
493.398	82.44
493.615	97.44
493.833	87.44
494.05	99.44
494.268	90.44
494.485	75.44
494.703	94.44
494.92	93.44
495.138	82.44
495.355	85.44
495.573	90.44
495.79	87.44
496.008	99.44
496.225	77.44
496.442	79.44
496.66	95.44
496.877	85.44
497.094	88.44
497.312	87.44
497.529	99.44
497.746	93.44
497.963	93.44
498.181	84.44
498.398	91.44
498.615	101.44
498.832	99.44
499.049	86.44
499.267	84.44
499.484	90.44
499.701	85.44
499.918	87.44
500.135	65.44
500.352	96.44
500.569	83.44
500.786	83.44
501.003	100.44
501.22	102.44
501.437	95.44
501.654	98.44
501.871	90.44
502.088	85.44
502.305	89.44
502.522	87.44
502.739	86.44
502.956	89.44
503.172	84.44
503.389	87.44
503.606	99.44
503.823	98.44
504.04	87.44
504.256	103.44
504.473	90.44
504.69	94.44
504.907	106.44
505.123	99.44
505.34	92.44
505.557	89.44
505.773	96.44
505.99	85.44
506.207	85.44
506.423	89.44
506.64	97.44
506.856	84.44
507.073	94.44
507.289	91.44
507.506	99.44
507.722	116.44
507.939	93.44
508.155	97.44
508.372	94.44
508.588	97.44
508.805	89.44
509.021	90.44
509.238	98.44
509.454	76.44
509.67	99.44
509.887	103.44
510.103	115.44
510.319	174.44
510.536	542.44
510.752	1609.44
510.968	510.44
511.184	140.44
511.401	106.44
511.617	92.44
511.833	100.44
512.049	91.44
512.265	93.44
512.481	104.44
512.698	97.44
512.914	88.44
513.13	98.44
513.346	94.44
513.562	96.44
513.778	96.44
513.994	102.44
514.21	87.44
514.426	103.44
514.642	111.44
514.858	103.44
515.074	148.44
515.29	319.44
515.506	968.44
515.721	394.44
515.937	133.44
516.153	100.44
516.369	94.44
516.585	97.44
516.801	95.44
517.016	76.44
