Data from Circ_2010_H10_HRD10591_00082.txt Node
Date: Wed Jan 03 10:09:57 EST 2024
User: Yrep
Spectrometer: HR+D1059
Trigger mode: 1
Integration Time (sec): 1.000000E-1
Scans to average: 1
Electric dark correction enabled: true
Nonlinearity correction enabled: false
Boxcar width: 0
XAxis mode: Wavelengths
Number of Pixels in Spectrum: 2048
>>>>>Begin Spectral Data<<<<<
223.165	-18.69
223.4	-18.69
223.635	-18.69
223.869	-23.69
224.104	-17.69
224.338	0.31
224.573	-23.69
224.808	-11.69
225.042	-7.69
225.277	-4.69
225.511	3.31
225.746	6.31
225.98	15.31
226.215	9.31
226.449	7.31
226.683	13.31
226.918	18.31
227.152	34.31
227.387	32.31
227.621	35.31
227.856	47.31
228.09	32.31
228.324	54.31
228.559	46.31
228.793	67.31
229.027	66.31
229.262	59.31
229.496	65.31
229.73	72.31
229.964	74.31
230.199	85.31
230.433	80.31
230.667	76.31
230.901	75.31
231.136	76.31
231.37	72.31
231.604	71.31
231.838	92.31
232.072	76.31
232.306	79.31
232.541	83.31
232.775	92.31
233.009	78.31
233.243	88.31
233.477	88.31
233.711	78.31
233.945	67.31
234.179	64.31
234.413	76.31
234.647	85.31
234.881	59.31
235.115	90.31
235.349	76.31
235.583	91.31
235.817	80.31
236.051	77.31
236.285	89.31
236.519	87.31
236.753	67.31
236.987	75.31
237.221	82.31
237.455	88.31
237.689	77.31
237.922	67.31
238.156	75.31
238.39	75.31
238.624	80.31
238.858	79.31
239.091	76.31
239.325	72.31
239.559	86.31
239.793	79.31
240.027	77.31
240.26	83.31
240.494	85.31
240.728	79.31
240.961	86.31
241.195	78.31
241.429	74.31
241.662	88.31
241.896	73.31
242.13	67.31
242.363	51.31
242.597	63.31
242.83	61.31
243.064	70.31
243.298	66.31
243.531	75.31
243.765	75.31
243.998	75.31
244.232	80.31
244.465	81.31
244.699	82.31
244.932	78.31
245.166	81.31
245.399	81.31
245.633	74.31
245.866	79.31
246.099	83.31
246.333	84.31
246.566	69.31
246.8	75.31
247.033	84.31
247.266	81.31
247.5	78.31
247.733	86.31
247.966	71.31
248.2	67.31
248.433	86.31
248.666	78.31
248.899	80.31
249.133	82.31
249.366	77.31
249.599	93.31
249.832	77.31
250.066	74.31
250.299	94.31
250.532	86.31
250.765	71.31
250.998	77.31
251.231	86.31
251.465	81.31
251.698	91.31
251.931	70.31
252.164	84.31
252.397	80.31
252.63	85.31
252.863	78.31
253.096	71.31
253.329	88.31
253.562	66.31
253.795	70.31
254.028	84.31
254.261	79.31
254.494	90.31
254.727	84.31
254.96	77.31
255.193	87.31
255.426	77.31
255.659	72.31
255.892	76.31
256.124	79.31
256.357	87.31
256.59	83.31
256.823	66.31
257.056	80.31
257.289	73.31
257.521	77.31
257.754	78.31
257.987	76.31
258.22	84.31
258.452	76.31
258.685	91.31
258.918	77.31
259.151	62.31
259.383	82.31
259.616	80.31
259.849	79.31
260.081	84.31
260.314	77.31
260.547	88.31
260.779	80.31
261.012	84.31
261.244	92.31
261.477	92.31
261.71	71.31
261.942	84.31
262.175	119.31
262.407	83.31
262.64	60.31
262.872	84.31
263.105	81.31
263.337	78.31
263.57	76.31
263.802	76.31
264.035	78.31
264.267	90.31
264.499	88.31
264.732	85.31
264.964	79.31
265.197	83.31
265.429	76.31
265.661	85.31
265.894	87.31
266.126	87.31
266.358	88.31
266.591	86.31
266.823	85.31
267.055	84.31
267.287	85.31
267.52	87.31
267.752	58.31
267.984	83.31
268.216	93.31
268.448	78.31
268.681	84.31
268.913	80.31
269.145	83.31
269.377	72.31
269.609	94.31
269.841	71.31
270.073	76.31
270.306	92.31
270.538	79.31
270.77	89.31
271.002	79.31
271.234	91.31
271.466	80.31
271.698	93.31
271.93	89.31
272.162	84.31
272.394	93.31
272.626	74.31
272.858	83.31
273.09	93.31
273.322	82.31
273.553	88.31
273.785	79.31
274.017	73.31
274.249	72.31
274.481	91.31
274.713	84.31
274.945	94.31
275.176	78.31
275.408	90.31
275.64	78.31
275.872	78.31
276.104	79.31
276.335	68.31
276.567	95.31
276.799	107.31
277.031	103.31
277.262	96.31
277.494	84.31
277.726	93.31
277.957	87.31
278.189	76.31
278.421	79.31
278.652	79.31
278.884	82.31
279.115	85.31
279.347	77.31
279.579	86.31
279.81	95.31
280.042	109.31
280.273	116.31
280.505	84.31
280.736	84.31
280.968	82.31
281.199	89.31
281.431	83.31
281.662	78.31
281.894	79.31
282.125	86.31
282.356	106.31
282.588	127.31
282.819	118.31
283.051	88.31
283.282	96.31
283.513	80.31
283.745	85.31
283.976	83.31
284.207	83.31
284.439	78.31
284.67	82.31
284.901	94.31
285.132	89.31
285.364	83.31
285.595	87.31
285.826	89.31
286.057	87.31
286.288	79.31
286.52	80.31
286.751	75.31
286.982	97.31
287.213	87.31
287.444	78.31
287.675	86.31
287.906	95.31
288.138	92.31
288.369	86.31
288.6	93.31
288.831	77.31
289.062	84.31
289.293	83.31
289.524	88.31
289.755	89.31
289.986	69.31
290.217	85.31
290.448	90.31
290.679	79.31
290.91	71.31
291.141	88.31
291.371	72.31
291.602	87.31
291.833	87.31
292.064	93.31
292.295	99.31
292.526	83.31
292.757	93.31
292.987	95.31
293.218	90.31
293.449	78.31
293.68	96.31
293.91	88.31
294.141	86.31
294.372	88.31
294.603	84.31
294.833	79.31
295.064	96.31
295.295	99.31
295.525	95.31
295.756	97.31
295.987	114.31
296.217	127.31
296.448	103.31
296.679	90.31
296.909	82.31
297.14	84.31
297.37	78.31
297.601	83.31
297.831	89.31
298.062	77.31
298.292	90.31
298.523	94.31
298.753	88.31
298.984	81.31
299.214	86.31
299.445	101.31
299.675	102.31
299.905	81.31
300.136	100.31
300.366	94.31
300.597	101.31
300.827	104.31
301.057	80.31
301.288	95.31
301.518	98.31
301.748	84.31
301.979	101.31
302.209	96.31
302.439	87.31
302.669	89.31
302.9	85.31
303.13	87.31
303.36	86.31
303.59	98.31
303.82	83.31
304.051	94.31
304.281	85.31
304.511	89.31
304.741	84.31
304.971	83.31
305.201	88.31
305.431	93.31
305.661	87.31
305.891	87.31
306.121	86.31
306.352	83.31
306.582	106.31
306.812	95.31
307.042	87.31
307.272	99.31
307.502	92.31
307.731	97.31
307.961	102.31
308.191	83.31
308.421	83.31
308.651	83.31
308.881	93.31
309.111	80.31
309.341	80.31
309.571	91.31
309.8	87.31
310.03	99.31
310.26	88.31
310.49	89.31
310.72	86.31
310.949	99.31
311.179	95.31
311.409	94.31
311.639	82.31
311.868	90.31
312.098	105.31
312.328	100.31
312.557	108.31
312.787	109.31
313.017	96.31
313.246	74.31
313.476	78.31
313.706	90.31
313.935	101.31
314.165	96.31
314.394	98.31
314.624	96.31
314.853	87.31
315.083	87.31
315.312	95.31
315.542	90.31
315.771	81.31
316.001	79.31
316.23	98.31
316.46	84.31
316.689	87.31
316.919	83.31
317.148	95.31
317.377	79.31
317.607	92.31
317.836	90.31
318.065	96.31
318.295	100.31
318.524	87.31
318.753	93.31
318.983	86.31
319.212	87.31
319.441	99.31
319.67	101.31
319.9	80.31
320.129	96.31
320.358	76.31
320.587	82.31
320.816	93.31
321.046	87.31
321.275	102.31
321.504	86.31
321.733	91.31
321.962	89.31
322.191	106.31
322.42	85.31
322.649	102.31
322.878	106.31
323.108	104.31
323.337	122.31
323.566	114.31
323.795	112.31
324.024	181.31
324.253	319.31
324.482	654.31
324.71	1295.31
324.939	1723.31
325.168	650.31
325.397	184.31
325.626	135.31
325.855	122.31
326.084	128.31
326.313	115.31
326.542	133.31
326.77	190.31
326.999	377.31
327.228	758.31
327.457	1361.31
327.686	1081.31
327.914	311.31
328.143	202.31
328.372	206.31
328.6	142.31
328.829	108.31
329.058	107.31
329.287	104.31
329.515	100.31
329.744	101.31
329.972	158.31
330.201	202.31
330.43	279.31
330.658	173.31
330.887	135.31
331.115	113.31
331.344	88.31
331.572	90.31
331.801	109.31
332.03	109.31
332.258	103.31
332.486	93.31
332.715	93.31
332.943	95.31
333.172	87.31
333.4	91.31
333.629	99.31
333.857	121.31
334.085	160.31
334.314	213.31
334.542	342.31
334.771	320.31
334.999	140.31
335.227	98.31
335.455	88.31
335.684	102.31
335.912	101.31
336.14	92.31
336.369	98.31
336.597	95.31
336.825	87.31
337.053	94.31
337.281	82.31
337.51	87.31
337.738	81.31
337.966	92.31
338.194	87.31
338.422	87.31
338.65	92.31
338.878	88.31
339.106	84.31
339.334	103.31
339.562	76.31
339.79	85.31
340.018	94.31
340.246	94.31
340.474	83.31
340.702	71.31
340.93	94.31
341.158	101.31
341.386	77.31
341.614	98.31
341.842	84.31
342.07	92.31
342.298	87.31
342.526	76.31
342.754	94.31
342.981	86.31
343.209	78.31
343.437	98.31
343.665	86.31
343.893	94.31
344.12	91.31
344.348	84.31
344.576	89.31
344.804	107.31
345.031	102.31
345.259	93.31
345.487	82.31
345.714	80.31
345.942	88.31
346.17	86.31
346.397	86.31
346.625	98.31
346.853	80.31
347.08	92.31
347.308	78.31
347.535	108.31
347.763	94.31
347.99	90.31
348.218	84.31
348.445	97.31
348.673	95.31
348.9	86.31
349.128	87.31
349.355	82.31
349.583	101.31
349.81	90.31
350.037	76.31
350.265	97.31
350.492	80.31
350.72	88.31
350.947	92.31
351.174	106.31
351.402	114.31
351.629	97.31
351.856	93.31
352.083	95.31
352.311	93.31
352.538	95.31
352.765	95.31
352.992	104.31
353.22	105.31
353.447	91.31
353.674	100.31
353.901	103.31
354.128	89.31
354.355	95.31
354.583	92.31
354.81	109.31
355.037	99.31
355.264	92.31
355.491	90.31
355.718	102.31
355.945	80.31
356.172	84.31
356.399	94.31
356.626	94.31
356.853	85.31
357.08	90.31
357.307	84.31
357.534	90.31
357.761	100.31
357.988	92.31
358.215	91.31
358.441	91.31
358.668	75.31
358.895	81.31
359.122	77.31
359.349	83.31
359.576	88.31
359.802	80.31
360.029	89.31
360.256	105.31
360.483	91.31
360.709	78.31
360.936	98.31
361.163	103.31
361.39	91.31
361.616	99.31
361.843	95.31
362.07	88.31
362.296	95.31
362.523	96.31
362.749	110.31
362.976	92.31
363.203	87.31
363.429	84.31
363.656	96.31
363.882	97.31
364.109	82.31
364.335	98.31
364.562	93.31
364.788	76.31
365.015	80.31
365.241	97.31
365.468	94.31
365.694	91.31
365.92	100.31
366.147	88.31
366.373	85.31
366.599	86.31
366.826	96.31
367.052	90.31
367.278	83.31
367.505	87.31
367.731	86.31
367.957	79.31
368.184	103.31
368.41	88.31
368.636	85.31
368.862	106.31
369.089	98.31
369.315	94.31
369.541	95.31
369.767	98.31
369.993	86.31
370.219	86.31
370.445	86.31
370.672	89.31
370.898	95.31
371.124	81.31
371.35	96.31
371.576	94.31
371.802	84.31
372.028	79.31
372.254	85.31
372.48	94.31
372.706	97.31
372.932	92.31
373.158	89.31
373.384	87.31
373.61	97.31
373.835	92.31
374.061	100.31
374.287	95.31
374.513	93.31
374.739	79.31
374.965	84.31
375.191	76.31
375.416	90.31
375.642	88.31
375.868	80.31
376.094	84.31
376.319	91.31
376.545	70.31
376.771	110.31
376.997	94.31
377.222	92.31
377.448	94.31
377.674	92.31
377.899	88.31
378.125	95.31
378.35	85.31
378.576	93.31
378.802	84.31
379.027	91.31
379.253	93.31
379.478	83.31
379.704	82.31
379.929	91.31
380.155	89.31
380.38	70.31
380.606	92.31
380.831	99.31
381.057	87.31
381.282	72.31
381.507	85.31
381.733	102.31
381.958	80.31
382.184	96.31
382.409	98.31
382.634	96.31
382.86	74.31
383.085	84.31
383.31	98.31
383.535	99.31
383.761	97.31
383.986	92.31
384.211	94.31
384.436	89.31
384.662	90.31
384.887	104.31
385.112	99.31
385.337	93.31
385.562	95.31
385.787	99.31
386.013	90.31
386.238	96.31
386.463	98.31
386.688	108.31
386.913	101.31
387.138	87.31
387.363	91.31
387.588	88.31
387.813	99.31
388.038	103.31
388.263	108.31
388.488	110.31
388.713	87.31
388.938	87.31
389.163	107.31
389.387	106.31
389.612	95.31
389.837	88.31
390.062	100.31
390.287	92.31
390.512	101.31
390.736	94.31
390.961	88.31
391.186	96.31
391.411	95.31
391.636	94.31
391.86	91.31
392.085	93.31
392.31	82.31
392.534	91.31
392.759	94.31
392.984	85.31
393.208	91.31
393.433	86.31
393.658	98.31
393.882	82.31
394.107	93.31
394.331	84.31
394.556	85.31
394.78	84.31
395.005	82.31
395.229	93.31
395.454	78.31
395.678	79.31
395.903	103.31
396.127	90.31
396.352	67.31
396.576	92.31
396.801	90.31
397.025	92.31
397.249	90.31
397.474	76.31
397.698	102.31
397.922	79.31
398.147	76.31
398.371	77.31
398.595	82.31
398.82	70.31
399.044	67.31
399.268	80.31
399.492	79.31
399.717	95.31
399.941	82.31
400.165	66.31
400.389	78.31
400.613	84.31
400.837	85.31
401.062	83.31
401.286	78.31
401.51	88.31
401.734	73.31
401.958	75.31
402.182	121.31
402.406	129.31
402.63	108.31
402.854	80.31
403.078	97.31
403.302	82.31
403.526	98.31
403.75	97.31
403.974	84.31
404.198	103.31
404.422	85.31
404.645	96.31
404.869	109.31
405.093	98.31
405.317	114.31
405.541	75.31
405.765	95.31
405.988	103.31
406.212	147.31
406.436	175.31
406.66	124.31
406.883	89.31
407.107	90.31
407.331	91.31
407.555	94.31
407.778	75.31
408.002	87.31
408.226	80.31
408.449	82.31
408.673	79.31
408.896	83.31
409.12	87.31
409.344	83.31
409.567	89.31
409.791	78.31
410.014	89.31
410.238	80.31
410.461	87.31
410.685	99.31
410.908	89.31
411.132	108.31
411.355	101.31
411.578	93.31
411.802	86.31
412.025	76.31
412.249	76.31
412.472	93.31
412.695	92.31
412.919	93.31
413.142	96.31
413.365	92.31
413.589	81.31
413.812	97.31
414.035	90.31
414.258	71.31
414.482	79.31
414.705	91.31
414.928	90.31
415.151	76.31
415.374	92.31
415.597	98.31
415.821	94.31
416.044	82.31
416.267	88.31
416.49	81.31
416.713	78.31
416.936	83.31
417.159	95.31
417.382	85.31
417.605	82.31
417.828	97.31
418.051	82.31
418.274	84.31
418.497	83.31
418.72	73.31
418.943	79.31
419.166	96.31
419.389	86.31
419.611	97.31
419.834	85.31
420.057	94.31
420.28	80.31
420.503	90.31
420.726	84.31
420.948	97.31
421.171	94.31
421.394	92.31
421.617	78.31
421.839	92.31
422.062	103.31
422.285	87.31
422.507	92.31
422.73	93.31
422.953	89.31
423.175	88.31
423.398	89.31
423.621	82.31
423.843	73.31
424.066	90.31
424.288	80.31
424.511	79.31
424.733	104.31
424.956	97.31
425.178	94.31
425.401	103.31
425.623	82.31
425.846	94.31
426.068	95.31
426.291	97.31
426.513	80.31
426.735	85.31
426.958	99.31
427.18	103.31
427.402	134.31
427.625	148.31
427.847	115.31
428.069	125.31
428.292	82.31
428.514	86.31
428.736	90.31
428.958	86.31
429.181	94.31
429.403	91.31
429.625	86.31
429.847	70.31
430.069	100.31
430.292	85.31
430.514	86.31
430.736	77.31
430.958	97.31
431.18	75.31
431.402	84.31
431.624	73.31
431.846	71.31
432.068	87.31
432.29	85.31
432.512	92.31
432.734	88.31
432.956	86.31
433.178	111.31
433.4	93.31
433.622	96.31
433.844	68.31
434.066	87.31
434.287	74.31
434.509	80.31
434.731	93.31
434.953	82.31
435.175	75.31
435.397	79.31
435.618	84.31
435.84	83.31
436.062	86.31
436.284	120.31
436.505	110.31
436.727	98.31
436.949	94.31
437.17	98.31
437.392	89.31
437.614	99.31
437.835	89.31
438.057	101.31
438.278	85.31
438.5	105.31
438.721	116.31
438.943	101.31
439.165	81.31
439.386	68.31
439.608	92.31
439.829	82.31
440.05	105.31
440.272	136.31
440.493	96.31
440.715	101.31
440.936	88.31
441.158	87.31
441.379	84.31
441.6	96.31
441.822	88.31
442.043	94.31
442.264	88.31
442.486	97.31
442.707	85.31
442.928	99.31
443.149	112.31
443.371	103.31
443.592	107.31
443.813	104.31
444.034	95.31
444.255	99.31
444.476	90.31
444.698	87.31
444.919	73.31
445.14	121.31
445.361	102.31
445.582	101.31
445.803	117.31
446.024	106.31
446.245	115.31
446.466	108.31
446.687	72.31
446.908	96.31
447.129	96.31
447.35	102.31
447.571	96.31
447.792	86.31
448.013	92.31
448.234	104.31
448.455	96.31
448.675	94.31
448.896	106.31
449.117	86.31
449.338	97.31
449.559	126.31
449.779	130.31
450	86.31
450.221	90.31
450.442	69.31
450.662	75.31
450.883	100.31
451.104	98.31
451.324	89.31
451.545	82.31
451.766	83.31
451.986	92.31
452.207	87.31
452.428	83.31
452.648	99.31
452.869	91.31
453.089	90.31
453.31	114.31
453.53	91.31
453.751	90.31
453.971	90.31
454.192	105.31
454.412	90.31
454.633	92.31
454.853	83.31
455.073	91.31
455.294	74.31
455.514	94.31
455.734	80.31
455.955	78.31
456.175	92.31
456.395	84.31
456.616	94.31
456.836	91.31
457.056	83.31
457.276	87.31
457.497	74.31
457.717	82.31
457.937	90.31
458.157	81.31
458.377	77.31
458.598	82.31
458.818	120.31
459.038	136.31
459.258	106.31
459.478	99.31
459.698	94.31
459.918	82.31
460.138	84.31
460.358	64.31
460.578	87.31
460.798	78.31
461.018	75.31
461.238	77.31
461.458	66.31
461.678	79.31
461.898	71.31
462.118	79.31
462.338	89.31
462.558	81.31
462.777	89.31
462.997	85.31
463.217	91.31
463.437	93.31
463.657	77.31
463.876	89.31
464.096	91.31
464.316	95.31
464.536	106.31
464.755	91.31
464.975	97.31
465.195	142.31
465.414	143.31
465.634	88.31
465.854	94.31
466.073	84.31
466.293	88.31
466.512	79.31
466.732	86.31
466.951	95.31
467.171	106.31
467.391	90.31
467.61	103.31
467.829	92.31
468.049	155.31
468.268	185.31
468.488	108.31
468.707	87.31
468.927	94.31
469.146	87.31
469.365	96.31
469.585	95.31
469.804	100.31
470.023	84.31
470.243	85.31
470.462	95.31
470.681	95.31
470.901	83.31
471.12	92.31
471.339	88.31
471.558	95.31
471.777	82.31
471.997	116.31
472.216	246.31
472.435	448.31
472.654	149.31
472.873	91.31
473.092	93.31
473.311	90.31
473.53	88.31
473.749	73.31
473.968	80.31
474.187	94.31
474.406	95.31
474.625	87.31
474.844	90.31
475.063	76.31
475.282	79.31
475.501	93.31
475.72	87.31
475.939	78.31
476.158	80.31
476.377	84.31
476.596	90.31
476.814	101.31
477.033	93.31
477.252	94.31
477.471	75.31
477.69	86.31
477.908	89.31
478.127	98.31
478.346	83.31
478.564	88.31
478.783	87.31
479.002	90.31
479.22	86.31
479.439	102.31
479.658	93.31
479.876	88.31
480.095	85.31
480.313	79.31
480.532	98.31
480.751	126.31
480.969	256.31
481.188	760.31
481.406	486.31
481.624	134.31
481.843	94.31
482.061	95.31
482.28	77.31
482.498	82.31
482.717	104.31
482.935	83.31
483.153	98.31
483.372	96.31
483.59	82.31
483.808	91.31
484.027	103.31
484.245	91.31
484.463	90.31
484.681	90.31
484.9	90.31
485.118	87.31
485.336	89.31
485.554	128.31
485.772	99.31
485.99	103.31
486.209	89.31
486.427	91.31
486.645	93.31
486.863	92.31
487.081	93.31
487.299	101.31
487.517	102.31
487.735	105.31
487.953	88.31
488.171	80.31
488.389	104.31
488.607	91.31
488.825	80.31
489.043	94.31
489.261	94.31
489.479	76.31
489.696	86.31
489.914	100.31
490.132	105.31
490.35	82.31
490.568	79.31
490.786	92.31
491.003	90.31
491.221	90.31
491.439	82.31
491.657	83.31
491.874	95.31
492.092	86.31
492.31	90.31
492.527	86.31
492.745	86.31
492.963	86.31
493.18	86.31
493.398	86.31
493.615	83.31
493.833	95.31
494.05	85.31
494.268	86.31
494.485	84.31
494.703	91.31
494.92	96.31
495.138	87.31
495.355	86.31
495.573	87.31
495.79	76.31
496.008	86.31
496.225	99.31
496.442	99.31
496.66	96.31
496.877	66.31
497.094	103.31
497.312	88.31
497.529	106.31
497.746	99.31
497.963	81.31
498.181	92.31
498.398	100.31
498.615	101.31
498.832	110.31
499.049	94.31
499.267	79.31
499.484	74.31
499.701	95.31
499.918	90.31
500.135	88.31
500.352	84.31
500.569	89.31
500.786	101.31
501.003	104.31
501.22	93.31
501.437	92.31
501.654	95.31
501.871	105.31
502.088	95.31
502.305	94.31
502.522	78.31
502.739	83.31
502.956	86.31
503.172	84.31
503.389	90.31
503.606	102.31
503.823	94.31
504.04	95.31
504.256	79.31
504.473	87.31
504.69	78.31
504.907	90.31
505.123	90.31
505.34	75.31
505.557	100.31
505.773	102.31
505.99	72.31
506.207	90.31
506.423	96.31
506.64	87.31
506.856	90.31
507.073	84.31
507.289	86.31
507.506	102.31
507.722	113.31
507.939	103.31
508.155	98.31
508.372	94.31
508.588	82.31
508.805	110.31
509.021	91.31
509.238	85.31
509.454	92.31
509.67	93.31
509.887	102.31
510.103	124.31
510.319	185.31
510.536	538.31
510.752	1679.31
510.968	501.31
511.184	140.31
511.401	98.31
511.617	94.31
511.833	79.31
512.049	78.31
512.265	86.31
512.481	80.31
512.698	93.31
512.914	93.31
513.13	91.31
513.346	99.31
513.562	104.31
513.778	95.31
513.994	103.31
514.21	84.31
514.426	105.31
514.642	112.31
514.858	127.31
515.074	128.31
515.29	326.31
515.506	1031.31
515.721	447.31
515.937	134.31
516.153	106.31
516.369	92.31
516.585	88.31
516.801	93.31
