Data from Circ_2010_H10_HRD10591_00057.txt Node
Date: Wed Jan 03 10:09:52 EST 2024
User: Yrep
Spectrometer: HR+D1059
Trigger mode: 1
Integration Time (sec): 1.000000E-1
Scans to average: 1
Electric dark correction enabled: true
Nonlinearity correction enabled: false
Boxcar width: 0
XAxis mode: Wavelengths
Number of Pixels in Spectrum: 2048
>>>>>Begin Spectral Data<<<<<
223.165	-25.31
223.4	-25.31
223.635	-25.31
223.869	-25.31
224.104	-13.31
224.338	-19.31
224.573	-12.31
224.808	-12.31
225.042	4.69
225.277	-11.31
225.511	2.69
225.746	5.69
225.98	16.69
226.215	4.69
226.449	21.69
226.683	13.69
226.918	25.69
227.152	23.69
227.387	31.69
227.621	32.69
227.856	52.69
228.09	51.69
228.324	55.69
228.559	50.69
228.793	60.69
229.027	53.69
229.262	60.69
229.496	66.69
229.73	84.69
229.964	94.69
230.199	75.69
230.433	74.69
230.667	82.69
230.901	67.69
231.136	66.69
231.37	65.69
231.604	79.69
231.838	74.69
232.072	78.69
232.306	79.69
232.541	79.69
232.775	82.69
233.009	77.69
233.243	74.69
233.477	72.69
233.711	74.69
233.945	74.69
234.179	84.69
234.413	80.69
234.647	80.69
234.881	75.69
235.115	69.69
235.349	85.69
235.583	75.69
235.817	75.69
236.051	79.69
236.285	79.69
236.519	74.69
236.753	72.69
236.987	89.69
237.221	83.69
237.455	76.69
237.689	61.69
237.922	83.69
238.156	58.69
238.39	84.69
238.624	79.69
238.858	78.69
239.091	68.69
239.325	66.69
239.559	76.69
239.793	84.69
240.027	66.69
240.26	73.69
240.494	62.69
240.728	71.69
240.961	69.69
241.195	71.69
241.429	83.69
241.662	82.69
241.896	73.69
242.13	87.69
242.363	70.69
242.597	75.69
242.83	70.69
243.064	76.69
243.298	77.69
243.531	71.69
243.765	83.69
243.998	82.69
244.232	64.69
244.465	75.69
244.699	78.69
244.932	78.69
245.166	60.69
245.399	67.69
245.633	73.69
245.866	71.69
246.099	68.69
246.333	71.69
246.566	72.69
246.8	78.69
247.033	88.69
247.266	85.69
247.5	85.69
247.733	83.69
247.966	71.69
248.2	78.69
248.433	86.69
248.666	72.69
248.899	67.69
249.133	80.69
249.366	84.69
249.599	97.69
249.832	79.69
250.066	75.69
250.299	83.69
250.532	72.69
250.765	75.69
250.998	82.69
251.231	81.69
251.465	73.69
251.698	83.69
251.931	61.69
252.164	86.69
252.397	75.69
252.63	77.69
252.863	77.69
253.096	89.69
253.329	76.69
253.562	74.69
253.795	87.69
254.028	90.69
254.261	70.69
254.494	79.69
254.727	77.69
254.96	79.69
255.193	75.69
255.426	82.69
255.659	67.69
255.892	75.69
256.124	89.69
256.357	74.69
256.59	78.69
256.823	80.69
257.056	84.69
257.289	85.69
257.521	78.69
257.754	79.69
257.987	67.69
258.22	78.69
258.452	100.69
258.685	77.69
258.918	70.69
259.151	79.69
259.383	75.69
259.616	68.69
259.849	83.69
260.081	86.69
260.314	88.69
260.547	71.69
260.779	81.69
261.012	77.69
261.244	76.69
261.477	73.69
261.71	80.69
261.942	93.69
262.175	111.69
262.407	93.69
262.64	89.69
262.872	86.69
263.105	80.69
263.337	106.69
263.57	71.69
263.802	63.69
264.035	85.69
264.267	75.69
264.499	85.69
264.732	87.69
264.964	70.69
265.197	79.69
265.429	76.69
265.661	77.69
265.894	74.69
266.126	87.69
266.358	67.69
266.591	82.69
266.823	86.69
267.055	73.69
267.287	77.69
267.52	79.69
267.752	85.69
267.984	71.69
268.216	79.69
268.448	87.69
268.681	78.69
268.913	74.69
269.145	78.69
269.377	88.69
269.609	72.69
269.841	80.69
270.073	92.69
270.306	73.69
270.538	94.69
270.77	77.69
271.002	83.69
271.234	78.69
271.466	74.69
271.698	98.69
271.93	87.69
272.162	90.69
272.394	95.69
272.626	78.69
272.858	76.69
273.09	73.69
273.322	73.69
273.553	70.69
273.785	76.69
274.017	86.69
274.249	77.69
274.481	89.69
274.713	92.69
274.945	77.69
275.176	78.69
275.408	82.69
275.64	76.69
275.872	77.69
276.104	76.69
276.335	79.69
276.567	110.69
276.799	106.69
277.031	117.69
277.262	111.69
277.494	84.69
277.726	76.69
277.957	85.69
278.189	70.69
278.421	97.69
278.652	94.69
278.884	86.69
279.115	86.69
279.347	85.69
279.579	83.69
279.81	89.69
280.042	101.69
280.273	104.69
280.505	89.69
280.736	84.69
280.968	92.69
281.199	82.69
281.431	74.69
281.662	82.69
281.894	86.69
282.125	91.69
282.356	124.69
282.588	122.69
282.819	108.69
283.051	77.69
283.282	71.69
283.513	81.69
283.745	77.69
283.976	79.69
284.207	73.69
284.439	76.69
284.67	74.69
284.901	78.69
285.132	82.69
285.364	82.69
285.595	92.69
285.826	73.69
286.057	81.69
286.288	85.69
286.52	77.69
286.751	69.69
286.982	88.69
287.213	92.69
287.444	81.69
287.675	77.69
287.906	85.69
288.138	81.69
288.369	85.69
288.6	91.69
288.831	84.69
289.062	74.69
289.293	77.69
289.524	80.69
289.755	81.69
289.986	90.69
290.217	85.69
290.448	81.69
290.679	91.69
290.91	100.69
291.141	77.69
291.371	75.69
291.602	93.69
291.833	79.69
292.064	77.69
292.295	87.69
292.526	83.69
292.757	81.69
292.987	66.69
293.218	82.69
293.449	79.69
293.68	85.69
293.91	86.69
294.141	84.69
294.372	74.69
294.603	78.69
294.833	82.69
295.064	107.69
295.295	73.69
295.525	88.69
295.756	96.69
295.987	115.69
296.217	124.69
296.448	131.69
296.679	84.69
296.909	89.69
297.14	94.69
297.37	83.69
297.601	86.69
297.831	77.69
298.062	87.69
298.292	82.69
298.523	83.69
298.753	85.69
298.984	85.69
299.214	86.69
299.445	91.69
299.675	85.69
299.905	102.69
300.136	76.69
300.366	83.69
300.597	92.69
300.827	109.69
301.057	104.69
301.288	93.69
301.518	98.69
301.748	84.69
301.979	109.69
302.209	81.69
302.439	74.69
302.669	76.69
302.9	83.69
303.13	94.69
303.36	80.69
303.59	100.69
303.82	91.69
304.051	90.69
304.281	86.69
304.511	88.69
304.741	81.69
304.971	82.69
305.201	79.69
305.431	90.69
305.661	87.69
305.891	93.69
306.121	79.69
306.352	88.69
306.582	98.69
306.812	102.69
307.042	89.69
307.272	79.69
307.502	93.69
307.731	108.69
307.961	93.69
308.191	86.69
308.421	84.69
308.651	84.69
308.881	102.69
309.111	89.69
309.341	97.69
309.571	95.69
309.8	89.69
310.03	99.69
310.26	86.69
310.49	107.69
310.72	93.69
310.949	110.69
311.179	90.69
311.409	99.69
311.639	93.69
311.868	89.69
312.098	96.69
312.328	81.69
312.557	95.69
312.787	99.69
313.017	99.69
313.246	87.69
313.476	83.69
313.706	83.69
313.935	84.69
314.165	98.69
314.394	103.69
314.624	90.69
314.853	100.69
315.083	68.69
315.312	82.69
315.542	87.69
315.771	93.69
316.001	77.69
316.23	85.69
316.46	90.69
316.689	90.69
316.919	88.69
317.148	86.69
317.377	67.69
317.607	88.69
317.836	88.69
318.065	88.69
318.295	78.69
318.524	82.69
318.753	94.69
318.983	88.69
319.212	98.69
319.441	93.69
319.67	94.69
319.9	95.69
320.129	85.69
320.358	89.69
320.587	97.69
320.816	92.69
321.046	94.69
321.275	90.69
321.504	91.69
321.733	91.69
321.962	99.69
322.191	93.69
322.42	101.69
322.649	118.69
322.878	104.69
323.108	115.69
323.337	127.69
323.566	122.69
323.795	134.69
324.024	196.69
324.253	385.69
324.482	804.69
324.71	1616.69
324.939	2077.69
325.168	779.69
325.397	224.69
325.626	137.69
325.855	110.69
326.084	117.69
326.313	133.69
326.542	145.69
326.77	216.69
326.999	447.69
327.228	901.69
327.457	1638.69
327.686	1283.69
327.914	387.69
328.143	231.69
328.372	213.69
328.6	148.69
328.829	117.69
329.058	122.69
329.287	123.69
329.515	113.69
329.744	124.69
329.972	154.69
330.201	233.69
330.43	301.69
330.658	191.69
330.887	152.69
331.115	128.69
331.344	87.69
331.572	100.69
331.801	102.69
332.03	119.69
332.258	103.69
332.486	85.69
332.715	96.69
332.943	86.69
333.172	97.69
333.4	103.69
333.629	106.69
333.857	126.69
334.085	163.69
334.314	249.69
334.542	387.69
334.771	343.69
334.999	156.69
335.227	94.69
335.455	94.69
335.684	87.69
335.912	94.69
336.14	109.69
336.369	92.69
336.597	102.69
336.825	92.69
337.053	89.69
337.281	89.69
337.51	84.69
337.738	99.69
337.966	97.69
338.194	93.69
338.422	78.69
338.65	90.69
338.878	93.69
339.106	71.69
339.334	107.69
339.562	92.69
339.79	88.69
340.018	98.69
340.246	78.69
340.474	78.69
340.702	96.69
340.93	90.69
341.158	97.69
341.386	92.69
341.614	107.69
341.842	108.69
342.07	86.69
342.298	95.69
342.526	89.69
342.754	94.69
342.981	74.69
343.209	82.69
343.437	101.69
343.665	88.69
343.893	73.69
344.12	73.69
344.348	96.69
344.576	102.69
344.804	102.69
345.031	94.69
345.259	90.69
345.487	82.69
345.714	79.69
345.942	93.69
346.17	95.69
346.397	92.69
346.625	97.69
346.853	89.69
347.08	89.69
347.308	82.69
347.535	83.69
347.763	91.69
347.99	95.69
348.218	99.69
348.445	88.69
348.673	101.69
348.9	98.69
349.128	95.69
349.355	88.69
349.583	93.69
349.81	97.69
350.037	94.69
350.265	98.69
350.492	100.69
350.72	100.69
350.947	93.69
351.174	102.69
351.402	96.69
351.629	104.69
351.856	90.69
352.083	76.69
352.311	106.69
352.538	113.69
352.765	116.69
352.992	110.69
353.22	110.69
353.447	98.69
353.674	91.69
353.901	83.69
354.128	98.69
354.355	111.69
354.583	89.69
354.81	97.69
355.037	86.69
355.264	99.69
355.491	100.69
355.718	97.69
355.945	114.69
356.172	95.69
356.399	102.69
356.626	92.69
356.853	91.69
357.08	86.69
357.307	85.69
357.534	100.69
357.761	90.69
357.988	90.69
358.215	95.69
358.441	88.69
358.668	87.69
358.895	94.69
359.122	102.69
359.349	86.69
359.576	91.69
359.802	98.69
360.029	95.69
360.256	100.69
360.483	97.69
360.709	85.69
360.936	86.69
361.163	98.69
361.39	98.69
361.616	93.69
361.843	85.69
362.07	91.69
362.296	103.69
362.523	81.69
362.749	83.69
362.976	94.69
363.203	89.69
363.429	92.69
363.656	89.69
363.882	90.69
364.109	86.69
364.335	97.69
364.562	78.69
364.788	76.69
365.015	86.69
365.241	101.69
365.468	114.69
365.694	117.69
365.92	107.69
366.147	87.69
366.373	87.69
366.599	93.69
366.826	90.69
367.052	81.69
367.278	90.69
367.505	87.69
367.731	81.69
367.957	90.69
368.184	79.69
368.41	91.69
368.636	122.69
368.862	107.69
369.089	107.69
369.315	100.69
369.541	93.69
369.767	90.69
369.993	85.69
370.219	83.69
370.445	90.69
370.672	80.69
370.898	87.69
371.124	75.69
371.35	97.69
371.576	96.69
371.802	79.69
372.028	83.69
372.254	87.69
372.48	85.69
372.706	80.69
372.932	92.69
373.158	82.69
373.384	88.69
373.61	93.69
373.835	86.69
374.061	73.69
374.287	104.69
374.513	99.69
374.739	86.69
374.965	94.69
375.191	92.69
375.416	91.69
375.642	75.69
375.868	79.69
376.094	97.69
376.319	83.69
376.545	74.69
376.771	83.69
376.997	70.69
377.222	92.69
377.448	96.69
377.674	86.69
377.899	87.69
378.125	69.69
378.35	88.69
378.576	98.69
378.802	87.69
379.027	91.69
379.253	90.69
379.478	93.69
379.704	93.69
379.929	101.69
380.155	98.69
380.38	91.69
380.606	93.69
380.831	100.69
381.057	90.69
381.282	87.69
381.507	77.69
381.733	86.69
381.958	92.69
382.184	103.69
382.409	104.69
382.634	93.69
382.86	83.69
383.085	100.69
383.31	90.69
383.535	74.69
383.761	93.69
383.986	96.69
384.211	93.69
384.436	86.69
384.662	101.69
384.887	86.69
385.112	85.69
385.337	91.69
385.562	104.69
385.787	111.69
386.013	120.69
386.238	101.69
386.463	102.69
386.688	106.69
386.913	97.69
387.138	88.69
387.363	95.69
387.588	83.69
387.813	88.69
388.038	81.69
388.263	101.69
388.488	85.69
388.713	91.69
388.938	91.69
389.163	73.69
389.387	90.69
389.612	86.69
389.837	95.69
390.062	96.69
390.287	94.69
390.512	85.69
390.736	90.69
390.961	79.69
391.186	81.69
391.411	95.69
391.636	89.69
391.86	71.69
392.085	84.69
392.31	83.69
392.534	82.69
392.759	86.69
392.984	86.69
393.208	74.69
393.433	97.69
393.658	95.69
393.882	97.69
394.107	86.69
394.331	93.69
394.556	84.69
394.78	83.69
395.005	95.69
395.229	85.69
395.454	85.69
395.678	90.69
395.903	94.69
396.127	96.69
396.352	80.69
396.576	91.69
396.801	88.69
397.025	106.69
397.249	93.69
397.474	83.69
397.698	87.69
397.922	86.69
398.147	87.69
398.371	76.69
398.595	77.69
398.82	78.69
399.044	87.69
399.268	81.69
399.492	106.69
399.717	104.69
399.941	88.69
400.165	87.69
400.389	100.69
400.613	78.69
400.837	75.69
401.062	87.69
401.286	74.69
401.51	89.69
401.734	92.69
401.958	91.69
402.182	118.69
402.406	137.69
402.63	109.69
402.854	84.69
403.078	85.69
403.302	80.69
403.526	98.69
403.75	88.69
403.974	80.69
404.198	85.69
404.422	84.69
404.645	79.69
404.869	93.69
405.093	96.69
405.317	110.69
405.541	105.69
405.765	92.69
405.988	113.69
406.212	160.69
406.436	218.69
406.66	143.69
406.883	93.69
407.107	98.69
407.331	82.69
407.555	110.69
407.778	103.69
408.002	94.69
408.226	96.69
408.449	84.69
408.673	93.69
408.896	82.69
409.12	104.69
409.344	81.69
409.567	74.69
409.791	92.69
410.014	90.69
410.238	94.69
410.461	84.69
410.685	91.69
410.908	83.69
411.132	100.69
411.355	96.69
411.578	85.69
411.802	90.69
412.025	87.69
412.249	91.69
412.472	103.69
412.695	96.69
412.919	99.69
413.142	101.69
413.365	83.69
413.589	80.69
413.812	76.69
414.035	79.69
414.258	86.69
414.482	89.69
414.705	100.69
414.928	99.69
415.151	86.69
415.374	82.69
415.597	83.69
415.821	95.69
416.044	76.69
416.267	87.69
416.49	84.69
416.713	81.69
416.936	86.69
417.159	90.69
417.382	75.69
417.605	93.69
417.828	89.69
418.051	89.69
418.274	98.69
418.497	85.69
418.72	92.69
418.943	75.69
419.166	79.69
419.389	89.69
419.611	82.69
419.834	93.69
420.057	70.69
420.28	82.69
420.503	90.69
420.726	85.69
420.948	79.69
421.171	99.69
421.394	74.69
421.617	83.69
421.839	98.69
422.062	87.69
422.285	99.69
422.507	107.69
422.73	97.69
422.953	89.69
423.175	89.69
423.398	75.69
423.621	89.69
423.843	84.69
424.066	84.69
424.288	83.69
424.511	95.69
424.733	94.69
424.956	102.69
425.178	94.69
425.401	96.69
425.623	98.69
425.846	80.69
426.068	87.69
426.291	78.69
426.513	71.69
426.735	90.69
426.958	100.69
427.18	106.69
427.402	129.69
427.625	173.69
427.847	147.69
428.069	141.69
428.292	102.69
428.514	91.69
428.736	88.69
428.958	98.69
429.181	72.69
429.403	92.69
429.625	95.69
429.847	82.69
430.069	86.69
430.292	86.69
430.514	86.69
430.736	79.69
430.958	93.69
431.18	86.69
431.402	87.69
431.624	91.69
431.846	81.69
432.068	84.69
432.29	90.69
432.512	86.69
432.734	91.69
432.956	79.69
433.178	90.69
433.4	98.69
433.622	89.69
433.844	92.69
434.066	98.69
434.287	106.69
434.509	95.69
434.731	86.69
434.953	91.69
435.175	75.69
435.397	75.69
435.618	89.69
435.84	98.69
436.062	114.69
436.284	122.69
436.505	103.69
436.727	105.69
436.949	82.69
437.17	81.69
437.392	89.69
437.614	72.69
437.835	103.69
438.057	113.69
438.278	113.69
438.5	98.69
438.721	125.69
438.943	97.69
439.165	78.69
439.386	71.69
439.608	79.69
439.829	92.69
440.05	113.69
440.272	157.69
440.493	98.69
440.715	69.69
440.936	86.69
441.158	78.69
441.379	75.69
441.6	85.69
441.822	89.69
442.043	81.69
442.264	107.69
442.486	112.69
442.707	86.69
442.928	99.69
443.149	130.69
443.371	133.69
443.592	89.69
443.813	97.69
444.034	111.69
444.255	101.69
444.476	87.69
444.698	73.69
444.919	81.69
445.14	131.69
445.361	127.69
445.582	96.69
445.803	131.69
446.024	133.69
446.245	137.69
446.466	115.69
446.687	83.69
446.908	90.69
447.129	90.69
447.35	76.69
447.571	92.69
447.792	79.69
448.013	101.69
448.234	108.69
448.455	97.69
448.675	90.69
448.896	123.69
449.117	101.69
449.338	101.69
449.559	116.69
449.779	126.69
450	89.69
450.221	84.69
450.442	87.69
450.662	85.69
450.883	101.69
451.104	92.69
451.324	98.69
451.545	74.69
451.766	82.69
451.986	83.69
452.207	75.69
452.428	85.69
452.648	90.69
452.869	110.69
453.089	91.69
453.31	103.69
453.53	95.69
453.751	90.69
453.971	95.69
454.192	106.69
454.412	86.69
454.633	86.69
454.853	77.69
455.073	83.69
455.294	83.69
455.514	79.69
455.734	92.69
455.955	84.69
456.175	90.69
456.395	85.69
456.616	81.69
456.836	77.69
457.056	93.69
457.276	91.69
457.497	81.69
457.717	83.69
457.937	76.69
458.157	68.69
458.377	86.69
458.598	110.69
458.818	148.69
459.038	138.69
459.258	122.69
459.478	86.69
459.698	85.69
459.918	80.69
460.138	88.69
460.358	89.69
460.578	79.69
460.798	80.69
461.018	89.69
461.238	88.69
461.458	78.69
461.678	91.69
461.898	73.69
462.118	81.69
462.338	90.69
462.558	87.69
462.777	94.69
462.997	90.69
463.217	86.69
463.437	89.69
463.657	82.69
463.876	94.69
464.096	81.69
464.316	95.69
464.536	95.69
464.755	87.69
464.975	113.69
465.195	155.69
465.414	150.69
465.634	95.69
465.854	68.69
466.073	81.69
466.293	82.69
466.512	87.69
466.732	76.69
466.951	90.69
467.171	102.69
467.391	79.69
467.61	90.69
467.829	105.69
468.049	156.69
468.268	201.69
468.488	111.69
468.707	90.69
468.927	84.69
469.146	71.69
469.365	75.69
469.585	87.69
469.804	90.69
470.023	93.69
470.243	83.69
470.462	88.69
470.681	100.69
470.901	84.69
471.12	86.69
471.339	76.69
471.558	81.69
471.777	87.69
471.997	127.69
472.216	265.69
472.435	472.69
472.654	169.69
472.873	89.69
473.092	78.69
473.311	75.69
473.53	78.69
473.749	86.69
473.968	89.69
474.187	103.69
474.406	99.69
474.625	97.69
474.844	85.69
475.063	82.69
475.282	82.69
475.501	101.69
475.72	99.69
475.939	75.69
476.158	75.69
476.377	93.69
476.596	77.69
476.814	82.69
477.033	80.69
477.252	81.69
477.471	75.69
477.69	89.69
477.908	86.69
478.127	85.69
478.346	82.69
478.564	88.69
478.783	94.69
479.002	93.69
479.22	83.69
479.439	90.69
479.658	90.69
479.876	109.69
480.095	76.69
480.313	77.69
480.532	92.69
480.751	107.69
480.969	264.69
481.188	807.69
481.406	515.69
481.624	133.69
481.843	95.69
482.061	89.69
482.28	105.69
482.498	97.69
482.717	85.69
482.935	63.69
483.153	81.69
483.372	82.69
483.59	90.69
483.808	92.69
484.027	99.69
484.245	84.69
484.463	89.69
484.681	93.69
484.9	81.69
485.118	76.69
485.336	82.69
485.554	97.69
485.772	100.69
485.99	92.69
486.209	86.69
486.427	85.69
486.645	91.69
486.863	99.69
487.081	92.69
487.299	83.69
487.517	80.69
487.735	94.69
487.953	94.69
488.171	78.69
488.389	94.69
488.607	98.69
488.825	92.69
489.043	89.69
489.261	82.69
489.479	93.69
489.696	102.69
489.914	93.69
490.132	92.69
490.35	91.69
490.568	88.69
490.786	94.69
491.003	88.69
491.221	77.69
491.439	94.69
491.657	85.69
491.874	84.69
492.092	84.69
492.31	77.69
492.527	91.69
492.745	97.69
492.963	83.69
493.18	76.69
493.398	86.69
493.615	86.69
493.833	89.69
494.05	85.69
494.268	88.69
494.485	79.69
494.703	90.69
494.92	100.69
495.138	82.69
495.355	77.69
495.573	100.69
495.79	79.69
496.008	87.69
496.225	83.69
496.442	82.69
496.66	89.69
496.877	89.69
497.094	88.69
497.312	83.69
497.529	90.69
497.746	71.69
497.963	79.69
498.181	99.69
498.398	78.69
498.615	91.69
498.832	101.69
499.049	87.69
499.267	78.69
499.484	91.69
499.701	93.69
499.918	89.69
500.135	102.69
500.352	81.69
500.569	88.69
500.786	93.69
501.003	69.69
501.22	76.69
501.437	102.69
501.654	99.69
501.871	93.69
502.088	104.69
502.305	91.69
502.522	73.69
502.739	94.69
502.956	95.69
503.172	98.69
503.389	98.69
503.606	116.69
503.823	93.69
504.04	90.69
504.256	84.69
504.473	82.69
504.69	81.69
504.907	87.69
505.123	79.69
505.34	73.69
505.557	87.69
505.773	85.69
505.99	74.69
506.207	78.69
506.423	83.69
506.64	89.69
506.856	72.69
507.073	85.69
507.289	78.69
507.506	91.69
507.722	109.69
507.939	99.69
508.155	100.69
508.372	91.69
508.588	104.69
508.805	88.69
509.021	98.69
509.238	99.69
509.454	97.69
509.67	92.69
509.887	103.69
510.103	137.69
510.319	200.69
510.536	673.69
510.752	2080.69
510.968	624.69
511.184	156.69
511.401	119.69
511.617	104.69
511.833	90.69
512.049	84.69
512.265	93.69
512.481	92.69
512.698	96.69
512.914	91.69
513.13	84.69
513.346	94.69
513.562	92.69
513.778	75.69
513.994	87.69
514.21	87.69
514.426	93.69
514.642	130.69
514.858	123.69
515.074	164.69
515.29	418.69
515.506	1372.69
515.721	538.69
515.937	145.69
516.153	115.69
516.369	100.69
516.585	91.69
