Data from Circ_2010_H10_HRD10591_00080.txt Node
Date: Wed Jan 03 10:09:57 EST 2024
User: Yrep
Spectrometer: HR+D1059
Trigger mode: 1
Integration Time (sec): 1.000000E-1
Scans to average: 1
Electric dark correction enabled: true
Nonlinearity correction enabled: false
Boxcar width: 0
XAxis mode: Wavelengths
Number of Pixels in Spectrum: 2048
>>>>>Begin Spectral Data<<<<<
223.165	-10.31
223.4	-10.31
223.635	-10.31
223.869	-29.31
224.104	-16.31
224.338	-11.31
224.573	-21.31
224.808	-16.31
225.042	-0.31
225.277	5.69
225.511	-6.31
225.746	21.69
225.98	-6.31
226.215	17.69
226.449	11.69
226.683	13.69
226.918	21.69
227.152	25.69
227.387	24.69
227.621	37.69
227.856	47.69
228.09	62.69
228.324	50.69
228.559	61.69
228.793	49.69
229.027	49.69
229.262	63.69
229.496	76.69
229.73	66.69
229.964	67.69
230.199	67.69
230.433	80.69
230.667	78.69
230.901	77.69
231.136	75.69
231.37	70.69
231.604	82.69
231.838	73.69
232.072	87.69
232.306	73.69
232.541	74.69
232.775	74.69
233.009	65.69
233.243	76.69
233.477	86.69
233.711	80.69
233.945	82.69
234.179	79.69
234.413	84.69
234.647	85.69
234.881	74.69
235.115	83.69
235.349	61.69
235.583	72.69
235.817	65.69
236.051	66.69
236.285	85.69
236.519	82.69
236.753	86.69
236.987	59.69
237.221	65.69
237.455	64.69
237.689	82.69
237.922	72.69
238.156	71.69
238.39	75.69
238.624	62.69
238.858	74.69
239.091	83.69
239.325	74.69
239.559	74.69
239.793	66.69
240.027	72.69
240.26	77.69
240.494	70.69
240.728	62.69
240.961	76.69
241.195	67.69
241.429	75.69
241.662	75.69
241.896	81.69
242.13	73.69
242.363	71.69
242.597	72.69
242.83	84.69
243.064	74.69
243.298	67.69
243.531	69.69
243.765	80.69
243.998	77.69
244.232	86.69
244.465	78.69
244.699	74.69
244.932	90.69
245.166	70.69
245.399	71.69
245.633	71.69
245.866	83.69
246.099	63.69
246.333	69.69
246.566	75.69
246.8	69.69
247.033	79.69
247.266	78.69
247.5	85.69
247.733	79.69
247.966	75.69
248.2	65.69
248.433	59.69
248.666	69.69
248.899	81.69
249.133	77.69
249.366	87.69
249.599	94.69
249.832	90.69
250.066	90.69
250.299	70.69
250.532	70.69
250.765	70.69
250.998	86.69
251.231	72.69
251.465	87.69
251.698	71.69
251.931	73.69
252.164	72.69
252.397	76.69
252.63	66.69
252.863	72.69
253.096	85.69
253.329	90.69
253.562	82.69
253.795	74.69
254.028	78.69
254.261	78.69
254.494	90.69
254.727	80.69
254.96	69.69
255.193	69.69
255.426	89.69
255.659	81.69
255.892	79.69
256.124	84.69
256.357	82.69
256.59	89.69
256.823	79.69
257.056	73.69
257.289	74.69
257.521	75.69
257.754	79.69
257.987	85.69
258.22	84.69
258.452	77.69
258.685	90.69
258.918	90.69
259.151	71.69
259.383	68.69
259.616	82.69
259.849	79.69
260.081	83.69
260.314	85.69
260.547	78.69
260.779	81.69
261.012	82.69
261.244	91.69
261.477	83.69
261.71	81.69
261.942	115.69
262.175	92.69
262.407	79.69
262.64	78.69
262.872	77.69
263.105	83.69
263.337	85.69
263.57	69.69
263.802	80.69
264.035	84.69
264.267	84.69
264.499	77.69
264.732	76.69
264.964	78.69
265.197	86.69
265.429	78.69
265.661	69.69
265.894	86.69
266.126	81.69
266.358	71.69
266.591	83.69
266.823	84.69
267.055	78.69
267.287	87.69
267.52	82.69
267.752	79.69
267.984	75.69
268.216	80.69
268.448	92.69
268.681	88.69
268.913	87.69
269.145	79.69
269.377	79.69
269.609	81.69
269.841	78.69
270.073	83.69
270.306	62.69
270.538	76.69
270.77	78.69
271.002	83.69
271.234	76.69
271.466	88.69
271.698	79.69
271.93	93.69
272.162	68.69
272.394	85.69
272.626	75.69
272.858	84.69
273.09	62.69
273.322	79.69
273.553	82.69
273.785	81.69
274.017	72.69
274.249	85.69
274.481	78.69
274.713	90.69
274.945	84.69
275.176	94.69
275.408	87.69
275.64	92.69
275.872	73.69
276.104	85.69
276.335	83.69
276.567	101.69
276.799	110.69
277.031	97.69
277.262	102.69
277.494	82.69
277.726	95.69
277.957	93.69
278.189	75.69
278.421	82.69
278.652	76.69
278.884	73.69
279.115	76.69
279.347	76.69
279.579	88.69
279.81	89.69
280.042	93.69
280.273	102.69
280.505	93.69
280.736	71.69
280.968	76.69
281.199	77.69
281.431	82.69
281.662	76.69
281.894	86.69
282.125	108.69
282.356	123.69
282.588	122.69
282.819	108.69
283.051	91.69
283.282	76.69
283.513	93.69
283.745	92.69
283.976	74.69
284.207	76.69
284.439	94.69
284.67	96.69
284.901	85.69
285.132	74.69
285.364	91.69
285.595	69.69
285.826	84.69
286.057	78.69
286.288	80.69
286.52	81.69
286.751	72.69
286.982	75.69
287.213	82.69
287.444	93.69
287.675	83.69
287.906	84.69
288.138	72.69
288.369	91.69
288.6	90.69
288.831	93.69
289.062	88.69
289.293	91.69
289.524	80.69
289.755	88.69
289.986	90.69
290.217	99.69
290.448	78.69
290.679	76.69
290.91	92.69
291.141	86.69
291.371	68.69
291.602	70.69
291.833	73.69
292.064	76.69
292.295	80.69
292.526	91.69
292.757	78.69
292.987	75.69
293.218	74.69
293.449	81.69
293.68	84.69
293.91	78.69
294.141	85.69
294.372	81.69
294.603	87.69
294.833	92.69
295.064	93.69
295.295	79.69
295.525	73.69
295.756	88.69
295.987	107.69
296.217	132.69
296.448	104.69
296.679	84.69
296.909	88.69
297.14	85.69
297.37	95.69
297.601	86.69
297.831	79.69
298.062	89.69
298.292	87.69
298.523	89.69
298.753	83.69
298.984	78.69
299.214	96.69
299.445	84.69
299.675	97.69
299.905	89.69
300.136	90.69
300.366	92.69
300.597	99.69
300.827	92.69
301.057	79.69
301.288	96.69
301.518	69.69
301.748	89.69
301.979	83.69
302.209	91.69
302.439	76.69
302.669	65.69
302.9	77.69
303.13	79.69
303.36	87.69
303.59	97.69
303.82	99.69
304.051	93.69
304.281	85.69
304.511	100.69
304.741	92.69
304.971	81.69
305.201	79.69
305.431	85.69
305.661	80.69
305.891	79.69
306.121	102.69
306.352	114.69
306.582	101.69
306.812	95.69
307.042	118.69
307.272	95.69
307.502	107.69
307.731	90.69
307.961	98.69
308.191	79.69
308.421	92.69
308.651	85.69
308.881	100.69
309.111	91.69
309.341	97.69
309.571	77.69
309.8	86.69
310.03	94.69
310.26	93.69
310.49	84.69
310.72	102.69
310.949	88.69
311.179	92.69
311.409	82.69
311.639	93.69
311.868	86.69
312.098	89.69
312.328	73.69
312.557	106.69
312.787	106.69
313.017	102.69
313.246	84.69
313.476	90.69
313.706	80.69
313.935	88.69
314.165	108.69
314.394	91.69
314.624	79.69
314.853	79.69
315.083	91.69
315.312	88.69
315.542	84.69
315.771	86.69
316.001	86.69
316.23	92.69
316.46	87.69
316.689	79.69
316.919	83.69
317.148	86.69
317.377	89.69
317.607	86.69
317.836	88.69
318.065	85.69
318.295	98.69
318.524	94.69
318.753	85.69
318.983	88.69
319.212	97.69
319.441	116.69
319.67	100.69
319.9	96.69
320.129	93.69
320.358	82.69
320.587	84.69
320.816	95.69
321.046	102.69
321.275	84.69
321.504	97.69
321.733	87.69
321.962	90.69
322.191	90.69
322.42	110.69
322.649	86.69
322.878	89.69
323.108	109.69
323.337	117.69
323.566	126.69
323.795	137.69
324.024	193.69
324.253	335.69
324.482	704.69
324.71	1406.69
324.939	1863.69
325.168	703.69
325.397	202.69
325.626	135.69
325.855	133.69
326.084	126.69
326.313	131.69
326.542	137.69
326.77	211.69
326.999	402.69
327.228	794.69
327.457	1479.69
327.686	1171.69
327.914	343.69
328.143	231.69
328.372	209.69
328.6	143.69
328.829	109.69
329.058	107.69
329.287	118.69
329.515	107.69
329.744	119.69
329.972	174.69
330.201	241.69
330.43	309.69
330.658	189.69
330.887	134.69
331.115	113.69
331.344	104.69
331.572	101.69
331.801	104.69
332.03	92.69
332.258	90.69
332.486	83.69
332.715	82.69
332.943	98.69
333.172	101.69
333.4	96.69
333.629	106.69
333.857	125.69
334.085	169.69
334.314	242.69
334.542	404.69
334.771	383.69
334.999	137.69
335.227	105.69
335.455	93.69
335.684	94.69
335.912	106.69
336.14	87.69
336.369	95.69
336.597	94.69
336.825	79.69
337.053	79.69
337.281	97.69
337.51	91.69
337.738	87.69
337.966	86.69
338.194	87.69
338.422	87.69
338.65	102.69
338.878	98.69
339.106	86.69
339.334	99.69
339.562	85.69
339.79	89.69
340.018	88.69
340.246	77.69
340.474	94.69
340.702	90.69
340.93	87.69
341.158	93.69
341.386	79.69
341.614	104.69
341.842	80.69
342.07	78.69
342.298	84.69
342.526	77.69
342.754	99.69
342.981	100.69
343.209	83.69
343.437	88.69
343.665	78.69
343.893	87.69
344.12	79.69
344.348	87.69
344.576	87.69
344.804	81.69
345.031	88.69
345.259	96.69
345.487	101.69
345.714	91.69
345.942	93.69
346.17	105.69
346.397	98.69
346.625	86.69
346.853	75.69
347.08	90.69
347.308	94.69
347.535	103.69
347.763	101.69
347.99	109.69
348.218	90.69
348.445	89.69
348.673	87.69
348.9	94.69
349.128	105.69
349.355	85.69
349.583	96.69
349.81	97.69
350.037	106.69
350.265	84.69
350.492	95.69
350.72	94.69
350.947	96.69
351.174	108.69
351.402	109.69
351.629	99.69
351.856	99.69
352.083	101.69
352.311	82.69
352.538	107.69
352.765	100.69
352.992	100.69
353.22	105.69
353.447	110.69
353.674	87.69
353.901	94.69
354.128	89.69
354.355	90.69
354.583	90.69
354.81	81.69
355.037	94.69
355.264	90.69
355.491	87.69
355.718	95.69
355.945	87.69
356.172	95.69
356.399	98.69
356.626	93.69
356.853	81.69
357.08	94.69
357.307	100.69
357.534	98.69
357.761	77.69
357.988	94.69
358.215	88.69
358.441	93.69
358.668	94.69
358.895	84.69
359.122	80.69
359.349	99.69
359.576	95.69
359.802	91.69
360.029	112.69
360.256	106.69
360.483	80.69
360.709	98.69
360.936	88.69
361.163	90.69
361.39	89.69
361.616	95.69
361.843	99.69
362.07	78.69
362.296	88.69
362.523	99.69
362.749	98.69
362.976	84.69
363.203	100.69
363.429	84.69
363.656	87.69
363.882	89.69
364.109	86.69
364.335	92.69
364.562	88.69
364.788	97.69
365.015	92.69
365.241	83.69
365.468	101.69
365.694	106.69
365.92	99.69
366.147	82.69
366.373	87.69
366.599	79.69
366.826	81.69
367.052	88.69
367.278	101.69
367.505	88.69
367.731	84.69
367.957	70.69
368.184	94.69
368.41	85.69
368.636	102.69
368.862	119.69
369.089	88.69
369.315	92.69
369.541	82.69
369.767	78.69
369.993	95.69
370.219	94.69
370.445	87.69
370.672	97.69
370.898	86.69
371.124	88.69
371.35	66.69
371.576	75.69
371.802	69.69
372.028	91.69
372.254	79.69
372.48	94.69
372.706	77.69
372.932	73.69
373.158	79.69
373.384	72.69
373.61	83.69
373.835	85.69
374.061	78.69
374.287	86.69
374.513	93.69
374.739	94.69
374.965	91.69
375.191	78.69
375.416	91.69
375.642	91.69
375.868	85.69
376.094	87.69
376.319	77.69
376.545	86.69
376.771	82.69
376.997	85.69
377.222	92.69
377.448	76.69
377.674	85.69
377.899	85.69
378.125	78.69
378.35	89.69
378.576	83.69
378.802	87.69
379.027	92.69
379.253	102.69
379.478	84.69
379.704	88.69
379.929	77.69
380.155	94.69
380.38	88.69
380.606	90.69
380.831	78.69
381.057	89.69
381.282	113.69
381.507	99.69
381.733	92.69
381.958	77.69
382.184	89.69
382.409	100.69
382.634	98.69
382.86	79.69
383.085	86.69
383.31	99.69
383.535	83.69
383.761	94.69
383.986	108.69
384.211	88.69
384.436	96.69
384.662	89.69
384.887	96.69
385.112	103.69
385.337	94.69
385.562	106.69
385.787	92.69
386.013	109.69
386.238	103.69
386.463	96.69
386.688	102.69
386.913	89.69
387.138	100.69
387.363	74.69
387.588	97.69
387.813	92.69
388.038	99.69
388.263	99.69
388.488	104.69
388.713	101.69
388.938	76.69
389.163	74.69
389.387	84.69
389.612	90.69
389.837	86.69
390.062	91.69
390.287	80.69
390.512	85.69
390.736	85.69
390.961	84.69
391.186	96.69
391.411	95.69
391.636	106.69
391.86	82.69
392.085	76.69
392.31	90.69
392.534	79.69
392.759	90.69
392.984	92.69
393.208	83.69
393.433	86.69
393.658	82.69
393.882	84.69
394.107	85.69
394.331	103.69
394.556	93.69
394.78	90.69
395.005	86.69
395.229	76.69
395.454	92.69
395.678	83.69
395.903	82.69
396.127	81.69
396.352	105.69
396.576	89.69
396.801	78.69
397.025	89.69
397.249	78.69
397.474	81.69
397.698	89.69
397.922	80.69
398.147	86.69
398.371	86.69
398.595	94.69
398.82	69.69
399.044	67.69
399.268	75.69
399.492	91.69
399.717	79.69
399.941	72.69
400.165	77.69
400.389	103.69
400.613	90.69
400.837	89.69
401.062	79.69
401.286	86.69
401.51	96.69
401.734	87.69
401.958	77.69
402.182	100.69
402.406	133.69
402.63	107.69
402.854	91.69
403.078	102.69
403.302	100.69
403.526	93.69
403.75	82.69
403.974	88.69
404.198	79.69
404.422	77.69
404.645	82.69
404.869	85.69
405.093	87.69
405.317	104.69
405.541	106.69
405.765	87.69
405.988	108.69
406.212	150.69
406.436	191.69
406.66	125.69
406.883	103.69
407.107	90.69
407.331	92.69
407.555	100.69
407.778	86.69
408.002	88.69
408.226	75.69
408.449	72.69
408.673	73.69
408.896	73.69
409.12	93.69
409.344	98.69
409.567	104.69
409.791	95.69
410.014	95.69
410.238	99.69
410.461	85.69
410.685	104.69
410.908	91.69
411.132	88.69
411.355	105.69
411.578	92.69
411.802	92.69
412.025	71.69
412.249	99.69
412.472	95.69
412.695	103.69
412.919	92.69
413.142	81.69
413.365	89.69
413.589	91.69
413.812	79.69
414.035	69.69
414.258	87.69
414.482	84.69
414.705	93.69
414.928	95.69
415.151	98.69
415.374	92.69
415.597	90.69
415.821	98.69
416.044	74.69
416.267	81.69
416.49	88.69
416.713	89.69
416.936	85.69
417.159	78.69
417.382	90.69
417.605	102.69
417.828	89.69
418.051	81.69
418.274	101.69
418.497	83.69
418.72	91.69
418.943	86.69
419.166	110.69
419.389	90.69
419.611	100.69
419.834	100.69
420.057	91.69
420.28	86.69
420.503	78.69
420.726	78.69
420.948	98.69
421.171	100.69
421.394	90.69
421.617	90.69
421.839	89.69
422.062	102.69
422.285	81.69
422.507	78.69
422.73	93.69
422.953	99.69
423.175	83.69
423.398	95.69
423.621	99.69
423.843	88.69
424.066	85.69
424.288	101.69
424.511	82.69
424.733	97.69
424.956	83.69
425.178	99.69
425.401	102.69
425.623	81.69
425.846	91.69
426.068	90.69
426.291	88.69
426.513	83.69
426.735	78.69
426.958	82.69
427.18	97.69
427.402	120.69
427.625	148.69
427.847	150.69
428.069	125.69
428.292	93.69
428.514	79.69
428.736	94.69
428.958	75.69
429.181	85.69
429.403	79.69
429.625	85.69
429.847	79.69
430.069	94.69
430.292	77.69
430.514	73.69
430.736	79.69
430.958	80.69
431.18	81.69
431.402	82.69
431.624	83.69
431.846	90.69
432.068	78.69
432.29	79.69
432.512	84.69
432.734	81.69
432.956	88.69
433.178	92.69
433.4	91.69
433.622	78.69
433.844	97.69
434.066	89.69
434.287	94.69
434.509	87.69
434.731	89.69
434.953	78.69
435.175	85.69
435.397	101.69
435.618	97.69
435.84	97.69
436.062	119.69
436.284	99.69
436.505	104.69
436.727	107.69
436.949	99.69
437.17	79.69
437.392	74.69
437.614	77.69
437.835	83.69
438.057	94.69
438.278	98.69
438.5	94.69
438.721	87.69
438.943	90.69
439.165	78.69
439.386	89.69
439.608	87.69
439.829	86.69
440.05	109.69
440.272	134.69
440.493	100.69
440.715	78.69
440.936	75.69
441.158	92.69
441.379	82.69
441.6	78.69
441.822	79.69
442.043	89.69
442.264	106.69
442.486	88.69
442.707	86.69
442.928	97.69
443.149	114.69
443.371	107.69
443.592	99.69
443.813	107.69
444.034	115.69
444.255	82.69
444.476	79.69
444.698	74.69
444.919	82.69
445.14	122.69
445.361	127.69
445.582	92.69
445.803	132.69
446.024	121.69
446.245	132.69
446.466	100.69
446.687	77.69
446.908	84.69
447.129	71.69
447.35	85.69
447.571	89.69
447.792	85.69
448.013	83.69
448.234	115.69
448.455	92.69
448.675	106.69
448.896	106.69
449.117	89.69
449.338	93.69
449.559	116.69
449.779	122.69
450	93.69
450.221	85.69
450.442	91.69
450.662	80.69
450.883	108.69
451.104	94.69
451.324	90.69
451.545	76.69
451.766	84.69
451.986	76.69
452.207	79.69
452.428	81.69
452.648	89.69
452.869	94.69
453.089	84.69
453.31	100.69
453.53	79.69
453.751	91.69
453.971	104.69
454.192	102.69
454.412	78.69
454.633	84.69
454.853	75.69
455.073	78.69
455.294	86.69
455.514	97.69
455.734	74.69
455.955	71.69
456.175	81.69
456.395	72.69
456.616	75.69
456.836	78.69
457.056	70.69
457.276	80.69
457.497	79.69
457.717	71.69
457.937	87.69
458.157	78.69
458.377	88.69
458.598	95.69
458.818	143.69
459.038	148.69
459.258	97.69
459.478	86.69
459.698	78.69
459.918	82.69
460.138	81.69
460.358	73.69
460.578	93.69
460.798	88.69
461.018	85.69
461.238	100.69
461.458	76.69
461.678	82.69
461.898	87.69
462.118	70.69
462.338	78.69
462.558	80.69
462.777	59.69
462.997	74.69
463.217	86.69
463.437	83.69
463.657	78.69
463.876	85.69
464.096	99.69
464.316	91.69
464.536	83.69
464.755	88.69
464.975	100.69
465.195	141.69
465.414	132.69
465.634	85.69
465.854	78.69
466.073	91.69
466.293	80.69
466.512	84.69
466.732	92.69
466.951	82.69
467.171	82.69
467.391	86.69
467.61	85.69
467.829	127.69
468.049	165.69
468.268	212.69
468.488	82.69
468.707	83.69
468.927	92.69
469.146	82.69
469.365	75.69
469.585	93.69
469.804	91.69
470.023	92.69
470.243	79.69
470.462	86.69
470.681	92.69
470.901	81.69
471.12	92.69
471.339	98.69
471.558	93.69
471.777	99.69
471.997	129.69
472.216	299.69
472.435	541.69
472.654	178.69
472.873	94.69
473.092	101.69
473.311	95.69
473.53	84.69
473.749	89.69
473.968	90.69
474.187	103.69
474.406	98.69
474.625	94.69
474.844	85.69
475.063	79.69
475.282	82.69
475.501	83.69
475.72	75.69
475.939	86.69
476.158	86.69
476.377	78.69
476.596	71.69
476.814	87.69
477.033	104.69
477.252	82.69
477.471	82.69
477.69	84.69
477.908	86.69
478.127	84.69
478.346	91.69
478.564	73.69
478.783	86.69
479.002	82.69
479.22	87.69
479.439	90.69
479.658	102.69
479.876	92.69
480.095	92.69
480.313	110.69
480.532	102.69
480.751	124.69
480.969	284.69
481.188	907.69
481.406	574.69
481.624	147.69
481.843	89.69
482.061	83.69
482.28	87.69
482.498	92.69
482.717	95.69
482.935	92.69
483.153	90.69
483.372	85.69
483.59	76.69
483.808	87.69
484.027	87.69
484.245	75.69
484.463	76.69
484.681	110.69
484.9	93.69
485.118	84.69
485.336	94.69
485.554	100.69
485.772	96.69
485.99	99.69
486.209	94.69
486.427	91.69
486.645	96.69
486.863	105.69
487.081	85.69
487.299	91.69
487.517	86.69
487.735	93.69
487.953	89.69
488.171	93.69
488.389	76.69
488.607	86.69
488.825	91.69
489.043	82.69
489.261	95.69
489.479	94.69
489.696	83.69
489.914	84.69
490.132	82.69
490.35	87.69
490.568	77.69
490.786	84.69
491.003	73.69
491.221	86.69
491.439	106.69
491.657	93.69
491.874	85.69
492.092	98.69
492.31	97.69
492.527	77.69
492.745	96.69
492.963	91.69
493.18	81.69
493.398	99.69
493.615	95.69
493.833	79.69
494.05	87.69
494.268	70.69
494.485	92.69
494.703	78.69
494.92	84.69
495.138	73.69
495.355	81.69
495.573	89.69
495.79	86.69
496.008	94.69
496.225	85.69
496.442	96.69
496.66	98.69
496.877	95.69
497.094	87.69
497.312	102.69
497.529	86.69
497.746	73.69
497.963	88.69
498.181	93.69
498.398	98.69
498.615	110.69
498.832	99.69
499.049	78.69
499.267	92.69
499.484	74.69
499.701	100.69
499.918	83.69
500.135	87.69
500.352	80.69
500.569	79.69
500.786	92.69
501.003	78.69
501.22	84.69
501.437	85.69
501.654	87.69
501.871	96.69
502.088	85.69
502.305	91.69
502.522	96.69
502.739	83.69
502.956	93.69
503.172	86.69
503.389	86.69
503.606	86.69
503.823	106.69
504.04	96.69
504.256	89.69
504.473	76.69
504.69	90.69
504.907	91.69
505.123	97.69
505.34	88.69
505.557	87.69
505.773	97.69
505.99	78.69
506.207	100.69
506.423	72.69
506.64	91.69
506.856	83.69
507.073	98.69
507.289	83.69
507.506	87.69
507.722	106.69
507.939	108.69
508.155	96.69
508.372	94.69
508.588	86.69
508.805	93.69
509.021	94.69
509.238	81.69
509.454	97.69
509.67	99.69
509.887	107.69
510.103	128.69
510.319	177.69
510.536	608.69
510.752	1872.69
510.968	546.69
511.184	135.69
511.401	115.69
511.617	91.69
511.833	95.69
512.049	96.69
512.265	88.69
512.481	90.69
512.698	89.69
512.914	93.69
513.13	98.69
513.346	76.69
513.562	101.69
513.778	88.69
513.994	98.69
514.21	108.69
514.426	107.69
514.642	127.69
514.858	113.69
515.074	143.69
515.29	345.69
515.506	1178.69
515.721	468.69
515.937	145.69
516.153	102.69
516.369	98.69
516.585	77.69
516.801	97.69
