Data from Circ_2010_H10_HRD10591_00018.txt Node
Date: Wed Jan 03 10:09:44 EST 2024
User: Yrep
Spectrometer: HR+D1059
Trigger mode: 1
Integration Time (sec): 1.000000E-1
Scans to average: 1
Electric dark correction enabled: true
Nonlinearity correction enabled: false
Boxcar width: 0
XAxis mode: Wavelengths
Number of Pixels in Spectrum: 2048
>>>>>Begin Spectral Data<<<<<
223.165	-13.25
223.4	-13.25
223.635	-13.25
223.869	-17.25
224.104	-7.25
224.338	-8.25
224.573	-5.25
224.808	-24.25
225.042	-19.25
225.277	-8.25
225.511	-1.25
225.746	-12.25
225.98	-1.25
226.215	18.75
226.449	11.75
226.683	9.75
226.918	36.75
227.152	40.75
227.387	47.75
227.621	45.75
227.856	46.75
228.09	53.75
228.324	40.75
228.559	52.75
228.793	54.75
229.027	62.75
229.262	58.75
229.496	86.75
229.73	77.75
229.964	81.75
230.199	75.75
230.433	56.75
230.667	79.75
230.901	74.75
231.136	72.75
231.37	76.75
231.604	75.75
231.838	85.75
232.072	74.75
232.306	82.75
232.541	73.75
232.775	76.75
233.009	72.75
233.243	84.75
233.477	71.75
233.711	77.75
233.945	78.75
234.179	85.75
234.413	80.75
234.647	91.75
234.881	63.75
235.115	84.75
235.349	81.75
235.583	78.75
235.817	70.75
236.051	77.75
236.285	84.75
236.519	72.75
236.753	87.75
236.987	71.75
237.221	85.75
237.455	85.75
237.689	73.75
237.922	69.75
238.156	84.75
238.39	92.75
238.624	89.75
238.858	71.75
239.091	84.75
239.325	74.75
239.559	71.75
239.793	77.75
240.027	85.75
240.26	74.75
240.494	73.75
240.728	78.75
240.961	80.75
241.195	69.75
241.429	72.75
241.662	92.75
241.896	91.75
242.13	69.75
242.363	82.75
242.597	85.75
242.83	81.75
243.064	84.75
243.298	87.75
243.531	94.75
243.765	79.75
243.998	76.75
244.232	94.75
244.465	82.75
244.699	74.75
244.932	75.75
245.166	83.75
245.399	81.75
245.633	69.75
245.866	84.75
246.099	78.75
246.333	73.75
246.566	71.75
246.8	63.75
247.033	77.75
247.266	76.75
247.5	60.75
247.733	71.75
247.966	69.75
248.2	88.75
248.433	76.75
248.666	76.75
248.899	66.75
249.133	79.75
249.366	87.75
249.599	90.75
249.832	85.75
250.066	83.75
250.299	75.75
250.532	77.75
250.765	71.75
250.998	77.75
251.231	77.75
251.465	74.75
251.698	78.75
251.931	76.75
252.164	71.75
252.397	81.75
252.63	88.75
252.863	86.75
253.096	86.75
253.329	91.75
253.562	92.75
253.795	75.75
254.028	71.75
254.261	86.75
254.494	88.75
254.727	84.75
254.96	68.75
255.193	67.75
255.426	83.75
255.659	80.75
255.892	79.75
256.124	85.75
256.357	74.75
256.59	80.75
256.823	91.75
257.056	69.75
257.289	78.75
257.521	83.75
257.754	88.75
257.987	91.75
258.22	83.75
258.452	79.75
258.685	76.75
258.918	73.75
259.151	76.75
259.383	87.75
259.616	79.75
259.849	87.75
260.081	86.75
260.314	85.75
260.547	82.75
260.779	78.75
261.012	84.75
261.244	76.75
261.477	74.75
261.71	90.75
261.942	108.75
262.175	109.75
262.407	88.75
262.64	81.75
262.872	77.75
263.105	88.75
263.337	93.75
263.57	73.75
263.802	85.75
264.035	83.75
264.267	85.75
264.499	87.75
264.732	87.75
264.964	74.75
265.197	90.75
265.429	87.75
265.661	66.75
265.894	88.75
266.126	83.75
266.358	93.75
266.591	78.75
266.823	79.75
267.055	89.75
267.287	78.75
267.52	75.75
267.752	84.75
267.984	76.75
268.216	80.75
268.448	89.75
268.681	83.75
268.913	87.75
269.145	70.75
269.377	83.75
269.609	85.75
269.841	86.75
270.073	77.75
270.306	74.75
270.538	78.75
270.77	92.75
271.002	79.75
271.234	93.75
271.466	91.75
271.698	74.75
271.93	91.75
272.162	77.75
272.394	79.75
272.626	72.75
272.858	76.75
273.09	90.75
273.322	66.75
273.553	77.75
273.785	100.75
274.017	85.75
274.249	93.75
274.481	84.75
274.713	79.75
274.945	79.75
275.176	92.75
275.408	87.75
275.64	80.75
275.872	95.75
276.104	99.75
276.335	85.75
276.567	95.75
276.799	105.75
277.031	87.75
277.262	98.75
277.494	91.75
277.726	92.75
277.957	90.75
278.189	84.75
278.421	85.75
278.652	72.75
278.884	78.75
279.115	87.75
279.347	74.75
279.579	92.75
279.81	96.75
280.042	93.75
280.273	90.75
280.505	90.75
280.736	86.75
280.968	71.75
281.199	95.75
281.431	87.75
281.662	84.75
281.894	93.75
282.125	96.75
282.356	112.75
282.588	131.75
282.819	102.75
283.051	93.75
283.282	86.75
283.513	90.75
283.745	99.75
283.976	95.75
284.207	76.75
284.439	79.75
284.67	76.75
284.901	77.75
285.132	72.75
285.364	83.75
285.595	80.75
285.826	86.75
286.057	87.75
286.288	80.75
286.52	73.75
286.751	76.75
286.982	88.75
287.213	78.75
287.444	94.75
287.675	78.75
287.906	77.75
288.138	83.75
288.369	78.75
288.6	88.75
288.831	97.75
289.062	71.75
289.293	82.75
289.524	77.75
289.755	94.75
289.986	91.75
290.217	90.75
290.448	88.75
290.679	88.75
290.91	88.75
291.141	101.75
291.371	76.75
291.602	104.75
291.833	80.75
292.064	86.75
292.295	90.75
292.526	85.75
292.757	88.75
292.987	88.75
293.218	99.75
293.449	93.75
293.68	90.75
293.91	90.75
294.141	81.75
294.372	92.75
294.603	88.75
294.833	79.75
295.064	88.75
295.295	85.75
295.525	101.75
295.756	88.75
295.987	107.75
296.217	121.75
296.448	113.75
296.679	85.75
296.909	84.75
297.14	85.75
297.37	93.75
297.601	83.75
297.831	93.75
298.062	80.75
298.292	94.75
298.523	78.75
298.753	80.75
298.984	82.75
299.214	75.75
299.445	93.75
299.675	84.75
299.905	95.75
300.136	86.75
300.366	92.75
300.597	90.75
300.827	102.75
301.057	86.75
301.288	96.75
301.518	93.75
301.748	93.75
301.979	95.75
302.209	93.75
302.439	90.75
302.669	86.75
302.9	87.75
303.13	99.75
303.36	90.75
303.59	93.75
303.82	87.75
304.051	91.75
304.281	79.75
304.511	88.75
304.741	90.75
304.971	88.75
305.201	82.75
305.431	86.75
305.661	86.75
305.891	93.75
306.121	85.75
306.352	89.75
306.582	88.75
306.812	76.75
307.042	86.75
307.272	87.75
307.502	84.75
307.731	100.75
307.961	94.75
308.191	78.75
308.421	100.75
308.651	93.75
308.881	92.75
309.111	69.75
309.341	89.75
309.571	84.75
309.8	106.75
310.03	92.75
310.26	87.75
310.49	94.75
310.72	85.75
310.949	103.75
311.179	79.75
311.409	115.75
311.639	90.75
311.868	89.75
312.098	105.75
312.328	97.75
312.557	97.75
312.787	103.75
313.017	88.75
313.246	82.75
313.476	96.75
313.706	93.75
313.935	102.75
314.165	91.75
314.394	99.75
314.624	95.75
314.853	104.75
315.083	95.75
315.312	88.75
315.542	93.75
315.771	87.75
316.001	94.75
316.23	77.75
316.46	98.75
316.689	88.75
316.919	97.75
317.148	101.75
317.377	94.75
317.607	96.75
317.836	99.75
318.065	73.75
318.295	81.75
318.524	101.75
318.753	91.75
318.983	96.75
319.212	91.75
319.441	98.75
319.67	100.75
319.9	93.75
320.129	87.75
320.358	98.75
320.587	96.75
320.816	87.75
321.046	100.75
321.275	90.75
321.504	91.75
321.733	99.75
321.962	85.75
322.191	95.75
322.42	95.75
322.649	107.75
322.878	123.75
323.108	126.75
323.337	104.75
323.566	116.75
323.795	138.75
324.024	172.75
324.253	318.75
324.482	640.75
324.71	1302.75
324.939	1659.75
325.168	646.75
325.397	209.75
325.626	128.75
325.855	118.75
326.084	116.75
326.313	119.75
326.542	130.75
326.77	197.75
326.999	373.75
327.228	723.75
327.457	1308.75
327.686	1028.75
327.914	314.75
328.143	172.75
328.372	159.75
328.6	134.75
328.829	117.75
329.058	126.75
329.287	107.75
329.515	93.75
329.744	111.75
329.972	118.75
330.201	140.75
330.43	175.75
330.658	135.75
330.887	119.75
331.115	108.75
331.344	100.75
331.572	96.75
331.801	118.75
332.03	100.75
332.258	90.75
332.486	101.75
332.715	85.75
332.943	84.75
333.172	94.75
333.4	88.75
333.629	89.75
333.857	103.75
334.085	102.75
334.314	156.75
334.542	198.75
334.771	174.75
334.999	107.75
335.227	104.75
335.455	102.75
335.684	94.75
335.912	100.75
336.14	99.75
336.369	84.75
336.597	88.75
336.825	96.75
337.053	102.75
337.281	95.75
337.51	101.75
337.738	91.75
337.966	89.75
338.194	89.75
338.422	97.75
338.65	91.75
338.878	98.75
339.106	88.75
339.334	87.75
339.562	79.75
339.79	84.75
340.018	84.75
340.246	72.75
340.474	77.75
340.702	76.75
340.93	103.75
341.158	79.75
341.386	87.75
341.614	85.75
341.842	90.75
342.07	82.75
342.298	85.75
342.526	93.75
342.754	70.75
342.981	88.75
343.209	89.75
343.437	100.75
343.665	89.75
343.893	87.75
344.12	93.75
344.348	94.75
344.576	90.75
344.804	84.75
345.031	98.75
345.259	85.75
345.487	92.75
345.714	90.75
345.942	103.75
346.17	75.75
346.397	81.75
346.625	84.75
346.853	87.75
347.08	93.75
347.308	81.75
347.535	91.75
347.763	86.75
347.99	95.75
348.218	91.75
348.445	91.75
348.673	91.75
348.9	86.75
349.128	89.75
349.355	95.75
349.583	87.75
349.81	83.75
350.037	86.75
350.265	79.75
350.492	92.75
350.72	100.75
350.947	107.75
351.174	108.75
351.402	113.75
351.629	106.75
351.856	110.75
352.083	103.75
352.311	97.75
352.538	104.75
352.765	107.75
352.992	114.75
353.22	115.75
353.447	101.75
353.674	94.75
353.901	99.75
354.128	100.75
354.355	104.75
354.583	97.75
354.81	104.75
355.037	95.75
355.264	91.75
355.491	87.75
355.718	104.75
355.945	77.75
356.172	103.75
356.399	106.75
356.626	84.75
356.853	92.75
357.08	102.75
357.307	96.75
357.534	95.75
357.761	111.75
357.988	114.75
358.215	98.75
358.441	100.75
358.668	84.75
358.895	87.75
359.122	94.75
359.349	90.75
359.576	79.75
359.802	93.75
360.029	113.75
360.256	95.75
360.483	96.75
360.709	69.75
360.936	88.75
361.163	107.75
361.39	97.75
361.616	78.75
361.843	89.75
362.07	83.75
362.296	103.75
362.523	86.75
362.749	104.75
362.976	90.75
363.203	84.75
363.429	98.75
363.656	83.75
363.882	110.75
364.109	103.75
364.335	84.75
364.562	108.75
364.788	96.75
365.015	88.75
365.241	97.75
365.468	107.75
365.694	86.75
365.92	82.75
366.147	82.75
366.373	95.75
366.599	95.75
366.826	78.75
367.052	94.75
367.278	90.75
367.505	98.75
367.731	96.75
367.957	97.75
368.184	86.75
368.41	98.75
368.636	102.75
368.862	97.75
369.089	112.75
369.315	92.75
369.541	95.75
369.767	93.75
369.993	86.75
370.219	79.75
370.445	91.75
370.672	91.75
370.898	86.75
371.124	81.75
371.35	83.75
371.576	92.75
371.802	87.75
372.028	72.75
372.254	90.75
372.48	82.75
372.706	99.75
372.932	87.75
373.158	88.75
373.384	83.75
373.61	91.75
373.835	82.75
374.061	84.75
374.287	86.75
374.513	85.75
374.739	77.75
374.965	89.75
375.191	85.75
375.416	100.75
375.642	88.75
375.868	100.75
376.094	78.75
376.319	88.75
376.545	73.75
376.771	74.75
376.997	93.75
377.222	87.75
377.448	102.75
377.674	90.75
377.899	85.75
378.125	87.75
378.35	92.75
378.576	92.75
378.802	82.75
379.027	94.75
379.253	95.75
379.478	85.75
379.704	80.75
379.929	74.75
380.155	95.75
380.38	93.75
380.606	92.75
380.831	84.75
381.057	101.75
381.282	91.75
381.507	100.75
381.733	93.75
381.958	98.75
382.184	107.75
382.409	88.75
382.634	98.75
382.86	79.75
383.085	81.75
383.31	101.75
383.535	109.75
383.761	104.75
383.986	93.75
384.211	104.75
384.436	91.75
384.662	86.75
384.887	100.75
385.112	103.75
385.337	103.75
385.562	105.75
385.787	107.75
386.013	90.75
386.238	113.75
386.463	111.75
386.688	103.75
386.913	102.75
387.138	113.75
387.363	101.75
387.588	100.75
387.813	95.75
388.038	115.75
388.263	115.75
388.488	126.75
388.713	92.75
388.938	93.75
389.163	95.75
389.387	87.75
389.612	100.75
389.837	96.75
390.062	87.75
390.287	85.75
390.512	83.75
390.736	86.75
390.961	99.75
391.186	84.75
391.411	85.75
391.636	98.75
391.86	88.75
392.085	84.75
392.31	90.75
392.534	84.75
392.759	68.75
392.984	85.75
393.208	89.75
393.433	100.75
393.658	98.75
393.882	95.75
394.107	80.75
394.331	86.75
394.556	88.75
394.78	75.75
395.005	90.75
395.229	83.75
395.454	85.75
395.678	93.75
395.903	101.75
396.127	80.75
396.352	73.75
396.576	63.75
396.801	79.75
397.025	93.75
397.249	76.75
397.474	81.75
397.698	89.75
397.922	75.75
398.147	74.75
398.371	91.75
398.595	80.75
398.82	91.75
399.044	89.75
399.268	90.75
399.492	91.75
399.717	84.75
399.941	80.75
400.165	96.75
400.389	85.75
400.613	94.75
400.837	79.75
401.062	96.75
401.286	79.75
401.51	83.75
401.734	91.75
401.958	106.75
402.182	122.75
402.406	147.75
402.63	117.75
402.854	99.75
403.078	68.75
403.302	84.75
403.526	84.75
403.75	77.75
403.974	93.75
404.198	86.75
404.422	81.75
404.645	94.75
404.869	87.75
405.093	86.75
405.317	101.75
405.541	96.75
405.765	87.75
405.988	107.75
406.212	152.75
406.436	186.75
406.66	119.75
406.883	100.75
407.107	85.75
407.331	96.75
407.555	87.75
407.778	102.75
408.002	86.75
408.226	93.75
408.449	80.75
408.673	99.75
408.896	99.75
409.12	102.75
409.344	95.75
409.567	93.75
409.791	95.75
410.014	101.75
410.238	87.75
410.461	93.75
410.685	89.75
410.908	107.75
411.132	97.75
411.355	96.75
411.578	84.75
411.802	83.75
412.025	89.75
412.249	83.75
412.472	85.75
412.695	93.75
412.919	98.75
413.142	86.75
413.365	74.75
413.589	83.75
413.812	72.75
414.035	94.75
414.258	95.75
414.482	75.75
414.705	105.75
414.928	81.75
415.151	90.75
415.374	97.75
415.597	83.75
415.821	97.75
416.044	91.75
416.267	83.75
416.49	79.75
416.713	72.75
416.936	82.75
417.159	91.75
417.382	76.75
417.605	75.75
417.828	79.75
418.051	79.75
418.274	99.75
418.497	94.75
418.72	91.75
418.943	77.75
419.166	78.75
419.389	83.75
419.611	83.75
419.834	97.75
420.057	78.75
420.28	80.75
420.503	89.75
420.726	82.75
420.948	87.75
421.171	76.75
421.394	86.75
421.617	73.75
421.839	87.75
422.062	77.75
422.285	89.75
422.507	88.75
422.73	97.75
422.953	79.75
423.175	84.75
423.398	85.75
423.621	84.75
423.843	89.75
424.066	89.75
424.288	97.75
424.511	85.75
424.733	88.75
424.956	95.75
425.178	103.75
425.401	85.75
425.623	106.75
425.846	78.75
426.068	80.75
426.291	89.75
426.513	81.75
426.735	80.75
426.958	79.75
427.18	95.75
427.402	120.75
427.625	120.75
427.847	124.75
428.069	110.75
428.292	83.75
428.514	83.75
428.736	77.75
428.958	77.75
429.181	76.75
429.403	90.75
429.625	67.75
429.847	90.75
430.069	98.75
430.292	92.75
430.514	87.75
430.736	85.75
430.958	80.75
431.18	86.75
431.402	93.75
431.624	92.75
431.846	80.75
432.068	74.75
432.29	83.75
432.512	64.75
432.734	90.75
432.956	86.75
433.178	71.75
433.4	108.75
433.622	93.75
433.844	85.75
434.066	87.75
434.287	87.75
434.509	74.75
434.731	85.75
434.953	74.75
435.175	82.75
435.397	80.75
435.618	103.75
435.84	95.75
436.062	107.75
436.284	112.75
436.505	80.75
436.727	91.75
436.949	85.75
437.17	72.75
437.392	82.75
437.614	89.75
437.835	99.75
438.057	113.75
438.278	98.75
438.5	92.75
438.721	89.75
438.943	78.75
439.165	87.75
439.386	90.75
439.608	86.75
439.829	104.75
440.05	97.75
440.272	117.75
440.493	87.75
440.715	94.75
440.936	81.75
441.158	86.75
441.379	89.75
441.6	90.75
441.822	96.75
442.043	81.75
442.264	87.75
442.486	99.75
442.707	98.75
442.928	97.75
443.149	122.75
443.371	122.75
443.592	101.75
443.813	101.75
444.034	103.75
444.255	89.75
444.476	92.75
444.698	80.75
444.919	84.75
445.14	128.75
445.361	116.75
445.582	103.75
445.803	122.75
446.024	121.75
446.245	119.75
446.466	93.75
446.687	78.75
446.908	85.75
447.129	79.75
447.35	78.75
447.571	80.75
447.792	97.75
448.013	99.75
448.234	91.75
448.455	91.75
448.675	110.75
448.896	111.75
449.117	95.75
449.338	85.75
449.559	102.75
449.779	111.75
450	85.75
450.221	78.75
450.442	87.75
450.662	94.75
450.883	91.75
451.104	114.75
451.324	91.75
451.545	71.75
451.766	74.75
451.986	90.75
452.207	87.75
452.428	103.75
452.648	94.75
452.869	94.75
453.089	117.75
453.31	107.75
453.53	83.75
453.751	84.75
453.971	85.75
454.192	98.75
454.412	83.75
454.633	82.75
454.853	84.75
455.073	74.75
455.294	95.75
455.514	87.75
455.734	74.75
455.955	105.75
456.175	85.75
456.395	73.75
456.616	70.75
456.836	79.75
457.056	81.75
457.276	75.75
457.497	79.75
457.717	78.75
457.937	87.75
458.157	72.75
458.377	73.75
458.598	96.75
458.818	117.75
459.038	136.75
459.258	99.75
459.478	85.75
459.698	68.75
459.918	81.75
460.138	75.75
460.358	76.75
460.578	99.75
460.798	85.75
461.018	81.75
461.238	96.75
461.458	83.75
461.678	92.75
461.898	102.75
462.118	88.75
462.338	72.75
462.558	77.75
462.777	91.75
462.997	80.75
463.217	76.75
463.437	83.75
463.657	91.75
463.876	84.75
464.096	90.75
464.316	104.75
464.536	87.75
464.755	98.75
464.975	92.75
465.195	136.75
465.414	141.75
465.634	94.75
465.854	88.75
466.073	77.75
466.293	84.75
466.512	81.75
466.732	74.75
466.951	84.75
467.171	99.75
467.391	85.75
467.61	101.75
467.829	95.75
468.049	106.75
468.268	114.75
468.488	78.75
468.707	93.75
468.927	84.75
469.146	88.75
469.365	90.75
469.585	84.75
469.804	87.75
470.023	98.75
470.243	95.75
470.462	80.75
470.681	98.75
470.901	90.75
471.12	79.75
471.339	86.75
471.558	93.75
471.777	100.75
471.997	102.75
472.216	142.75
472.435	224.75
472.654	106.75
472.873	95.75
473.092	96.75
473.311	87.75
473.53	88.75
473.749	86.75
473.968	93.75
474.187	104.75
474.406	106.75
474.625	87.75
474.844	91.75
475.063	85.75
475.282	81.75
475.501	86.75
475.72	82.75
475.939	93.75
476.158	75.75
476.377	88.75
476.596	75.75
476.814	103.75
477.033	94.75
477.252	104.75
477.471	94.75
477.69	86.75
477.908	94.75
478.127	88.75
478.346	88.75
478.564	76.75
478.783	94.75
479.002	80.75
479.22	99.75
479.439	105.75
479.658	92.75
479.876	106.75
480.095	73.75
480.313	100.75
480.532	76.75
480.751	104.75
480.969	148.75
481.188	335.75
481.406	236.75
481.624	112.75
481.843	84.75
482.061	78.75
482.28	90.75
482.498	78.75
482.717	88.75
482.935	86.75
483.153	82.75
483.372	86.75
483.59	71.75
483.808	89.75
484.027	76.75
484.245	93.75
484.463	83.75
484.681	81.75
484.9	81.75
485.118	83.75
485.336	91.75
485.554	102.75
485.772	96.75
485.99	100.75
486.209	118.75
486.427	103.75
486.645	94.75
486.863	107.75
487.081	106.75
487.299	103.75
487.517	101.75
487.735	103.75
487.953	76.75
488.171	102.75
488.389	87.75
488.607	84.75
488.825	86.75
489.043	94.75
489.261	93.75
489.479	93.75
489.696	71.75
489.914	96.75
490.132	85.75
490.35	79.75
490.568	86.75
490.786	96.75
491.003	99.75
491.221	95.75
491.439	92.75
491.657	96.75
491.874	86.75
492.092	74.75
492.31	86.75
492.527	78.75
492.745	93.75
492.963	92.75
493.18	103.75
493.398	83.75
493.615	89.75
493.833	84.75
494.05	91.75
494.268	87.75
494.485	93.75
494.703	73.75
494.92	98.75
495.138	105.75
495.355	86.75
495.573	92.75
495.79	80.75
496.008	86.75
496.225	99.75
496.442	87.75
496.66	98.75
496.877	90.75
497.094	91.75
497.312	81.75
497.529	90.75
497.746	81.75
497.963	78.75
498.181	88.75
498.398	88.75
498.615	99.75
498.832	99.75
499.049	84.75
499.267	96.75
499.484	104.75
499.701	92.75
499.918	95.75
500.135	99.75
500.352	96.75
500.569	87.75
500.786	91.75
501.003	87.75
501.22	77.75
501.437	70.75
501.654	94.75
501.871	90.75
502.088	78.75
502.305	94.75
502.522	81.75
502.739	90.75
502.956	79.75
503.172	92.75
503.389	104.75
503.606	106.75
503.823	102.75
504.04	95.75
504.256	96.75
504.473	94.75
504.69	81.75
504.907	98.75
505.123	110.75
505.34	86.75
505.557	83.75
505.773	93.75
505.99	93.75
506.207	94.75
506.423	80.75
506.64	88.75
506.856	108.75
507.073	84.75
507.289	107.75
507.506	82.75
507.722	108.75
507.939	107.75
508.155	106.75
508.372	79.75
508.588	90.75
508.805	87.75
509.021	103.75
509.238	84.75
509.454	103.75
509.67	82.75
509.887	111.75
510.103	103.75
510.319	179.75
510.536	611.75
510.752	1882.75
510.968	555.75
511.184	135.75
511.401	108.75
511.617	97.75
511.833	97.75
512.049	96.75
512.265	82.75
512.481	92.75
512.698	87.75
512.914	88.75
513.13	81.75
513.346	82.75
513.562	84.75
513.778	93.75
513.994	82.75
514.21	91.75
514.426	104.75
514.642	109.75
514.858	99.75
515.074	147.75
515.29	350.75
515.506	1156.75
515.721	451.75
515.937	124.75
516.153	109.75
516.369	107.75
