Data from Circ_2010_H10_HRD10591_00002.txt Node
Date: Wed Jan 03 10:09:41 EST 2024
User: Yrep
Spectrometer: HR+D1059
Trigger mode: 1
Integration Time (sec): 1.000000E-1
Scans to average: 1
Electric dark correction enabled: true
Nonlinearity correction enabled: false
Boxcar width: 0
XAxis mode: Wavelengths
Number of Pixels in Spectrum: 2048
>>>>>Begin Spectral Data<<<<<
223.165	-16.94
223.4	-16.94
223.635	-16.94
223.869	-19.94
224.104	-6.94
224.338	-9.94
224.573	-5.94
224.808	-22.94
225.042	0.06
225.277	-20.94
225.511	-17.94
225.746	9.06
225.98	-2.94
226.215	16.06
226.449	31.06
226.683	16.06
226.918	15.06
227.152	37.06
227.387	35.06
227.621	31.06
227.856	41.06
228.09	47.06
228.324	60.06
228.559	57.06
228.793	56.06
229.027	69.06
229.262	72.06
229.496	70.06
229.73	75.06
229.964	75.06
230.199	76.06
230.433	82.06
230.667	82.06
230.901	79.06
231.136	77.06
231.37	91.06
231.604	82.06
231.838	84.06
232.072	80.06
232.306	91.06
232.541	76.06
232.775	76.06
233.009	88.06
233.243	81.06
233.477	91.06
233.711	103.06
233.945	89.06
234.179	84.06
234.413	85.06
234.647	84.06
234.881	93.06
235.115	85.06
235.349	85.06
235.583	94.06
235.817	82.06
236.051	81.06
236.285	83.06
236.519	75.06
236.753	76.06
236.987	82.06
237.221	81.06
237.455	92.06
237.689	84.06
237.922	88.06
238.156	92.06
238.39	66.06
238.624	90.06
238.858	73.06
239.091	84.06
239.325	91.06
239.559	79.06
239.793	75.06
240.027	83.06
240.26	74.06
240.494	95.06
240.728	82.06
240.961	94.06
241.195	76.06
241.429	78.06
241.662	89.06
241.896	85.06
242.13	87.06
242.363	91.06
242.597	82.06
242.83	78.06
243.064	87.06
243.298	80.06
243.531	84.06
243.765	98.06
243.998	92.06
244.232	73.06
244.465	87.06
244.699	88.06
244.932	79.06
245.166	81.06
245.399	100.06
245.633	88.06
245.866	92.06
246.099	90.06
246.333	78.06
246.566	79.06
246.8	81.06
247.033	89.06
247.266	80.06
247.5	89.06
247.733	96.06
247.966	91.06
248.2	92.06
248.433	79.06
248.666	87.06
248.899	82.06
249.133	76.06
249.366	101.06
249.599	96.06
249.832	85.06
250.066	82.06
250.299	82.06
250.532	90.06
250.765	94.06
250.998	85.06
251.231	70.06
251.465	94.06
251.698	73.06
251.931	83.06
252.164	94.06
252.397	88.06
252.63	98.06
252.863	92.06
253.096	74.06
253.329	89.06
253.562	81.06
253.795	98.06
254.028	97.06
254.261	92.06
254.494	104.06
254.727	85.06
254.96	82.06
255.193	90.06
255.426	84.06
255.659	89.06
255.892	96.06
256.124	83.06
256.357	76.06
256.59	91.06
256.823	91.06
257.056	88.06
257.289	77.06
257.521	96.06
257.754	97.06
257.987	80.06
258.22	85.06
258.452	88.06
258.685	80.06
258.918	93.06
259.151	80.06
259.383	71.06
259.616	85.06
259.849	76.06
260.081	85.06
260.314	84.06
260.547	90.06
260.779	88.06
261.012	91.06
261.244	76.06
261.477	99.06
261.71	78.06
261.942	91.06
262.175	118.06
262.407	93.06
262.64	86.06
262.872	92.06
263.105	86.06
263.337	72.06
263.57	87.06
263.802	89.06
264.035	86.06
264.267	82.06
264.499	92.06
264.732	96.06
264.964	68.06
265.197	80.06
265.429	79.06
265.661	83.06
265.894	88.06
266.126	92.06
266.358	81.06
266.591	86.06
266.823	83.06
267.055	77.06
267.287	93.06
267.52	84.06
267.752	94.06
267.984	94.06
268.216	83.06
268.448	93.06
268.681	94.06
268.913	82.06
269.145	82.06
269.377	87.06
269.609	91.06
269.841	102.06
270.073	98.06
270.306	82.06
270.538	98.06
270.77	85.06
271.002	89.06
271.234	77.06
271.466	88.06
271.698	99.06
271.93	112.06
272.162	83.06
272.394	112.06
272.626	93.06
272.858	88.06
273.09	90.06
273.322	100.06
273.553	85.06
273.785	103.06
274.017	97.06
274.249	86.06
274.481	95.06
274.713	92.06
274.945	93.06
275.176	92.06
275.408	93.06
275.64	93.06
275.872	89.06
276.104	99.06
276.335	95.06
276.567	99.06
276.799	102.06
277.031	96.06
277.262	97.06
277.494	78.06
277.726	74.06
277.957	96.06
278.189	91.06
278.421	91.06
278.652	92.06
278.884	94.06
279.115	84.06
279.347	81.06
279.579	90.06
279.81	80.06
280.042	84.06
280.273	81.06
280.505	106.06
280.736	85.06
280.968	94.06
281.199	91.06
281.431	107.06
281.662	101.06
281.894	89.06
282.125	96.06
282.356	117.06
282.588	133.06
282.819	120.06
283.051	89.06
283.282	94.06
283.513	75.06
283.745	84.06
283.976	79.06
284.207	89.06
284.439	83.06
284.67	78.06
284.901	90.06
285.132	85.06
285.364	91.06
285.595	84.06
285.826	85.06
286.057	113.06
286.288	99.06
286.52	101.06
286.751	88.06
286.982	99.06
287.213	97.06
287.444	106.06
287.675	90.06
287.906	83.06
288.138	107.06
288.369	94.06
288.6	97.06
288.831	103.06
289.062	83.06
289.293	100.06
289.524	90.06
289.755	74.06
289.986	81.06
290.217	101.06
290.448	94.06
290.679	93.06
290.91	100.06
291.141	87.06
291.371	82.06
291.602	81.06
291.833	96.06
292.064	79.06
292.295	96.06
292.526	95.06
292.757	97.06
292.987	98.06
293.218	88.06
293.449	85.06
293.68	100.06
293.91	100.06
294.141	88.06
294.372	105.06
294.603	96.06
294.833	104.06
295.064	92.06
295.295	99.06
295.525	95.06
295.756	106.06
295.987	116.06
296.217	131.06
296.448	115.06
296.679	98.06
296.909	103.06
297.14	93.06
297.37	90.06
297.601	97.06
297.831	95.06
298.062	90.06
298.292	92.06
298.523	91.06
298.753	100.06
298.984	100.06
299.214	103.06
299.445	94.06
299.675	90.06
299.905	103.06
300.136	87.06
300.366	85.06
300.597	98.06
300.827	100.06
301.057	94.06
301.288	95.06
301.518	93.06
301.748	92.06
301.979	105.06
302.209	95.06
302.439	85.06
302.669	96.06
302.9	92.06
303.13	99.06
303.36	100.06
303.59	91.06
303.82	103.06
304.051	101.06
304.281	98.06
304.511	101.06
304.741	93.06
304.971	97.06
305.201	101.06
305.431	87.06
305.661	88.06
305.891	100.06
306.121	106.06
306.352	98.06
306.582	92.06
306.812	80.06
307.042	88.06
307.272	105.06
307.502	102.06
307.731	99.06
307.961	88.06
308.191	89.06
308.421	109.06
308.651	104.06
308.881	106.06
309.111	97.06
309.341	91.06
309.571	95.06
309.8	94.06
310.03	93.06
310.26	90.06
310.49	88.06
310.72	88.06
310.949	98.06
311.179	95.06
311.409	90.06
311.639	100.06
311.868	111.06
312.098	108.06
312.328	94.06
312.557	92.06
312.787	116.06
313.017	104.06
313.246	93.06
313.476	90.06
313.706	90.06
313.935	91.06
314.165	106.06
314.394	94.06
314.624	91.06
314.853	90.06
315.083	93.06
315.312	103.06
315.542	98.06
315.771	94.06
316.001	92.06
316.23	94.06
316.46	97.06
316.689	87.06
316.919	88.06
317.148	84.06
317.377	98.06
317.607	92.06
317.836	80.06
318.065	85.06
318.295	105.06
318.524	90.06
318.753	90.06
318.983	97.06
319.212	79.06
319.441	107.06
319.67	104.06
319.9	76.06
320.129	87.06
320.358	88.06
320.587	94.06
320.816	106.06
321.046	96.06
321.275	103.06
321.504	105.06
321.733	101.06
321.962	97.06
322.191	89.06
322.42	100.06
322.649	113.06
322.878	100.06
323.108	106.06
323.337	111.06
323.566	125.06
323.795	135.06
324.024	171.06
324.253	296.06
324.482	608.06
324.71	1248.06
324.939	1620.06
325.168	618.06
325.397	217.06
325.626	135.06
325.855	126.06
326.084	122.06
326.313	123.06
326.542	140.06
326.77	193.06
326.999	368.06
327.228	729.06
327.457	1287.06
327.686	1045.06
327.914	305.06
328.143	185.06
328.372	142.06
328.6	119.06
328.829	111.06
329.058	116.06
329.287	121.06
329.515	106.06
329.744	112.06
329.972	112.06
330.201	135.06
330.43	145.06
330.658	131.06
330.887	119.06
331.115	122.06
331.344	90.06
331.572	89.06
331.801	109.06
332.03	104.06
332.258	99.06
332.486	95.06
332.715	93.06
332.943	99.06
333.172	108.06
333.4	100.06
333.629	103.06
333.857	112.06
334.085	109.06
334.314	130.06
334.542	178.06
334.771	154.06
334.999	104.06
335.227	108.06
335.455	111.06
335.684	103.06
335.912	106.06
336.14	98.06
336.369	89.06
336.597	85.06
336.825	93.06
337.053	101.06
337.281	84.06
337.51	81.06
337.738	89.06
337.966	89.06
338.194	97.06
338.422	93.06
338.65	96.06
338.878	96.06
339.106	92.06
339.334	109.06
339.562	102.06
339.79	107.06
340.018	109.06
340.246	94.06
340.474	89.06
340.702	90.06
340.93	93.06
341.158	98.06
341.386	105.06
341.614	107.06
341.842	96.06
342.07	85.06
342.298	100.06
342.526	118.06
342.754	83.06
342.981	80.06
343.209	96.06
343.437	104.06
343.665	85.06
343.893	94.06
344.12	94.06
344.348	105.06
344.576	96.06
344.804	95.06
345.031	103.06
345.259	93.06
345.487	91.06
345.714	95.06
345.942	96.06
346.17	97.06
346.397	92.06
346.625	91.06
346.853	97.06
347.08	104.06
347.308	97.06
347.535	87.06
347.763	103.06
347.99	102.06
348.218	99.06
348.445	97.06
348.673	107.06
348.9	99.06
349.128	83.06
349.355	85.06
349.583	92.06
349.81	98.06
350.037	96.06
350.265	92.06
350.492	91.06
350.72	95.06
350.947	114.06
351.174	107.06
351.402	102.06
351.629	94.06
351.856	105.06
352.083	103.06
352.311	105.06
352.538	107.06
352.765	96.06
352.992	122.06
353.22	107.06
353.447	89.06
353.674	91.06
353.901	85.06
354.128	109.06
354.355	89.06
354.583	81.06
354.81	104.06
355.037	119.06
355.264	104.06
355.491	105.06
355.718	100.06
355.945	94.06
356.172	98.06
356.399	115.06
356.626	91.06
356.853	100.06
357.08	84.06
357.307	99.06
357.534	92.06
357.761	91.06
357.988	85.06
358.215	96.06
358.441	107.06
358.668	99.06
358.895	97.06
359.122	76.06
359.349	88.06
359.576	79.06
359.802	102.06
360.029	109.06
360.256	107.06
360.483	96.06
360.709	90.06
360.936	104.06
361.163	90.06
361.39	104.06
361.616	103.06
361.843	95.06
362.07	98.06
362.296	95.06
362.523	96.06
362.749	84.06
362.976	75.06
363.203	92.06
363.429	93.06
363.656	95.06
363.882	94.06
364.109	92.06
364.335	97.06
364.562	88.06
364.788	111.06
365.015	92.06
365.241	97.06
365.468	104.06
365.694	93.06
365.92	104.06
366.147	94.06
366.373	95.06
366.599	94.06
366.826	108.06
367.052	92.06
367.278	120.06
367.505	96.06
367.731	106.06
367.957	104.06
368.184	97.06
368.41	97.06
368.636	101.06
368.862	108.06
369.089	109.06
369.315	102.06
369.541	112.06
369.767	95.06
369.993	102.06
370.219	78.06
370.445	95.06
370.672	87.06
370.898	91.06
371.124	75.06
371.35	88.06
371.576	92.06
371.802	75.06
372.028	81.06
372.254	103.06
372.48	92.06
372.706	89.06
372.932	90.06
373.158	90.06
373.384	96.06
373.61	89.06
373.835	88.06
374.061	93.06
374.287	84.06
374.513	84.06
374.739	103.06
374.965	103.06
375.191	88.06
375.416	98.06
375.642	97.06
375.868	85.06
376.094	100.06
376.319	96.06
376.545	97.06
376.771	100.06
376.997	98.06
377.222	89.06
377.448	89.06
377.674	88.06
377.899	92.06
378.125	91.06
378.35	104.06
378.576	92.06
378.802	88.06
379.027	79.06
379.253	92.06
379.478	92.06
379.704	84.06
379.929	83.06
380.155	109.06
380.38	94.06
380.606	87.06
380.831	104.06
381.057	106.06
381.282	108.06
381.507	94.06
381.733	99.06
381.958	101.06
382.184	101.06
382.409	97.06
382.634	97.06
382.86	99.06
383.085	119.06
383.31	87.06
383.535	109.06
383.761	93.06
383.986	102.06
384.211	98.06
384.436	92.06
384.662	96.06
384.887	112.06
385.112	108.06
385.337	112.06
385.562	116.06
385.787	109.06
386.013	110.06
386.238	101.06
386.463	101.06
386.688	116.06
386.913	122.06
387.138	107.06
387.363	110.06
387.588	94.06
387.813	112.06
388.038	114.06
388.263	134.06
388.488	105.06
388.713	105.06
388.938	90.06
389.163	99.06
389.387	108.06
389.612	90.06
389.837	95.06
390.062	98.06
390.287	125.06
390.512	93.06
390.736	89.06
390.961	95.06
391.186	86.06
391.411	100.06
391.636	95.06
391.86	91.06
392.085	87.06
392.31	74.06
392.534	85.06
392.759	98.06
392.984	100.06
393.208	104.06
393.433	107.06
393.658	111.06
393.882	101.06
394.107	101.06
394.331	86.06
394.556	93.06
394.78	92.06
395.005	81.06
395.229	92.06
395.454	86.06
395.678	88.06
395.903	92.06
396.127	85.06
396.352	82.06
396.576	96.06
396.801	104.06
397.025	101.06
397.249	98.06
397.474	82.06
397.698	86.06
397.922	74.06
398.147	98.06
398.371	89.06
398.595	98.06
398.82	84.06
399.044	92.06
399.268	87.06
399.492	86.06
399.717	99.06
399.941	85.06
400.165	96.06
400.389	84.06
400.613	95.06
400.837	101.06
401.062	95.06
401.286	85.06
401.51	88.06
401.734	87.06
401.958	101.06
402.182	112.06
402.406	131.06
402.63	129.06
402.854	96.06
403.078	97.06
403.302	87.06
403.526	105.06
403.75	94.06
403.974	82.06
404.198	92.06
404.422	79.06
404.645	89.06
404.869	97.06
405.093	101.06
405.317	107.06
405.541	99.06
405.765	103.06
405.988	111.06
406.212	141.06
406.436	184.06
406.66	121.06
406.883	85.06
407.107	106.06
407.331	95.06
407.555	103.06
407.778	104.06
408.002	96.06
408.226	88.06
408.449	97.06
408.673	103.06
408.896	102.06
409.12	104.06
409.344	87.06
409.567	84.06
409.791	98.06
410.014	96.06
410.238	99.06
410.461	87.06
410.685	78.06
410.908	89.06
411.132	108.06
411.355	97.06
411.578	96.06
411.802	85.06
412.025	95.06
412.249	95.06
412.472	104.06
412.695	108.06
412.919	98.06
413.142	88.06
413.365	81.06
413.589	94.06
413.812	89.06
414.035	81.06
414.258	89.06
414.482	102.06
414.705	106.06
414.928	84.06
415.151	82.06
415.374	82.06
415.597	92.06
415.821	98.06
416.044	86.06
416.267	89.06
416.49	74.06
416.713	89.06
416.936	89.06
417.159	87.06
417.382	99.06
417.605	93.06
417.828	84.06
418.051	89.06
418.274	103.06
418.497	93.06
418.72	84.06
418.943	95.06
419.166	96.06
419.389	95.06
419.611	102.06
419.834	85.06
420.057	85.06
420.28	99.06
420.503	94.06
420.726	99.06
420.948	98.06
421.171	104.06
421.394	98.06
421.617	97.06
421.839	88.06
422.062	83.06
422.285	83.06
422.507	89.06
422.73	114.06
422.953	93.06
423.175	91.06
423.398	87.06
423.621	92.06
423.843	89.06
424.066	91.06
424.288	91.06
424.511	85.06
424.733	88.06
424.956	111.06
425.178	88.06
425.401	92.06
425.623	83.06
425.846	92.06
426.068	96.06
426.291	100.06
426.513	94.06
426.735	87.06
426.958	105.06
427.18	102.06
427.402	116.06
427.625	149.06
427.847	104.06
428.069	111.06
428.292	91.06
428.514	85.06
428.736	84.06
428.958	84.06
429.181	85.06
429.403	78.06
429.625	92.06
429.847	85.06
430.069	90.06
430.292	84.06
430.514	92.06
430.736	85.06
430.958	92.06
431.18	92.06
431.402	104.06
431.624	90.06
431.846	92.06
432.068	92.06
432.29	94.06
432.512	99.06
432.734	100.06
432.956	85.06
433.178	79.06
433.4	99.06
433.622	88.06
433.844	98.06
434.066	85.06
434.287	101.06
434.509	92.06
434.731	85.06
434.953	95.06
435.175	92.06
435.397	91.06
435.618	96.06
435.84	86.06
436.062	103.06
436.284	110.06
436.505	104.06
436.727	113.06
436.949	98.06
437.17	92.06
437.392	94.06
437.614	108.06
437.835	97.06
438.057	119.06
438.278	109.06
438.5	92.06
438.721	108.06
438.943	80.06
439.165	96.06
439.386	87.06
439.608	89.06
439.829	101.06
440.05	96.06
440.272	123.06
440.493	105.06
440.715	80.06
440.936	83.06
441.158	90.06
441.379	95.06
441.6	97.06
441.822	104.06
442.043	105.06
442.264	96.06
442.486	102.06
442.707	96.06
442.928	109.06
443.149	124.06
443.371	113.06
443.592	110.06
443.813	104.06
444.034	99.06
444.255	95.06
444.476	98.06
444.698	97.06
444.919	93.06
445.14	126.06
445.361	119.06
445.582	89.06
445.803	119.06
446.024	126.06
446.245	119.06
446.466	98.06
446.687	93.06
446.908	85.06
447.129	83.06
447.35	97.06
447.571	87.06
447.792	99.06
448.013	94.06
448.234	97.06
448.455	94.06
448.675	94.06
448.896	103.06
449.117	93.06
449.338	100.06
449.559	117.06
449.779	121.06
450	97.06
450.221	89.06
450.442	88.06
450.662	93.06
450.883	91.06
451.104	109.06
451.324	98.06
451.545	88.06
451.766	94.06
451.986	91.06
452.207	81.06
452.428	93.06
452.648	91.06
452.869	103.06
453.089	94.06
453.31	114.06
453.53	89.06
453.751	89.06
453.971	98.06
454.192	104.06
454.412	99.06
454.633	91.06
454.853	82.06
455.073	90.06
455.294	92.06
455.514	96.06
455.734	87.06
455.955	98.06
456.175	89.06
456.395	82.06
456.616	86.06
456.836	88.06
457.056	91.06
457.276	88.06
457.497	100.06
457.717	92.06
457.937	89.06
458.157	90.06
458.377	89.06
458.598	95.06
458.818	139.06
459.038	141.06
459.258	99.06
459.478	99.06
459.698	84.06
459.918	87.06
460.138	78.06
460.358	79.06
460.578	94.06
460.798	94.06
461.018	107.06
461.238	97.06
461.458	87.06
461.678	80.06
461.898	81.06
462.118	90.06
462.338	88.06
462.558	90.06
462.777	83.06
462.997	98.06
463.217	83.06
463.437	81.06
463.657	82.06
463.876	80.06
464.096	98.06
464.316	94.06
464.536	86.06
464.755	95.06
464.975	118.06
465.195	125.06
465.414	129.06
465.634	98.06
465.854	86.06
466.073	87.06
466.293	99.06
466.512	100.06
466.732	85.06
466.951	86.06
467.171	97.06
467.391	98.06
467.61	103.06
467.829	105.06
468.049	111.06
468.268	122.06
468.488	93.06
468.707	82.06
468.927	103.06
469.146	87.06
469.365	106.06
469.585	91.06
469.804	94.06
470.023	92.06
470.243	105.06
470.462	96.06
470.681	113.06
470.901	93.06
471.12	84.06
471.339	87.06
471.558	89.06
471.777	85.06
471.997	97.06
472.216	134.06
472.435	176.06
472.654	121.06
472.873	91.06
473.092	88.06
473.311	88.06
473.53	88.06
473.749	84.06
473.968	93.06
474.187	96.06
474.406	101.06
474.625	84.06
474.844	92.06
475.063	82.06
475.282	86.06
475.501	88.06
475.72	89.06
475.939	91.06
476.158	80.06
476.377	77.06
476.596	81.06
476.814	95.06
477.033	109.06
477.252	96.06
477.471	90.06
477.69	79.06
477.908	105.06
478.127	91.06
478.346	99.06
478.564	90.06
478.783	111.06
479.002	107.06
479.22	97.06
479.439	106.06
479.658	100.06
479.876	88.06
480.095	96.06
480.313	80.06
480.532	91.06
480.751	108.06
480.969	130.06
481.188	251.06
481.406	199.06
481.624	103.06
481.843	94.06
482.061	94.06
482.28	104.06
482.498	97.06
482.717	85.06
482.935	100.06
483.153	91.06
483.372	91.06
483.59	88.06
483.808	93.06
484.027	91.06
484.245	104.06
484.463	102.06
484.681	116.06
484.9	100.06
485.118	100.06
485.336	94.06
485.554	121.06
485.772	102.06
485.99	120.06
486.209	106.06
486.427	98.06
486.645	114.06
486.863	115.06
487.081	99.06
487.299	85.06
487.517	111.06
487.735	89.06
487.953	112.06
488.171	90.06
488.389	98.06
488.607	94.06
488.825	103.06
489.043	89.06
489.261	89.06
489.479	93.06
489.696	89.06
489.914	105.06
490.132	104.06
490.35	96.06
490.568	94.06
490.786	89.06
491.003	95.06
491.221	84.06
491.439	99.06
491.657	101.06
491.874	110.06
492.092	91.06
492.31	87.06
492.527	101.06
492.745	92.06
492.963	90.06
493.18	85.06
493.398	91.06
493.615	97.06
493.833	91.06
494.05	92.06
494.268	89.06
494.485	99.06
494.703	90.06
494.92	88.06
495.138	89.06
495.355	94.06
495.573	90.06
495.79	91.06
496.008	98.06
496.225	93.06
496.442	89.06
496.66	91.06
496.877	100.06
497.094	103.06
497.312	81.06
497.529	91.06
497.746	99.06
497.963	90.06
498.181	79.06
498.398	106.06
498.615	103.06
498.832	104.06
499.049	100.06
499.267	88.06
499.484	104.06
499.701	95.06
499.918	98.06
500.135	94.06
500.352	103.06
500.569	102.06
500.786	102.06
501.003	83.06
501.22	105.06
501.437	94.06
501.654	86.06
501.871	101.06
502.088	93.06
502.305	94.06
502.522	97.06
502.739	87.06
502.956	87.06
503.172	93.06
503.389	99.06
503.606	105.06
503.823	94.06
504.04	99.06
504.256	105.06
504.473	92.06
504.69	88.06
504.907	89.06
505.123	94.06
505.34	99.06
505.557	114.06
505.773	103.06
505.99	79.06
506.207	97.06
506.423	95.06
506.64	94.06
506.856	104.06
507.073	86.06
507.289	94.06
507.506	95.06
507.722	110.06
507.939	101.06
508.155	108.06
508.372	83.06
508.588	89.06
508.805	88.06
509.021	106.06
509.238	91.06
509.454	100.06
509.67	101.06
509.887	90.06
510.103	129.06
510.319	176.06
510.536	555.06
510.752	1751.06
510.968	526.06
511.184	145.06
511.401	111.06
511.617	103.06
511.833	101.06
512.049	96.06
512.265	92.06
512.481	99.06
512.698	93.06
512.914	102.06
513.13	103.06
513.346	98.06
513.562	93.06
513.778	89.06
513.994	111.06
514.21	105.06
514.426	113.06
514.642	119.06
