Data from Circ_2010_H10_HRD10591_00017.txt Node
Date: Wed Jan 03 10:09:44 EST 2024
User: Yrep
Spectrometer: HR+D1059
Trigger mode: 1
Integration Time (sec): 1.000000E-1
Scans to average: 1
Electric dark correction enabled: true
Nonlinearity correction enabled: false
Boxcar width: 0
XAxis mode: Wavelengths
Number of Pixels in Spectrum: 2048
>>>>>Begin Spectral Data<<<<<
223.165	-15.56
223.4	-15.56
223.635	-15.56
223.869	-15.56
224.104	-18.56
224.338	-18.56
224.573	-10.56
224.808	-23.56
225.042	7.44
225.277	-1.56
225.511	6.44
225.746	-3.56
225.98	-0.56
226.215	21.44
226.449	7.44
226.683	10.44
226.918	12.44
227.152	42.44
227.387	31.44
227.621	33.44
227.856	42.44
228.09	56.44
228.324	55.44
228.559	51.44
228.793	35.44
229.027	64.44
229.262	71.44
229.496	73.44
229.73	77.44
229.964	76.44
230.199	72.44
230.433	58.44
230.667	92.44
230.901	80.44
231.136	71.44
231.37	77.44
231.604	89.44
231.838	86.44
232.072	92.44
232.306	76.44
232.541	96.44
232.775	78.44
233.009	94.44
233.243	81.44
233.477	73.44
233.711	84.44
233.945	82.44
234.179	97.44
234.413	86.44
234.647	66.44
234.881	74.44
235.115	75.44
235.349	92.44
235.583	93.44
235.817	80.44
236.051	70.44
236.285	83.44
236.519	90.44
236.753	86.44
236.987	76.44
237.221	81.44
237.455	81.44
237.689	83.44
237.922	73.44
238.156	76.44
238.39	79.44
238.624	85.44
238.858	73.44
239.091	62.44
239.325	80.44
239.559	86.44
239.793	83.44
240.027	82.44
240.26	73.44
240.494	61.44
240.728	84.44
240.961	71.44
241.195	76.44
241.429	71.44
241.662	81.44
241.896	78.44
242.13	64.44
242.363	70.44
242.597	66.44
242.83	89.44
243.064	72.44
243.298	82.44
243.531	80.44
243.765	77.44
243.998	73.44
244.232	81.44
244.465	85.44
244.699	87.44
244.932	88.44
245.166	74.44
245.399	83.44
245.633	81.44
245.866	76.44
246.099	77.44
246.333	76.44
246.566	89.44
246.8	67.44
247.033	73.44
247.266	84.44
247.5	85.44
247.733	82.44
247.966	85.44
248.2	74.44
248.433	73.44
248.666	62.44
248.899	76.44
249.133	82.44
249.366	80.44
249.599	102.44
249.832	73.44
250.066	87.44
250.299	74.44
250.532	80.44
250.765	79.44
250.998	72.44
251.231	71.44
251.465	81.44
251.698	85.44
251.931	84.44
252.164	105.44
252.397	70.44
252.63	62.44
252.863	69.44
253.096	77.44
253.329	88.44
253.562	80.44
253.795	94.44
254.028	88.44
254.261	77.44
254.494	87.44
254.727	72.44
254.96	69.44
255.193	76.44
255.426	79.44
255.659	75.44
255.892	75.44
256.124	80.44
256.357	76.44
256.59	80.44
256.823	69.44
257.056	68.44
257.289	69.44
257.521	75.44
257.754	87.44
257.987	78.44
258.22	82.44
258.452	86.44
258.685	79.44
258.918	71.44
259.151	93.44
259.383	76.44
259.616	80.44
259.849	78.44
260.081	76.44
260.314	71.44
260.547	84.44
260.779	90.44
261.012	77.44
261.244	73.44
261.477	87.44
261.71	94.44
261.942	128.44
262.175	105.44
262.407	91.44
262.64	95.44
262.872	85.44
263.105	85.44
263.337	80.44
263.57	78.44
263.802	79.44
264.035	75.44
264.267	88.44
264.499	82.44
264.732	92.44
264.964	76.44
265.197	92.44
265.429	86.44
265.661	94.44
265.894	100.44
266.126	86.44
266.358	91.44
266.591	81.44
266.823	87.44
267.055	80.44
267.287	83.44
267.52	78.44
267.752	82.44
267.984	79.44
268.216	67.44
268.448	77.44
268.681	85.44
268.913	86.44
269.145	103.44
269.377	81.44
269.609	89.44
269.841	81.44
270.073	86.44
270.306	76.44
270.538	84.44
270.77	92.44
271.002	79.44
271.234	97.44
271.466	88.44
271.698	91.44
271.93	83.44
272.162	68.44
272.394	81.44
272.626	82.44
272.858	90.44
273.09	82.44
273.322	80.44
273.553	83.44
273.785	99.44
274.017	87.44
274.249	91.44
274.481	81.44
274.713	88.44
274.945	96.44
275.176	89.44
275.408	85.44
275.64	95.44
275.872	74.44
276.104	92.44
276.335	87.44
276.567	92.44
276.799	93.44
277.031	82.44
277.262	81.44
277.494	84.44
277.726	65.44
277.957	95.44
278.189	85.44
278.421	93.44
278.652	78.44
278.884	68.44
279.115	89.44
279.347	82.44
279.579	100.44
279.81	80.44
280.042	94.44
280.273	89.44
280.505	101.44
280.736	95.44
280.968	87.44
281.199	90.44
281.431	77.44
281.662	82.44
281.894	100.44
282.125	78.44
282.356	99.44
282.588	130.44
282.819	106.44
283.051	98.44
283.282	87.44
283.513	85.44
283.745	86.44
283.976	96.44
284.207	80.44
284.439	74.44
284.67	105.44
284.901	80.44
285.132	80.44
285.364	107.44
285.595	84.44
285.826	80.44
286.057	93.44
286.288	89.44
286.52	85.44
286.751	92.44
286.982	95.44
287.213	95.44
287.444	90.44
287.675	93.44
287.906	87.44
288.138	81.44
288.369	87.44
288.6	86.44
288.831	93.44
289.062	82.44
289.293	99.44
289.524	85.44
289.755	93.44
289.986	99.44
290.217	76.44
290.448	85.44
290.679	99.44
290.91	104.44
291.141	88.44
291.371	86.44
291.602	91.44
291.833	92.44
292.064	85.44
292.295	100.44
292.526	97.44
292.757	80.44
292.987	93.44
293.218	91.44
293.449	95.44
293.68	90.44
293.91	102.44
294.141	95.44
294.372	82.44
294.603	80.44
294.833	89.44
295.064	91.44
295.295	79.44
295.525	96.44
295.756	105.44
295.987	124.44
296.217	145.44
296.448	124.44
296.679	90.44
296.909	96.44
297.14	87.44
297.37	91.44
297.601	79.44
297.831	80.44
298.062	73.44
298.292	90.44
298.523	75.44
298.753	82.44
298.984	96.44
299.214	97.44
299.445	81.44
299.675	103.44
299.905	82.44
300.136	91.44
300.366	93.44
300.597	73.44
300.827	100.44
301.057	103.44
301.288	94.44
301.518	93.44
301.748	92.44
301.979	102.44
302.209	82.44
302.439	87.44
302.669	90.44
302.9	86.44
303.13	87.44
303.36	84.44
303.59	85.44
303.82	87.44
304.051	92.44
304.281	85.44
304.511	81.44
304.741	102.44
304.971	96.44
305.201	97.44
305.431	99.44
305.661	82.44
305.891	85.44
306.121	91.44
306.352	92.44
306.582	90.44
306.812	99.44
307.042	96.44
307.272	118.44
307.502	108.44
307.731	100.44
307.961	77.44
308.191	92.44
308.421	78.44
308.651	93.44
308.881	107.44
309.111	90.44
309.341	101.44
309.571	111.44
309.8	95.44
310.03	108.44
310.26	100.44
310.49	96.44
310.72	103.44
310.949	96.44
311.179	92.44
311.409	87.44
311.639	102.44
311.868	102.44
312.098	89.44
312.328	89.44
312.557	94.44
312.787	116.44
313.017	113.44
313.246	101.44
313.476	88.44
313.706	84.44
313.935	101.44
314.165	99.44
314.394	106.44
314.624	106.44
314.853	97.44
315.083	93.44
315.312	93.44
315.542	80.44
315.771	100.44
316.001	101.44
316.23	85.44
316.46	82.44
316.689	88.44
316.919	89.44
317.148	92.44
317.377	95.44
317.607	108.44
317.836	92.44
318.065	96.44
318.295	109.44
318.524	93.44
318.753	101.44
318.983	97.44
319.212	88.44
319.441	111.44
319.67	103.44
319.9	88.44
320.129	87.44
320.358	90.44
320.587	80.44
320.816	101.44
321.046	93.44
321.275	96.44
321.504	100.44
321.733	94.44
321.962	104.44
322.191	98.44
322.42	92.44
322.649	97.44
322.878	108.44
323.108	116.44
323.337	117.44
323.566	119.44
323.795	152.44
324.024	183.44
324.253	358.44
324.482	714.44
324.71	1496.44
324.939	1903.44
325.168	704.44
325.397	230.44
325.626	149.44
325.855	121.44
326.084	119.44
326.313	121.44
326.542	147.44
326.77	227.44
326.999	432.44
327.228	816.44
327.457	1521.44
327.686	1231.44
327.914	340.44
328.143	208.44
328.372	177.44
328.6	134.44
328.829	121.44
329.058	118.44
329.287	118.44
329.515	96.44
329.744	101.44
329.972	126.44
330.201	151.44
330.43	180.44
330.658	136.44
330.887	140.44
331.115	117.44
331.344	97.44
331.572	103.44
331.801	105.44
332.03	101.44
332.258	101.44
332.486	86.44
332.715	92.44
332.943	92.44
333.172	105.44
333.4	106.44
333.629	112.44
333.857	103.44
334.085	113.44
334.314	161.44
334.542	196.44
334.771	188.44
334.999	122.44
335.227	90.44
335.455	94.44
335.684	113.44
335.912	92.44
336.14	96.44
336.369	88.44
336.597	91.44
336.825	101.44
337.053	89.44
337.281	101.44
337.51	95.44
337.738	105.44
337.966	89.44
338.194	105.44
338.422	91.44
338.65	100.44
338.878	88.44
339.106	94.44
339.334	110.44
339.562	111.44
339.79	84.44
340.018	87.44
340.246	112.44
340.474	96.44
340.702	88.44
340.93	93.44
341.158	94.44
341.386	106.44
341.614	95.44
341.842	82.44
342.07	89.44
342.298	91.44
342.526	105.44
342.754	79.44
342.981	100.44
343.209	90.44
343.437	110.44
343.665	99.44
343.893	85.44
344.12	93.44
344.348	102.44
344.576	100.44
344.804	95.44
345.031	91.44
345.259	98.44
345.487	92.44
345.714	79.44
345.942	89.44
346.17	102.44
346.397	88.44
346.625	90.44
346.853	95.44
347.08	84.44
347.308	81.44
347.535	82.44
347.763	96.44
347.99	99.44
348.218	92.44
348.445	105.44
348.673	98.44
348.9	82.44
349.128	105.44
349.355	88.44
349.583	89.44
349.81	104.44
350.037	89.44
350.265	96.44
350.492	80.44
350.72	107.44
350.947	108.44
351.174	108.44
351.402	106.44
351.629	87.44
351.856	96.44
352.083	93.44
352.311	112.44
352.538	113.44
352.765	112.44
352.992	112.44
353.22	112.44
353.447	104.44
353.674	94.44
353.901	102.44
354.128	94.44
354.355	79.44
354.583	96.44
354.81	112.44
355.037	105.44
355.264	93.44
355.491	108.44
355.718	86.44
355.945	93.44
356.172	90.44
356.399	102.44
356.626	82.44
356.853	96.44
357.08	89.44
357.307	97.44
357.534	90.44
357.761	88.44
357.988	84.44
358.215	94.44
358.441	112.44
358.668	82.44
358.895	88.44
359.122	94.44
359.349	83.44
359.576	100.44
359.802	93.44
360.029	101.44
360.256	104.44
360.483	92.44
360.709	88.44
360.936	101.44
361.163	93.44
361.39	104.44
361.616	101.44
361.843	74.44
362.07	74.44
362.296	89.44
362.523	103.44
362.749	94.44
362.976	88.44
363.203	99.44
363.429	91.44
363.656	103.44
363.882	100.44
364.109	96.44
364.335	99.44
364.562	100.44
364.788	100.44
365.015	80.44
365.241	104.44
365.468	97.44
365.694	95.44
365.92	93.44
366.147	94.44
366.373	105.44
366.599	104.44
366.826	87.44
367.052	82.44
367.278	88.44
367.505	96.44
367.731	87.44
367.957	97.44
368.184	98.44
368.41	104.44
368.636	97.44
368.862	119.44
369.089	83.44
369.315	87.44
369.541	85.44
369.767	82.44
369.993	94.44
370.219	81.44
370.445	93.44
370.672	80.44
370.898	82.44
371.124	81.44
371.35	85.44
371.576	92.44
371.802	85.44
372.028	92.44
372.254	98.44
372.48	91.44
372.706	95.44
372.932	79.44
373.158	86.44
373.384	91.44
373.61	78.44
373.835	89.44
374.061	105.44
374.287	81.44
374.513	80.44
374.739	89.44
374.965	91.44
375.191	89.44
375.416	86.44
375.642	83.44
375.868	91.44
376.094	81.44
376.319	90.44
376.545	87.44
376.771	97.44
376.997	92.44
377.222	77.44
377.448	85.44
377.674	93.44
377.899	96.44
378.125	99.44
378.35	76.44
378.576	96.44
378.802	95.44
379.027	91.44
379.253	93.44
379.478	91.44
379.704	104.44
379.929	104.44
380.155	93.44
380.38	100.44
380.606	104.44
380.831	88.44
381.057	99.44
381.282	87.44
381.507	88.44
381.733	98.44
381.958	105.44
382.184	96.44
382.409	103.44
382.634	100.44
382.86	101.44
383.085	102.44
383.31	107.44
383.535	100.44
383.761	112.44
383.986	98.44
384.211	101.44
384.436	107.44
384.662	95.44
384.887	104.44
385.112	105.44
385.337	100.44
385.562	106.44
385.787	101.44
386.013	110.44
386.238	112.44
386.463	120.44
386.688	102.44
386.913	111.44
387.138	118.44
387.363	117.44
387.588	107.44
387.813	102.44
388.038	111.44
388.263	113.44
388.488	116.44
388.713	88.44
388.938	89.44
389.163	80.44
389.387	100.44
389.612	105.44
389.837	95.44
390.062	107.44
390.287	105.44
390.512	99.44
390.736	80.44
390.961	89.44
391.186	94.44
391.411	104.44
391.636	80.44
391.86	88.44
392.085	80.44
392.31	80.44
392.534	95.44
392.759	81.44
392.984	97.44
393.208	94.44
393.433	120.44
393.658	98.44
393.882	81.44
394.107	81.44
394.331	81.44
394.556	91.44
394.78	87.44
395.005	92.44
395.229	90.44
395.454	103.44
395.678	86.44
395.903	86.44
396.127	88.44
396.352	89.44
396.576	81.44
396.801	93.44
397.025	108.44
397.249	101.44
397.474	90.44
397.698	86.44
397.922	82.44
398.147	73.44
398.371	78.44
398.595	91.44
398.82	87.44
399.044	87.44
399.268	104.44
399.492	93.44
399.717	96.44
399.941	86.44
400.165	93.44
400.389	92.44
400.613	85.44
400.837	75.44
401.062	81.44
401.286	76.44
401.51	87.44
401.734	97.44
401.958	92.44
402.182	105.44
402.406	158.44
402.63	125.44
402.854	98.44
403.078	97.44
403.302	93.44
403.526	96.44
403.75	93.44
403.974	82.44
404.198	92.44
404.422	76.44
404.645	85.44
404.869	88.44
405.093	96.44
405.317	87.44
405.541	85.44
405.765	105.44
405.988	115.44
406.212	152.44
406.436	212.44
406.66	152.44
406.883	117.44
407.107	93.44
407.331	93.44
407.555	110.44
407.778	100.44
408.002	93.44
408.226	89.44
408.449	84.44
408.673	76.44
408.896	95.44
409.12	88.44
409.344	92.44
409.567	94.44
409.791	93.44
410.014	87.44
410.238	84.44
410.461	85.44
410.685	95.44
410.908	106.44
411.132	103.44
411.355	97.44
411.578	95.44
411.802	81.44
412.025	90.44
412.249	91.44
412.472	97.44
412.695	108.44
412.919	83.44
413.142	86.44
413.365	94.44
413.589	93.44
413.812	73.44
414.035	98.44
414.258	89.44
414.482	92.44
414.705	98.44
414.928	87.44
415.151	91.44
415.374	91.44
415.597	89.44
415.821	84.44
416.044	81.44
416.267	95.44
416.49	93.44
416.713	97.44
416.936	93.44
417.159	93.44
417.382	98.44
417.605	90.44
417.828	100.44
418.051	88.44
418.274	88.44
418.497	98.44
418.72	97.44
418.943	98.44
419.166	79.44
419.389	95.44
419.611	94.44
419.834	98.44
420.057	95.44
420.28	79.44
420.503	87.44
420.726	77.44
420.948	93.44
421.171	90.44
421.394	85.44
421.617	101.44
421.839	97.44
422.062	96.44
422.285	96.44
422.507	109.44
422.73	122.44
422.953	100.44
423.175	94.44
423.398	91.44
423.621	95.44
423.843	97.44
424.066	81.44
424.288	82.44
424.511	90.44
424.733	96.44
424.956	108.44
425.178	97.44
425.401	98.44
425.623	110.44
425.846	94.44
426.068	93.44
426.291	93.44
426.513	94.44
426.735	86.44
426.958	92.44
427.18	105.44
427.402	138.44
427.625	165.44
427.847	120.44
428.069	113.44
428.292	84.44
428.514	96.44
428.736	93.44
428.958	80.44
429.181	75.44
429.403	70.44
429.625	101.44
429.847	90.44
430.069	84.44
430.292	92.44
430.514	87.44
430.736	80.44
430.958	79.44
431.18	77.44
431.402	64.44
431.624	79.44
431.846	93.44
432.068	104.44
432.29	87.44
432.512	94.44
432.734	93.44
432.956	91.44
433.178	79.44
433.4	96.44
433.622	96.44
433.844	82.44
434.066	108.44
434.287	93.44
434.509	90.44
434.731	80.44
434.953	111.44
435.175	89.44
435.397	82.44
435.618	96.44
435.84	92.44
436.062	116.44
436.284	108.44
436.505	88.44
436.727	92.44
436.949	76.44
437.17	99.44
437.392	85.44
437.614	95.44
437.835	113.44
438.057	107.44
438.278	110.44
438.5	92.44
438.721	110.44
438.943	90.44
439.165	86.44
439.386	97.44
439.608	101.44
439.829	116.44
440.05	122.44
440.272	141.44
440.493	105.44
440.715	79.44
440.936	78.44
441.158	90.44
441.379	101.44
441.6	94.44
441.822	93.44
442.043	86.44
442.264	105.44
442.486	91.44
442.707	90.44
442.928	82.44
443.149	125.44
443.371	120.44
443.592	105.44
443.813	101.44
444.034	100.44
444.255	100.44
444.476	90.44
444.698	97.44
444.919	85.44
445.14	134.44
445.361	116.44
445.582	111.44
445.803	105.44
446.024	118.44
446.245	125.44
446.466	97.44
446.687	84.44
446.908	88.44
447.129	70.44
447.35	97.44
447.571	90.44
447.792	88.44
448.013	96.44
448.234	88.44
448.455	97.44
448.675	109.44
448.896	117.44
449.117	94.44
449.338	96.44
449.559	117.44
449.779	132.44
450	99.44
450.221	95.44
450.442	89.44
450.662	104.44
450.883	109.44
451.104	110.44
451.324	96.44
451.545	92.44
451.766	88.44
451.986	94.44
452.207	94.44
452.428	88.44
452.648	86.44
452.869	105.44
453.089	110.44
453.31	119.44
453.53	93.44
453.751	86.44
453.971	92.44
454.192	107.44
454.412	97.44
454.633	75.44
454.853	76.44
455.073	85.44
455.294	101.44
455.514	90.44
455.734	94.44
455.955	104.44
456.175	86.44
456.395	93.44
456.616	85.44
456.836	79.44
457.056	92.44
457.276	74.44
457.497	90.44
457.717	83.44
457.937	86.44
458.157	90.44
458.377	96.44
458.598	92.44
458.818	130.44
459.038	151.44
459.258	109.44
459.478	100.44
459.698	93.44
459.918	82.44
460.138	82.44
460.358	84.44
460.578	86.44
460.798	86.44
461.018	90.44
461.238	77.44
461.458	73.44
461.678	85.44
461.898	89.44
462.118	83.44
462.338	78.44
462.558	94.44
462.777	88.44
462.997	88.44
463.217	87.44
463.437	86.44
463.657	92.44
463.876	75.44
464.096	85.44
464.316	90.44
464.536	96.44
464.755	79.44
464.975	107.44
465.195	141.44
465.414	141.44
465.634	102.44
465.854	86.44
466.073	100.44
466.293	88.44
466.512	93.44
466.732	76.44
466.951	78.44
467.171	79.44
467.391	94.44
467.61	96.44
467.829	107.44
468.049	130.44
468.268	117.44
468.488	93.44
468.707	91.44
468.927	82.44
469.146	90.44
469.365	86.44
469.585	102.44
469.804	96.44
470.023	104.44
470.243	81.44
470.462	80.44
470.681	117.44
470.901	84.44
471.12	77.44
471.339	84.44
471.558	92.44
471.777	97.44
471.997	110.44
472.216	149.44
472.435	220.44
472.654	96.44
472.873	86.44
473.092	95.44
473.311	93.44
473.53	96.44
473.749	83.44
473.968	82.44
474.187	102.44
474.406	96.44
474.625	97.44
474.844	101.44
475.063	77.44
475.282	89.44
475.501	74.44
475.72	86.44
475.939	93.44
476.158	85.44
476.377	80.44
476.596	86.44
476.814	95.44
477.033	81.44
477.252	77.44
477.471	79.44
477.69	101.44
477.908	86.44
478.127	85.44
478.346	80.44
478.564	84.44
478.783	99.44
479.002	104.44
479.22	96.44
479.439	91.44
479.658	95.44
479.876	93.44
480.095	90.44
480.313	88.44
480.532	91.44
480.751	89.44
480.969	148.44
481.188	358.44
481.406	253.44
481.624	116.44
481.843	81.44
482.061	76.44
482.28	88.44
482.498	85.44
482.717	89.44
482.935	94.44
483.153	95.44
483.372	93.44
483.59	93.44
483.808	82.44
484.027	85.44
484.245	90.44
484.463	100.44
484.681	105.44
484.9	96.44
485.118	108.44
485.336	86.44
485.554	99.44
485.772	92.44
485.99	104.44
486.209	101.44
486.427	101.44
486.645	102.44
486.863	113.44
487.081	108.44
487.299	94.44
487.517	89.44
487.735	94.44
487.953	100.44
488.171	69.44
488.389	96.44
488.607	94.44
488.825	84.44
489.043	94.44
489.261	103.44
489.479	91.44
489.696	93.44
489.914	91.44
490.132	81.44
490.35	95.44
490.568	95.44
490.786	91.44
491.003	88.44
491.221	90.44
491.439	87.44
491.657	89.44
491.874	96.44
492.092	109.44
492.31	99.44
492.527	90.44
492.745	85.44
492.963	85.44
493.18	77.44
493.398	102.44
493.615	86.44
493.833	96.44
494.05	90.44
494.268	93.44
494.485	99.44
494.703	92.44
494.92	92.44
495.138	101.44
495.355	77.44
495.573	97.44
495.79	93.44
496.008	92.44
496.225	93.44
496.442	95.44
496.66	87.44
496.877	89.44
497.094	103.44
497.312	88.44
497.529	72.44
497.746	86.44
497.963	91.44
498.181	94.44
498.398	95.44
498.615	105.44
498.832	107.44
499.049	87.44
499.267	87.44
499.484	94.44
499.701	99.44
499.918	97.44
500.135	90.44
500.352	93.44
500.569	95.44
500.786	100.44
501.003	92.44
501.22	89.44
501.437	97.44
501.654	81.44
501.871	105.44
502.088	95.44
502.305	86.44
502.522	85.44
502.739	86.44
502.956	89.44
503.172	97.44
503.389	96.44
503.606	97.44
503.823	98.44
504.04	77.44
504.256	77.44
504.473	92.44
504.69	74.44
504.907	94.44
505.123	78.44
505.34	93.44
505.557	87.44
505.773	91.44
505.99	92.44
506.207	87.44
506.423	85.44
506.64	88.44
506.856	77.44
507.073	96.44
507.289	80.44
507.506	104.44
507.722	106.44
507.939	97.44
508.155	89.44
508.372	80.44
508.588	86.44
508.805	93.44
509.021	101.44
509.238	93.44
509.454	97.44
509.67	106.44
509.887	114.44
510.103	131.44
510.319	203.44
510.536	678.44
510.752	2127.44
510.968	644.44
511.184	163.44
511.401	106.44
511.617	112.44
511.833	94.44
512.049	86.44
512.265	95.44
512.481	107.44
512.698	90.44
512.914	95.44
513.13	98.44
513.346	91.44
513.562	91.44
513.778	105.44
513.994	85.44
514.21	97.44
514.426	112.44
514.642	122.44
514.858	115.44
515.074	151.44
515.29	384.44
515.506	1324.44
