Data from Circ_2010_H10_HRD10591_00045.txt Node
Date: Wed Jan 03 10:09:50 EST 2024
User: Yrep
Spectrometer: HR+D1059
Trigger mode: 1
Integration Time (sec): 1.000000E-1
Scans to average: 1
Electric dark correction enabled: true
Nonlinearity correction enabled: false
Boxcar width: 0
XAxis mode: Wavelengths
Number of Pixels in Spectrum: 2048
>>>>>Begin Spectral Data<<<<<
223.165	-7.88
223.4	-7.88
223.635	-7.88
223.869	-13.88
224.104	-15.88
224.338	-26.88
224.573	-6.88
224.808	-9.88
225.042	2.12
225.277	-4.88
225.511	-9.88
225.746	4.12
225.98	-0.88
226.215	5.12
226.449	9.12
226.683	11.12
226.918	25.12
227.152	40.12
227.387	43.12
227.621	41.12
227.856	48.12
228.09	40.12
228.324	44.12
228.559	61.12
228.793	57.12
229.027	46.12
229.262	72.12
229.496	70.12
229.73	79.12
229.964	71.12
230.199	80.12
230.433	81.12
230.667	70.12
230.901	67.12
231.136	85.12
231.37	79.12
231.604	69.12
231.838	76.12
232.072	77.12
232.306	79.12
232.541	76.12
232.775	78.12
233.009	93.12
233.243	69.12
233.477	77.12
233.711	83.12
233.945	79.12
234.179	84.12
234.413	80.12
234.647	73.12
234.881	73.12
235.115	78.12
235.349	84.12
235.583	69.12
235.817	81.12
236.051	79.12
236.285	80.12
236.519	83.12
236.753	85.12
236.987	78.12
237.221	86.12
237.455	85.12
237.689	72.12
237.922	69.12
238.156	65.12
238.39	82.12
238.624	78.12
238.858	87.12
239.091	79.12
239.325	86.12
239.559	75.12
239.793	67.12
240.027	85.12
240.26	80.12
240.494	74.12
240.728	85.12
240.961	78.12
241.195	67.12
241.429	65.12
241.662	73.12
241.896	76.12
242.13	77.12
242.363	75.12
242.597	91.12
242.83	72.12
243.064	81.12
243.298	70.12
243.531	77.12
243.765	91.12
243.998	77.12
244.232	79.12
244.465	99.12
244.699	81.12
244.932	86.12
245.166	79.12
245.399	75.12
245.633	74.12
245.866	83.12
246.099	72.12
246.333	73.12
246.566	71.12
246.8	74.12
247.033	92.12
247.266	77.12
247.5	79.12
247.733	76.12
247.966	73.12
248.2	88.12
248.433	76.12
248.666	84.12
248.899	71.12
249.133	88.12
249.366	85.12
249.599	96.12
249.832	81.12
250.066	77.12
250.299	63.12
250.532	73.12
250.765	81.12
250.998	83.12
251.231	87.12
251.465	87.12
251.698	78.12
251.931	80.12
252.164	78.12
252.397	75.12
252.63	83.12
252.863	88.12
253.096	79.12
253.329	72.12
253.562	81.12
253.795	88.12
254.028	85.12
254.261	96.12
254.494	98.12
254.727	72.12
254.96	77.12
255.193	86.12
255.426	79.12
255.659	66.12
255.892	78.12
256.124	70.12
256.357	73.12
256.59	76.12
256.823	79.12
257.056	85.12
257.289	69.12
257.521	77.12
257.754	89.12
257.987	70.12
258.22	83.12
258.452	76.12
258.685	72.12
258.918	77.12
259.151	87.12
259.383	88.12
259.616	83.12
259.849	75.12
260.081	85.12
260.314	87.12
260.547	83.12
260.779	67.12
261.012	84.12
261.244	88.12
261.477	112.12
261.71	85.12
261.942	92.12
262.175	112.12
262.407	95.12
262.64	73.12
262.872	87.12
263.105	68.12
263.337	75.12
263.57	88.12
263.802	79.12
264.035	72.12
264.267	66.12
264.499	84.12
264.732	78.12
264.964	86.12
265.197	78.12
265.429	71.12
265.661	70.12
265.894	75.12
266.126	87.12
266.358	86.12
266.591	82.12
266.823	87.12
267.055	91.12
267.287	88.12
267.52	82.12
267.752	84.12
267.984	79.12
268.216	78.12
268.448	76.12
268.681	73.12
268.913	83.12
269.145	80.12
269.377	89.12
269.609	77.12
269.841	73.12
270.073	87.12
270.306	78.12
270.538	75.12
270.77	82.12
271.002	87.12
271.234	81.12
271.466	82.12
271.698	82.12
271.93	84.12
272.162	76.12
272.394	83.12
272.626	84.12
272.858	84.12
273.09	82.12
273.322	67.12
273.553	79.12
273.785	90.12
274.017	77.12
274.249	89.12
274.481	87.12
274.713	96.12
274.945	105.12
275.176	73.12
275.408	84.12
275.64	82.12
275.872	75.12
276.104	79.12
276.335	77.12
276.567	97.12
276.799	108.12
277.031	105.12
277.262	92.12
277.494	85.12
277.726	85.12
277.957	84.12
278.189	86.12
278.421	88.12
278.652	86.12
278.884	74.12
279.115	85.12
279.347	80.12
279.579	77.12
279.81	93.12
280.042	78.12
280.273	95.12
280.505	91.12
280.736	86.12
280.968	95.12
281.199	87.12
281.431	78.12
281.662	88.12
281.894	90.12
282.125	93.12
282.356	116.12
282.588	136.12
282.819	90.12
283.051	93.12
283.282	80.12
283.513	82.12
283.745	83.12
283.976	91.12
284.207	82.12
284.439	84.12
284.67	94.12
284.901	76.12
285.132	59.12
285.364	92.12
285.595	99.12
285.826	92.12
286.057	79.12
286.288	84.12
286.52	75.12
286.751	85.12
286.982	78.12
287.213	87.12
287.444	91.12
287.675	86.12
287.906	91.12
288.138	85.12
288.369	92.12
288.6	90.12
288.831	90.12
289.062	80.12
289.293	86.12
289.524	93.12
289.755	87.12
289.986	97.12
290.217	85.12
290.448	79.12
290.679	78.12
290.91	75.12
291.141	84.12
291.371	92.12
291.602	86.12
291.833	81.12
292.064	108.12
292.295	83.12
292.526	86.12
292.757	74.12
292.987	63.12
293.218	95.12
293.449	81.12
293.68	87.12
293.91	86.12
294.141	78.12
294.372	86.12
294.603	84.12
294.833	91.12
295.064	111.12
295.295	102.12
295.525	83.12
295.756	108.12
295.987	125.12
296.217	113.12
296.448	121.12
296.679	95.12
296.909	85.12
297.14	89.12
297.37	91.12
297.601	68.12
297.831	84.12
298.062	91.12
298.292	82.12
298.523	86.12
298.753	91.12
298.984	88.12
299.214	83.12
299.445	81.12
299.675	83.12
299.905	91.12
300.136	88.12
300.366	79.12
300.597	85.12
300.827	103.12
301.057	78.12
301.288	98.12
301.518	84.12
301.748	88.12
301.979	113.12
302.209	80.12
302.439	72.12
302.669	113.12
302.9	97.12
303.13	80.12
303.36	93.12
303.59	101.12
303.82	107.12
304.051	89.12
304.281	87.12
304.511	80.12
304.741	94.12
304.971	104.12
305.201	102.12
305.431	99.12
305.661	97.12
305.891	101.12
306.121	91.12
306.352	96.12
306.582	102.12
306.812	94.12
307.042	101.12
307.272	92.12
307.502	105.12
307.731	100.12
307.961	90.12
308.191	89.12
308.421	89.12
308.651	91.12
308.881	88.12
309.111	101.12
309.341	88.12
309.571	91.12
309.8	88.12
310.03	101.12
310.26	81.12
310.49	96.12
310.72	82.12
310.949	98.12
311.179	93.12
311.409	85.12
311.639	88.12
311.868	98.12
312.098	83.12
312.328	85.12
312.557	108.12
312.787	98.12
313.017	93.12
313.246	92.12
313.476	88.12
313.706	84.12
313.935	103.12
314.165	101.12
314.394	99.12
314.624	94.12
314.853	93.12
315.083	92.12
315.312	92.12
315.542	84.12
315.771	79.12
316.001	85.12
316.23	85.12
316.46	89.12
316.689	79.12
316.919	92.12
317.148	93.12
317.377	99.12
317.607	93.12
317.836	96.12
318.065	94.12
318.295	92.12
318.524	94.12
318.753	82.12
318.983	85.12
319.212	105.12
319.441	105.12
319.67	113.12
319.9	88.12
320.129	98.12
320.358	86.12
320.587	98.12
320.816	108.12
321.046	90.12
321.275	95.12
321.504	91.12
321.733	100.12
321.962	93.12
322.191	102.12
322.42	108.12
322.649	90.12
322.878	97.12
323.108	119.12
323.337	111.12
323.566	125.12
323.795	139.12
324.024	208.12
324.253	335.12
324.482	714.12
324.71	1425.12
324.939	1838.12
325.168	676.12
325.397	228.12
325.626	136.12
325.855	109.12
326.084	110.12
326.313	117.12
326.542	127.12
326.77	208.12
326.999	400.12
327.228	784.12
327.457	1442.12
327.686	1187.12
327.914	327.12
328.143	193.12
328.372	179.12
328.6	127.12
328.829	115.12
329.058	120.12
329.287	125.12
329.515	111.12
329.744	105.12
329.972	137.12
330.201	180.12
330.43	224.12
330.658	168.12
330.887	136.12
331.115	119.12
331.344	81.12
331.572	98.12
331.801	93.12
332.03	107.12
332.258	104.12
332.486	93.12
332.715	90.12
332.943	101.12
333.172	99.12
333.4	105.12
333.629	105.12
333.857	115.12
334.085	127.12
334.314	191.12
334.542	302.12
334.771	294.12
334.999	138.12
335.227	98.12
335.455	87.12
335.684	99.12
335.912	92.12
336.14	93.12
336.369	104.12
336.597	105.12
336.825	87.12
337.053	87.12
337.281	83.12
337.51	73.12
337.738	79.12
337.966	105.12
338.194	101.12
338.422	95.12
338.65	95.12
338.878	103.12
339.106	78.12
339.334	96.12
339.562	85.12
339.79	80.12
340.018	84.12
340.246	85.12
340.474	88.12
340.702	92.12
340.93	80.12
341.158	88.12
341.386	105.12
341.614	92.12
341.842	95.12
342.07	84.12
342.298	83.12
342.526	90.12
342.754	85.12
342.981	93.12
343.209	72.12
343.437	95.12
343.665	87.12
343.893	77.12
344.12	90.12
344.348	96.12
344.576	72.12
344.804	86.12
345.031	105.12
345.259	96.12
345.487	97.12
345.714	109.12
345.942	88.12
346.17	84.12
346.397	93.12
346.625	92.12
346.853	89.12
347.08	88.12
347.308	98.12
347.535	93.12
347.763	105.12
347.99	82.12
348.218	90.12
348.445	116.12
348.673	87.12
348.9	94.12
349.128	86.12
349.355	79.12
349.583	86.12
349.81	87.12
350.037	97.12
350.265	89.12
350.492	97.12
350.72	95.12
350.947	116.12
351.174	108.12
351.402	105.12
351.629	101.12
351.856	97.12
352.083	110.12
352.311	99.12
352.538	116.12
352.765	104.12
352.992	92.12
353.22	103.12
353.447	100.12
353.674	94.12
353.901	110.12
354.128	105.12
354.355	101.12
354.583	104.12
354.81	88.12
355.037	90.12
355.264	87.12
355.491	81.12
355.718	96.12
355.945	92.12
356.172	86.12
356.399	100.12
356.626	91.12
356.853	90.12
357.08	94.12
357.307	79.12
357.534	94.12
357.761	90.12
357.988	102.12
358.215	101.12
358.441	98.12
358.668	90.12
358.895	85.12
359.122	94.12
359.349	99.12
359.576	86.12
359.802	97.12
360.029	95.12
360.256	103.12
360.483	99.12
360.709	88.12
360.936	96.12
361.163	90.12
361.39	85.12
361.616	98.12
361.843	81.12
362.07	87.12
362.296	99.12
362.523	88.12
362.749	87.12
362.976	91.12
363.203	89.12
363.429	94.12
363.656	95.12
363.882	75.12
364.109	101.12
364.335	79.12
364.562	100.12
364.788	80.12
365.015	89.12
365.241	89.12
365.468	102.12
365.694	114.12
365.92	109.12
366.147	92.12
366.373	88.12
366.599	81.12
366.826	77.12
367.052	83.12
367.278	88.12
367.505	88.12
367.731	106.12
367.957	82.12
368.184	85.12
368.41	91.12
368.636	102.12
368.862	116.12
369.089	102.12
369.315	105.12
369.541	94.12
369.767	96.12
369.993	103.12
370.219	93.12
370.445	95.12
370.672	89.12
370.898	72.12
371.124	99.12
371.35	103.12
371.576	90.12
371.802	91.12
372.028	99.12
372.254	91.12
372.48	89.12
372.706	97.12
372.932	101.12
373.158	86.12
373.384	108.12
373.61	110.12
373.835	78.12
374.061	94.12
374.287	90.12
374.513	87.12
374.739	94.12
374.965	103.12
375.191	91.12
375.416	91.12
375.642	84.12
375.868	99.12
376.094	86.12
376.319	85.12
376.545	82.12
376.771	102.12
376.997	94.12
377.222	98.12
377.448	87.12
377.674	94.12
377.899	89.12
378.125	88.12
378.35	87.12
378.576	81.12
378.802	91.12
379.027	88.12
379.253	78.12
379.478	92.12
379.704	92.12
379.929	92.12
380.155	90.12
380.38	92.12
380.606	76.12
380.831	97.12
381.057	92.12
381.282	88.12
381.507	92.12
381.733	83.12
381.958	84.12
382.184	94.12
382.409	89.12
382.634	107.12
382.86	92.12
383.085	101.12
383.31	96.12
383.535	102.12
383.761	92.12
383.986	89.12
384.211	92.12
384.436	98.12
384.662	88.12
384.887	99.12
385.112	117.12
385.337	102.12
385.562	95.12
385.787	107.12
386.013	109.12
386.238	104.12
386.463	104.12
386.688	111.12
386.913	106.12
387.138	113.12
387.363	105.12
387.588	86.12
387.813	100.12
388.038	94.12
388.263	96.12
388.488	95.12
388.713	86.12
388.938	94.12
389.163	92.12
389.387	95.12
389.612	94.12
389.837	94.12
390.062	94.12
390.287	75.12
390.512	102.12
390.736	91.12
390.961	87.12
391.186	80.12
391.411	100.12
391.636	84.12
391.86	92.12
392.085	75.12
392.31	75.12
392.534	75.12
392.759	96.12
392.984	87.12
393.208	99.12
393.433	104.12
393.658	102.12
393.882	68.12
394.107	80.12
394.331	84.12
394.556	90.12
394.78	77.12
395.005	85.12
395.229	78.12
395.454	85.12
395.678	84.12
395.903	84.12
396.127	83.12
396.352	101.12
396.576	90.12
396.801	85.12
397.025	105.12
397.249	81.12
397.474	87.12
397.698	73.12
397.922	80.12
398.147	87.12
398.371	82.12
398.595	84.12
398.82	94.12
399.044	89.12
399.268	104.12
399.492	88.12
399.717	89.12
399.941	94.12
400.165	94.12
400.389	88.12
400.613	88.12
400.837	84.12
401.062	73.12
401.286	85.12
401.51	91.12
401.734	98.12
401.958	103.12
402.182	112.12
402.406	139.12
402.63	109.12
402.854	89.12
403.078	92.12
403.302	86.12
403.526	80.12
403.75	75.12
403.974	86.12
404.198	75.12
404.422	103.12
404.645	103.12
404.869	98.12
405.093	108.12
405.317	99.12
405.541	100.12
405.765	101.12
405.988	121.12
406.212	149.12
406.436	196.12
406.66	114.12
406.883	103.12
407.107	101.12
407.331	92.12
407.555	96.12
407.778	93.12
408.002	91.12
408.226	89.12
408.449	85.12
408.673	81.12
408.896	97.12
409.12	88.12
409.344	89.12
409.567	93.12
409.791	94.12
410.014	109.12
410.238	100.12
410.461	75.12
410.685	104.12
410.908	90.12
411.132	109.12
411.355	93.12
411.578	84.12
411.802	81.12
412.025	92.12
412.249	97.12
412.472	95.12
412.695	99.12
412.919	95.12
413.142	83.12
413.365	102.12
413.589	103.12
413.812	82.12
414.035	80.12
414.258	87.12
414.482	97.12
414.705	87.12
414.928	96.12
415.151	87.12
415.374	99.12
415.597	93.12
415.821	75.12
416.044	82.12
416.267	89.12
416.49	85.12
416.713	77.12
416.936	84.12
417.159	84.12
417.382	71.12
417.605	77.12
417.828	90.12
418.051	88.12
418.274	80.12
418.497	83.12
418.72	83.12
418.943	87.12
419.166	78.12
419.389	94.12
419.611	91.12
419.834	80.12
420.057	83.12
420.28	100.12
420.503	91.12
420.726	91.12
420.948	94.12
421.171	88.12
421.394	90.12
421.617	81.12
421.839	94.12
422.062	96.12
422.285	92.12
422.507	90.12
422.73	91.12
422.953	90.12
423.175	92.12
423.398	100.12
423.621	85.12
423.843	82.12
424.066	79.12
424.288	83.12
424.511	103.12
424.733	87.12
424.956	112.12
425.178	89.12
425.401	100.12
425.623	80.12
425.846	91.12
426.068	96.12
426.291	81.12
426.513	86.12
426.735	79.12
426.958	97.12
427.18	95.12
427.402	131.12
427.625	153.12
427.847	135.12
428.069	120.12
428.292	80.12
428.514	94.12
428.736	73.12
428.958	68.12
429.181	104.12
429.403	86.12
429.625	101.12
429.847	96.12
430.069	103.12
430.292	85.12
430.514	91.12
430.736	87.12
430.958	84.12
431.18	86.12
431.402	95.12
431.624	89.12
431.846	75.12
432.068	77.12
432.29	87.12
432.512	88.12
432.734	75.12
432.956	78.12
433.178	102.12
433.4	101.12
433.622	93.12
433.844	100.12
434.066	103.12
434.287	100.12
434.509	89.12
434.731	86.12
434.953	99.12
435.175	101.12
435.397	88.12
435.618	89.12
435.84	106.12
436.062	132.12
436.284	106.12
436.505	99.12
436.727	93.12
436.949	95.12
437.17	76.12
437.392	90.12
437.614	76.12
437.835	89.12
438.057	103.12
438.278	106.12
438.5	89.12
438.721	109.12
438.943	91.12
439.165	88.12
439.386	79.12
439.608	91.12
439.829	90.12
440.05	106.12
440.272	121.12
440.493	87.12
440.715	97.12
440.936	96.12
441.158	85.12
441.379	102.12
441.6	87.12
441.822	78.12
442.043	80.12
442.264	97.12
442.486	96.12
442.707	101.12
442.928	104.12
443.149	112.12
443.371	103.12
443.592	103.12
443.813	99.12
444.034	108.12
444.255	104.12
444.476	85.12
444.698	79.12
444.919	79.12
445.14	141.12
445.361	112.12
445.582	110.12
445.803	132.12
446.024	123.12
446.245	106.12
446.466	105.12
446.687	86.12
446.908	88.12
447.129	85.12
447.35	83.12
447.571	79.12
447.792	85.12
448.013	90.12
448.234	105.12
448.455	85.12
448.675	111.12
448.896	107.12
449.117	80.12
449.338	88.12
449.559	117.12
449.779	115.12
450	103.12
450.221	76.12
450.442	95.12
450.662	106.12
450.883	95.12
451.104	101.12
451.324	87.12
451.545	88.12
451.766	99.12
451.986	78.12
452.207	82.12
452.428	90.12
452.648	106.12
452.869	93.12
453.089	103.12
453.31	107.12
453.53	88.12
453.751	95.12
453.971	101.12
454.192	105.12
454.412	95.12
454.633	79.12
454.853	100.12
455.073	91.12
455.294	85.12
455.514	102.12
455.734	101.12
455.955	98.12
456.175	88.12
456.395	86.12
456.616	89.12
456.836	80.12
457.056	88.12
457.276	76.12
457.497	76.12
457.717	86.12
457.937	95.12
458.157	81.12
458.377	92.12
458.598	95.12
458.818	141.12
459.038	141.12
459.258	116.12
459.478	86.12
459.698	91.12
459.918	89.12
460.138	84.12
460.358	76.12
460.578	97.12
460.798	68.12
461.018	93.12
461.238	85.12
461.458	81.12
461.678	88.12
461.898	85.12
462.118	97.12
462.338	85.12
462.558	90.12
462.777	98.12
462.997	84.12
463.217	95.12
463.437	85.12
463.657	84.12
463.876	85.12
464.096	78.12
464.316	74.12
464.536	83.12
464.755	93.12
464.975	88.12
465.195	144.12
465.414	146.12
465.634	102.12
465.854	80.12
466.073	77.12
466.293	94.12
466.512	81.12
466.732	74.12
466.951	92.12
467.171	88.12
467.391	99.12
467.61	104.12
467.829	98.12
468.049	149.12
468.268	174.12
468.488	95.12
468.707	88.12
468.927	88.12
469.146	91.12
469.365	74.12
469.585	91.12
469.804	92.12
470.023	91.12
470.243	92.12
470.462	102.12
470.681	97.12
470.901	94.12
471.12	96.12
471.339	86.12
471.558	80.12
471.777	83.12
471.997	109.12
472.216	222.12
472.435	383.12
472.654	158.12
472.873	96.12
473.092	69.12
473.311	90.12
473.53	89.12
473.749	85.12
473.968	88.12
474.187	108.12
474.406	116.12
474.625	84.12
474.844	74.12
475.063	80.12
475.282	85.12
475.501	83.12
475.72	78.12
475.939	83.12
476.158	97.12
476.377	89.12
476.596	84.12
476.814	102.12
477.033	101.12
477.252	89.12
477.471	96.12
477.69	86.12
477.908	90.12
478.127	94.12
478.346	79.12
478.564	88.12
478.783	89.12
479.002	87.12
479.22	93.12
479.439	95.12
479.658	77.12
479.876	79.12
480.095	84.12
480.313	96.12
480.532	106.12
480.751	116.12
480.969	200.12
481.188	619.12
481.406	414.12
481.624	131.12
481.843	86.12
482.061	76.12
482.28	83.12
482.498	86.12
482.717	80.12
482.935	81.12
483.153	80.12
483.372	81.12
483.59	76.12
483.808	96.12
484.027	104.12
484.245	89.12
484.463	78.12
484.681	106.12
484.9	87.12
485.118	93.12
485.336	98.12
485.554	94.12
485.772	98.12
485.99	98.12
486.209	111.12
486.427	103.12
486.645	110.12
486.863	109.12
487.081	100.12
487.299	97.12
487.517	94.12
487.735	87.12
487.953	79.12
488.171	101.12
488.389	111.12
488.607	96.12
488.825	81.12
489.043	81.12
489.261	91.12
489.479	73.12
489.696	82.12
489.914	92.12
490.132	95.12
490.35	103.12
490.568	97.12
490.786	103.12
491.003	98.12
491.221	94.12
491.439	84.12
491.657	95.12
491.874	108.12
492.092	93.12
492.31	86.12
492.527	89.12
492.745	87.12
492.963	86.12
493.18	98.12
493.398	82.12
493.615	108.12
493.833	90.12
494.05	86.12
494.268	77.12
494.485	82.12
494.703	81.12
494.92	88.12
495.138	78.12
495.355	90.12
495.573	89.12
495.79	88.12
496.008	104.12
496.225	101.12
496.442	89.12
496.66	91.12
496.877	75.12
497.094	88.12
497.312	93.12
497.529	80.12
497.746	84.12
497.963	81.12
498.181	85.12
498.398	94.12
498.615	104.12
498.832	96.12
499.049	97.12
499.267	86.12
499.484	86.12
499.701	80.12
499.918	95.12
500.135	85.12
500.352	83.12
500.569	87.12
500.786	80.12
501.003	90.12
501.22	87.12
501.437	99.12
501.654	96.12
501.871	91.12
502.088	88.12
502.305	87.12
502.522	79.12
502.739	73.12
502.956	99.12
503.172	97.12
503.389	95.12
503.606	93.12
503.823	105.12
504.04	105.12
504.256	89.12
504.473	87.12
504.69	84.12
504.907	104.12
505.123	83.12
505.34	86.12
505.557	81.12
505.773	86.12
505.99	86.12
506.207	95.12
506.423	99.12
506.64	99.12
506.856	86.12
507.073	91.12
507.289	80.12
507.506	92.12
507.722	99.12
507.939	105.12
508.155	100.12
508.372	88.12
508.588	88.12
508.805	88.12
509.021	86.12
509.238	95.12
509.454	98.12
509.67	89.12
509.887	103.12
510.103	119.12
510.319	195.12
510.536	589.12
510.752	1892.12
510.968	551.12
511.184	143.12
511.401	119.12
511.617	89.12
511.833	81.12
512.049	96.12
512.265	81.12
512.481	77.12
512.698	95.12
512.914	87.12
513.13	89.12
513.346	90.12
513.562	91.12
513.778	98.12
513.994	96.12
514.21	105.12
514.426	96.12
514.642	117.12
514.858	127.12
515.074	155.12
515.29	376.12
515.506	1196.12
515.721	475.12
515.937	123.12
516.153	101.12
