Data from Circ_2010_H10_HRD10591_00011.txt Node
Date: Wed Jan 03 10:09:43 EST 2024
User: Yrep
Spectrometer: HR+D1059
Trigger mode: 1
Integration Time (sec): 1.000000E-1
Scans to average: 1
Electric dark correction enabled: true
Nonlinearity correction enabled: false
Boxcar width: 0
XAxis mode: Wavelengths
Number of Pixels in Spectrum: 2048
>>>>>Begin Spectral Data<<<<<
223.165	-18.25
223.4	-18.25
223.635	-18.25
223.869	-23.25
224.104	-26.25
224.338	-22.25
224.573	-18.25
224.808	-9.25
225.042	1.75
225.277	-14.25
225.511	8.75
225.746	-5.25
225.98	0.75
226.215	21.75
226.449	22.75
226.683	16.75
226.918	29.75
227.152	34.75
227.387	25.75
227.621	34.75
227.856	45.75
228.09	50.75
228.324	54.75
228.559	55.75
228.793	57.75
229.027	62.75
229.262	66.75
229.496	71.75
229.73	85.75
229.964	70.75
230.199	71.75
230.433	76.75
230.667	68.75
230.901	82.75
231.136	79.75
231.37	89.75
231.604	80.75
231.838	83.75
232.072	89.75
232.306	94.75
232.541	72.75
232.775	72.75
233.009	78.75
233.243	66.75
233.477	69.75
233.711	68.75
233.945	82.75
234.179	68.75
234.413	82.75
234.647	78.75
234.881	71.75
235.115	68.75
235.349	77.75
235.583	70.75
235.817	77.75
236.051	69.75
236.285	76.75
236.519	68.75
236.753	75.75
236.987	82.75
237.221	89.75
237.455	86.75
237.689	82.75
237.922	77.75
238.156	85.75
238.39	66.75
238.624	72.75
238.858	65.75
239.091	72.75
239.325	84.75
239.559	84.75
239.793	82.75
240.027	83.75
240.26	71.75
240.494	66.75
240.728	78.75
240.961	75.75
241.195	78.75
241.429	74.75
241.662	89.75
241.896	79.75
242.13	74.75
242.363	72.75
242.597	82.75
242.83	84.75
243.064	68.75
243.298	73.75
243.531	73.75
243.765	80.75
243.998	76.75
244.232	74.75
244.465	72.75
244.699	81.75
244.932	73.75
245.166	78.75
245.399	68.75
245.633	77.75
245.866	69.75
246.099	81.75
246.333	84.75
246.566	71.75
246.8	61.75
247.033	65.75
247.266	70.75
247.5	80.75
247.733	70.75
247.966	77.75
248.2	86.75
248.433	71.75
248.666	81.75
248.899	80.75
249.133	78.75
249.366	84.75
249.599	75.75
249.832	84.75
250.066	72.75
250.299	73.75
250.532	70.75
250.765	75.75
250.998	73.75
251.231	68.75
251.465	74.75
251.698	85.75
251.931	78.75
252.164	72.75
252.397	77.75
252.63	85.75
252.863	86.75
253.096	78.75
253.329	71.75
253.562	80.75
253.795	77.75
254.028	67.75
254.261	76.75
254.494	74.75
254.727	81.75
254.96	74.75
255.193	80.75
255.426	84.75
255.659	65.75
255.892	81.75
256.124	78.75
256.357	87.75
256.59	88.75
256.823	83.75
257.056	74.75
257.289	69.75
257.521	78.75
257.754	75.75
257.987	79.75
258.22	75.75
258.452	72.75
258.685	77.75
258.918	75.75
259.151	65.75
259.383	75.75
259.616	68.75
259.849	64.75
260.081	73.75
260.314	65.75
260.547	72.75
260.779	78.75
261.012	91.75
261.244	86.75
261.477	99.75
261.71	87.75
261.942	103.75
262.175	132.75
262.407	76.75
262.64	98.75
262.872	83.75
263.105	98.75
263.337	88.75
263.57	72.75
263.802	67.75
264.035	77.75
264.267	82.75
264.499	96.75
264.732	74.75
264.964	82.75
265.197	77.75
265.429	63.75
265.661	68.75
265.894	77.75
266.126	84.75
266.358	75.75
266.591	81.75
266.823	97.75
267.055	75.75
267.287	77.75
267.52	67.75
267.752	86.75
267.984	84.75
268.216	71.75
268.448	88.75
268.681	76.75
268.913	89.75
269.145	86.75
269.377	75.75
269.609	76.75
269.841	72.75
270.073	92.75
270.306	82.75
270.538	78.75
270.77	84.75
271.002	93.75
271.234	76.75
271.466	87.75
271.698	101.75
271.93	77.75
272.162	86.75
272.394	92.75
272.626	87.75
272.858	84.75
273.09	90.75
273.322	65.75
273.553	70.75
273.785	79.75
274.017	86.75
274.249	70.75
274.481	84.75
274.713	96.75
274.945	82.75
275.176	83.75
275.408	94.75
275.64	91.75
275.872	70.75
276.104	86.75
276.335	81.75
276.567	105.75
276.799	112.75
277.031	101.75
277.262	98.75
277.494	95.75
277.726	93.75
277.957	74.75
278.189	94.75
278.421	87.75
278.652	79.75
278.884	86.75
279.115	70.75
279.347	91.75
279.579	89.75
279.81	91.75
280.042	95.75
280.273	91.75
280.505	78.75
280.736	89.75
280.968	71.75
281.199	83.75
281.431	84.75
281.662	83.75
281.894	72.75
282.125	93.75
282.356	117.75
282.588	153.75
282.819	129.75
283.051	75.75
283.282	80.75
283.513	74.75
283.745	85.75
283.976	84.75
284.207	85.75
284.439	84.75
284.67	80.75
284.901	89.75
285.132	76.75
285.364	88.75
285.595	85.75
285.826	85.75
286.057	86.75
286.288	63.75
286.52	89.75
286.751	80.75
286.982	76.75
287.213	86.75
287.444	89.75
287.675	90.75
287.906	78.75
288.138	86.75
288.369	86.75
288.6	102.75
288.831	86.75
289.062	102.75
289.293	87.75
289.524	93.75
289.755	85.75
289.986	89.75
290.217	88.75
290.448	90.75
290.679	89.75
290.91	85.75
291.141	82.75
291.371	82.75
291.602	62.75
291.833	83.75
292.064	82.75
292.295	95.75
292.526	72.75
292.757	80.75
292.987	78.75
293.218	69.75
293.449	70.75
293.68	83.75
293.91	85.75
294.141	86.75
294.372	107.75
294.603	77.75
294.833	76.75
295.064	93.75
295.295	88.75
295.525	78.75
295.756	113.75
295.987	116.75
296.217	144.75
296.448	141.75
296.679	84.75
296.909	83.75
297.14	89.75
297.37	77.75
297.601	85.75
297.831	94.75
298.062	87.75
298.292	90.75
298.523	85.75
298.753	81.75
298.984	82.75
299.214	76.75
299.445	82.75
299.675	95.75
299.905	107.75
300.136	85.75
300.366	84.75
300.597	88.75
300.827	99.75
301.057	90.75
301.288	102.75
301.518	97.75
301.748	75.75
301.979	97.75
302.209	98.75
302.439	71.75
302.669	84.75
302.9	74.75
303.13	89.75
303.36	89.75
303.59	97.75
303.82	109.75
304.051	96.75
304.281	75.75
304.511	77.75
304.741	72.75
304.971	73.75
305.201	68.75
305.431	83.75
305.661	73.75
305.891	84.75
306.121	105.75
306.352	99.75
306.582	104.75
306.812	90.75
307.042	87.75
307.272	85.75
307.502	86.75
307.731	97.75
307.961	100.75
308.191	75.75
308.421	90.75
308.651	74.75
308.881	99.75
309.111	93.75
309.341	88.75
309.571	90.75
309.8	88.75
310.03	94.75
310.26	82.75
310.49	100.75
310.72	106.75
310.949	108.75
311.179	88.75
311.409	102.75
311.639	95.75
311.868	98.75
312.098	109.75
312.328	114.75
312.557	112.75
312.787	103.75
313.017	90.75
313.246	93.75
313.476	89.75
313.706	73.75
313.935	93.75
314.165	98.75
314.394	96.75
314.624	80.75
314.853	70.75
315.083	93.75
315.312	78.75
315.542	98.75
315.771	85.75
316.001	99.75
316.23	85.75
316.46	91.75
316.689	90.75
316.919	92.75
317.148	97.75
317.377	94.75
317.607	110.75
317.836	84.75
318.065	104.75
318.295	92.75
318.524	95.75
318.753	89.75
318.983	97.75
319.212	93.75
319.441	117.75
319.67	116.75
319.9	100.75
320.129	99.75
320.358	92.75
320.587	97.75
320.816	99.75
321.046	108.75
321.275	103.75
321.504	96.75
321.733	100.75
321.962	101.75
322.191	105.75
322.42	98.75
322.649	91.75
322.878	95.75
323.108	122.75
323.337	134.75
323.566	148.75
323.795	171.75
324.024	230.75
324.253	433.75
324.482	939.75
324.71	1925.75
324.939	2364.75
325.168	888.75
325.397	264.75
325.626	157.75
325.855	139.75
326.084	144.75
326.313	140.75
326.542	164.75
326.77	251.75
326.999	508.75
327.228	1044.75
327.457	1806.75
327.686	1461.75
327.914	393.75
328.143	233.75
328.372	186.75
328.6	127.75
328.829	118.75
329.058	126.75
329.287	132.75
329.515	122.75
329.744	89.75
329.972	129.75
330.201	158.75
330.43	193.75
330.658	160.75
330.887	149.75
331.115	143.75
331.344	101.75
331.572	106.75
331.801	106.75
332.03	100.75
332.258	93.75
332.486	93.75
332.715	73.75
332.943	78.75
333.172	95.75
333.4	94.75
333.629	115.75
333.857	122.75
334.085	116.75
334.314	158.75
334.542	213.75
334.771	198.75
334.999	122.75
335.227	87.75
335.455	98.75
335.684	91.75
335.912	90.75
336.14	109.75
336.369	103.75
336.597	93.75
336.825	106.75
337.053	80.75
337.281	83.75
337.51	82.75
337.738	88.75
337.966	105.75
338.194	91.75
338.422	101.75
338.65	88.75
338.878	89.75
339.106	84.75
339.334	89.75
339.562	97.75
339.79	79.75
340.018	88.75
340.246	88.75
340.474	95.75
340.702	98.75
340.93	104.75
341.158	93.75
341.386	113.75
341.614	92.75
341.842	99.75
342.07	96.75
342.298	74.75
342.526	72.75
342.754	90.75
342.981	94.75
343.209	89.75
343.437	107.75
343.665	93.75
343.893	86.75
344.12	92.75
344.348	77.75
344.576	85.75
344.804	85.75
345.031	89.75
345.259	98.75
345.487	85.75
345.714	90.75
345.942	94.75
346.17	103.75
346.397	93.75
346.625	84.75
346.853	88.75
347.08	96.75
347.308	101.75
347.535	91.75
347.763	94.75
347.99	103.75
348.218	102.75
348.445	95.75
348.673	85.75
348.9	81.75
349.128	78.75
349.355	81.75
349.583	92.75
349.81	96.75
350.037	98.75
350.265	82.75
350.492	85.75
350.72	113.75
350.947	87.75
351.174	117.75
351.402	120.75
351.629	94.75
351.856	104.75
352.083	94.75
352.311	101.75
352.538	112.75
352.765	105.75
352.992	114.75
353.22	121.75
353.447	94.75
353.674	102.75
353.901	112.75
354.128	99.75
354.355	100.75
354.583	109.75
354.81	91.75
355.037	107.75
355.264	88.75
355.491	88.75
355.718	85.75
355.945	90.75
356.172	86.75
356.399	68.75
356.626	83.75
356.853	100.75
357.08	86.75
357.307	96.75
357.534	95.75
357.761	89.75
357.988	95.75
358.215	104.75
358.441	93.75
358.668	88.75
358.895	99.75
359.122	88.75
359.349	89.75
359.576	100.75
359.802	104.75
360.029	122.75
360.256	112.75
360.483	97.75
360.709	93.75
360.936	92.75
361.163	106.75
361.39	101.75
361.616	98.75
361.843	96.75
362.07	75.75
362.296	107.75
362.523	87.75
362.749	92.75
362.976	92.75
363.203	93.75
363.429	82.75
363.656	108.75
363.882	90.75
364.109	84.75
364.335	89.75
364.562	72.75
364.788	94.75
365.015	80.75
365.241	100.75
365.468	106.75
365.694	94.75
365.92	92.75
366.147	85.75
366.373	89.75
366.599	87.75
366.826	91.75
367.052	91.75
367.278	92.75
367.505	86.75
367.731	83.75
367.957	86.75
368.184	81.75
368.41	93.75
368.636	118.75
368.862	119.75
369.089	120.75
369.315	93.75
369.541	76.75
369.767	86.75
369.993	98.75
370.219	89.75
370.445	84.75
370.672	100.75
370.898	97.75
371.124	86.75
371.35	86.75
371.576	95.75
371.802	77.75
372.028	78.75
372.254	89.75
372.48	75.75
372.706	76.75
372.932	93.75
373.158	90.75
373.384	98.75
373.61	73.75
373.835	89.75
374.061	94.75
374.287	92.75
374.513	92.75
374.739	93.75
374.965	84.75
375.191	91.75
375.416	102.75
375.642	82.75
375.868	81.75
376.094	81.75
376.319	85.75
376.545	80.75
376.771	88.75
376.997	98.75
377.222	97.75
377.448	89.75
377.674	81.75
377.899	88.75
378.125	83.75
378.35	89.75
378.576	96.75
378.802	87.75
379.027	89.75
379.253	112.75
379.478	95.75
379.704	101.75
379.929	82.75
380.155	89.75
380.38	89.75
380.606	112.75
380.831	96.75
381.057	106.75
381.282	93.75
381.507	70.75
381.733	84.75
381.958	93.75
382.184	102.75
382.409	105.75
382.634	96.75
382.86	103.75
383.085	104.75
383.31	98.75
383.535	114.75
383.761	91.75
383.986	100.75
384.211	106.75
384.436	104.75
384.662	121.75
384.887	112.75
385.112	119.75
385.337	94.75
385.562	104.75
385.787	93.75
386.013	101.75
386.238	123.75
386.463	99.75
386.688	124.75
386.913	111.75
387.138	115.75
387.363	107.75
387.588	90.75
387.813	113.75
388.038	104.75
388.263	112.75
388.488	114.75
388.713	89.75
388.938	99.75
389.163	87.75
389.387	91.75
389.612	92.75
389.837	71.75
390.062	96.75
390.287	92.75
390.512	99.75
390.736	92.75
390.961	105.75
391.186	88.75
391.411	92.75
391.636	91.75
391.86	78.75
392.085	87.75
392.31	89.75
392.534	78.75
392.759	90.75
392.984	98.75
393.208	134.75
393.433	174.75
393.658	155.75
393.882	97.75
394.107	96.75
394.331	77.75
394.556	91.75
394.78	73.75
395.005	83.75
395.229	76.75
395.454	84.75
395.678	89.75
395.903	75.75
396.127	92.75
396.352	106.75
396.576	106.75
396.801	133.75
397.025	147.75
397.249	97.75
397.474	84.75
397.698	81.75
397.922	93.75
398.147	78.75
398.371	90.75
398.595	96.75
398.82	75.75
399.044	82.75
399.268	85.75
399.492	73.75
399.717	72.75
399.941	87.75
400.165	76.75
400.389	92.75
400.613	89.75
400.837	76.75
401.062	84.75
401.286	83.75
401.51	82.75
401.734	101.75
401.958	95.75
402.182	121.75
402.406	183.75
402.63	128.75
402.854	102.75
403.078	80.75
403.302	71.75
403.526	80.75
403.75	90.75
403.974	81.75
404.198	87.75
404.422	83.75
404.645	78.75
404.869	89.75
405.093	111.75
405.317	107.75
405.541	115.75
405.765	108.75
405.988	140.75
406.212	210.75
406.436	288.75
406.66	162.75
406.883	92.75
407.107	91.75
407.331	93.75
407.555	110.75
407.778	84.75
408.002	89.75
408.226	85.75
408.449	88.75
408.673	82.75
408.896	94.75
409.12	86.75
409.344	101.75
409.567	100.75
409.791	84.75
410.014	82.75
410.238	98.75
410.461	87.75
410.685	89.75
410.908	89.75
411.132	103.75
411.355	89.75
411.578	91.75
411.802	88.75
412.025	81.75
412.249	87.75
412.472	79.75
412.695	99.75
412.919	88.75
413.142	86.75
413.365	83.75
413.589	81.75
413.812	84.75
414.035	89.75
414.258	99.75
414.482	95.75
414.705	95.75
414.928	93.75
415.151	90.75
415.374	83.75
415.597	103.75
415.821	74.75
416.044	100.75
416.267	96.75
416.49	91.75
416.713	69.75
416.936	89.75
417.159	78.75
417.382	84.75
417.605	90.75
417.828	83.75
418.051	96.75
418.274	81.75
418.497	71.75
418.72	77.75
418.943	83.75
419.166	93.75
419.389	76.75
419.611	87.75
419.834	78.75
420.057	86.75
420.28	77.75
420.503	77.75
420.726	78.75
420.948	83.75
421.171	79.75
421.394	83.75
421.617	83.75
421.839	79.75
422.062	97.75
422.285	92.75
422.507	114.75
422.73	125.75
422.953	113.75
423.175	104.75
423.398	75.75
423.621	85.75
423.843	92.75
424.066	92.75
424.288	109.75
424.511	97.75
424.733	99.75
424.956	107.75
425.178	101.75
425.401	90.75
425.623	89.75
425.846	97.75
426.068	96.75
426.291	99.75
426.513	94.75
426.735	89.75
426.958	90.75
427.18	104.75
427.402	134.75
427.625	199.75
427.847	144.75
428.069	129.75
428.292	93.75
428.514	91.75
428.736	81.75
428.958	66.75
429.181	102.75
429.403	82.75
429.625	89.75
429.847	91.75
430.069	91.75
430.292	89.75
430.514	90.75
430.736	69.75
430.958	76.75
431.18	77.75
431.402	78.75
431.624	68.75
431.846	78.75
432.068	84.75
432.29	76.75
432.512	98.75
432.734	83.75
432.956	84.75
433.178	95.75
433.4	94.75
433.622	84.75
433.844	90.75
434.066	75.75
434.287	99.75
434.509	89.75
434.731	96.75
434.953	95.75
435.175	93.75
435.397	89.75
435.618	76.75
435.84	96.75
436.062	118.75
436.284	118.75
436.505	86.75
436.727	100.75
436.949	82.75
437.17	68.75
437.392	94.75
437.614	89.75
437.835	115.75
438.057	116.75
438.278	112.75
438.5	116.75
438.721	114.75
438.943	106.75
439.165	90.75
439.386	75.75
439.608	83.75
439.829	97.75
440.05	127.75
440.272	155.75
440.493	95.75
440.715	81.75
440.936	78.75
441.158	81.75
441.379	99.75
441.6	96.75
441.822	89.75
442.043	82.75
442.264	110.75
442.486	110.75
442.707	86.75
442.928	112.75
443.149	152.75
443.371	130.75
443.592	109.75
443.813	123.75
444.034	101.75
444.255	96.75
444.476	86.75
444.698	82.75
444.919	101.75
445.14	128.75
445.361	117.75
445.582	115.75
445.803	122.75
446.024	134.75
446.245	133.75
446.466	102.75
446.687	78.75
446.908	82.75
447.129	105.75
447.35	89.75
447.571	87.75
447.792	86.75
448.013	115.75
448.234	106.75
448.455	104.75
448.675	92.75
448.896	109.75
449.117	97.75
449.338	101.75
449.559	117.75
449.779	138.75
450	85.75
450.221	92.75
450.442	74.75
450.662	92.75
450.883	102.75
451.104	120.75
451.324	82.75
451.545	96.75
451.766	97.75
451.986	74.75
452.207	93.75
452.428	92.75
452.648	103.75
452.869	109.75
453.089	127.75
453.31	118.75
453.53	95.75
453.751	106.75
453.971	102.75
454.192	110.75
454.412	106.75
454.633	82.75
454.853	95.75
455.073	92.75
455.294	76.75
455.514	107.75
455.734	86.75
455.955	78.75
456.175	72.75
456.395	85.75
456.616	79.75
456.836	81.75
457.056	92.75
457.276	83.75
457.497	82.75
457.717	90.75
457.937	73.75
458.157	67.75
458.377	79.75
458.598	113.75
458.818	184.75
459.038	170.75
459.258	134.75
459.478	96.75
459.698	98.75
459.918	94.75
460.138	76.75
460.358	82.75
460.578	79.75
460.798	83.75
461.018	78.75
461.238	87.75
461.458	88.75
461.678	89.75
461.898	88.75
462.118	96.75
462.338	93.75
462.558	85.75
462.777	84.75
462.997	78.75
463.217	78.75
463.437	73.75
463.657	84.75
463.876	84.75
464.096	70.75
464.316	94.75
464.536	88.75
464.755	91.75
464.975	116.75
465.195	199.75
465.414	197.75
465.634	94.75
465.854	89.75
466.073	97.75
466.293	78.75
466.512	96.75
466.732	81.75
466.951	102.75
467.171	83.75
467.391	84.75
467.61	112.75
467.829	110.75
468.049	114.75
468.268	131.75
468.488	86.75
468.707	83.75
468.927	77.75
469.146	76.75
469.365	90.75
469.585	81.75
469.804	92.75
470.023	100.75
470.243	91.75
470.462	97.75
470.681	123.75
470.901	96.75
471.12	89.75
471.339	75.75
471.558	77.75
471.777	90.75
471.997	94.75
472.216	161.75
472.435	226.75
472.654	120.75
472.873	82.75
473.092	82.75
473.311	82.75
473.53	73.75
473.749	76.75
473.968	90.75
474.187	103.75
474.406	94.75
474.625	91.75
474.844	84.75
475.063	83.75
475.282	83.75
475.501	73.75
475.72	85.75
475.939	77.75
476.158	85.75
476.377	87.75
476.596	78.75
476.814	86.75
477.033	96.75
477.252	99.75
477.471	89.75
477.69	87.75
477.908	93.75
478.127	95.75
478.346	74.75
478.564	87.75
478.783	92.75
479.002	90.75
479.22	85.75
479.439	82.75
479.658	111.75
479.876	82.75
480.095	97.75
480.313	76.75
480.532	85.75
480.751	109.75
480.969	133.75
481.188	349.75
481.406	256.75
481.624	102.75
481.843	92.75
482.061	80.75
482.28	85.75
482.498	73.75
482.717	73.75
482.935	84.75
483.153	84.75
483.372	83.75
483.59	92.75
483.808	77.75
484.027	85.75
484.245	92.75
484.463	80.75
484.681	89.75
484.9	94.75
485.118	96.75
485.336	90.75
485.554	98.75
485.772	93.75
485.99	93.75
486.209	94.75
486.427	87.75
486.645	108.75
486.863	100.75
487.081	98.75
487.299	93.75
487.517	89.75
487.735	90.75
487.953	87.75
488.171	80.75
488.389	92.75
488.607	103.75
488.825	100.75
489.043	100.75
489.261	102.75
489.479	91.75
489.696	78.75
489.914	88.75
490.132	100.75
490.35	76.75
490.568	83.75
490.786	75.75
491.003	74.75
491.221	92.75
491.439	82.75
491.657	97.75
491.874	92.75
492.092	95.75
492.31	85.75
492.527	98.75
492.745	101.75
492.963	79.75
493.18	94.75
493.398	89.75
493.615	89.75
493.833	79.75
494.05	78.75
494.268	84.75
494.485	85.75
494.703	97.75
494.92	85.75
495.138	84.75
495.355	89.75
495.573	89.75
495.79	77.75
496.008	80.75
496.225	85.75
496.442	75.75
496.66	81.75
496.877	86.75
497.094	93.75
497.312	84.75
497.529	75.75
497.746	90.75
497.963	85.75
498.181	89.75
498.398	77.75
498.615	95.75
498.832	100.75
499.049	97.75
499.267	91.75
499.484	92.75
499.701	78.75
499.918	92.75
500.135	82.75
500.352	84.75
500.569	81.75
500.786	91.75
501.003	71.75
501.22	96.75
501.437	85.75
501.654	88.75
501.871	117.75
502.088	99.75
502.305	92.75
502.522	76.75
502.739	85.75
502.956	81.75
503.172	82.75
503.389	96.75
503.606	100.75
503.823	113.75
504.04	88.75
504.256	87.75
504.473	85.75
504.69	88.75
504.907	90.75
505.123	65.75
505.34	86.75
505.557	92.75
505.773	84.75
505.99	84.75
506.207	93.75
506.423	81.75
506.64	103.75
506.856	85.75
507.073	89.75
507.289	98.75
507.506	98.75
507.722	123.75
507.939	112.75
508.155	94.75
508.372	81.75
508.588	92.75
508.805	97.75
509.021	92.75
509.238	81.75
509.454	90.75
509.67	105.75
509.887	127.75
510.103	149.75
510.319	238.75
510.536	928.75
510.752	3043.75
510.968	831.75
511.184	179.75
511.401	105.75
511.617	96.75
511.833	82.75
512.049	102.75
512.265	76.75
512.481	97.75
512.698	93.75
512.914	98.75
513.13	92.75
513.346	87.75
513.562	93.75
513.778	88.75
513.994	94.75
514.21	96.75
514.426	114.75
514.642	152.75
514.858	131.75
515.074	204.75
515.29	613.75
515.506	2114.75
515.721	730.75
515.937	176.75
