Data from Circ_2010_H10_HRD10591_00088.txt Node
Date: Wed Jan 03 10:09:58 EST 2024
User: Yrep
Spectrometer: HR+D1059
Trigger mode: 1
Integration Time (sec): 1.000000E-1
Scans to average: 1
Electric dark correction enabled: true
Nonlinearity correction enabled: false
Boxcar width: 0
XAxis mode: Wavelengths
Number of Pixels in Spectrum: 2048
>>>>>Begin Spectral Data<<<<<
223.165	-23.44
223.4	-23.44
223.635	-23.44
223.869	-20.44
224.104	-17.44
224.338	-9.44
224.573	-19.44
224.808	-0.44
225.042	-8.44
225.277	-9.44
225.511	-2.44
225.746	8.56
225.98	16.56
226.215	15.56
226.449	12.56
226.683	10.56
226.918	36.56
227.152	10.56
227.387	34.56
227.621	43.56
227.856	39.56
228.09	32.56
228.324	43.56
228.559	65.56
228.793	54.56
229.027	66.56
229.262	69.56
229.496	59.56
229.73	88.56
229.964	68.56
230.199	75.56
230.433	62.56
230.667	77.56
230.901	69.56
231.136	81.56
231.37	89.56
231.604	78.56
231.838	79.56
232.072	74.56
232.306	85.56
232.541	73.56
232.775	85.56
233.009	82.56
233.243	80.56
233.477	79.56
233.711	73.56
233.945	74.56
234.179	82.56
234.413	85.56
234.647	76.56
234.881	68.56
235.115	71.56
235.349	71.56
235.583	71.56
235.817	81.56
236.051	62.56
236.285	62.56
236.519	69.56
236.753	78.56
236.987	82.56
237.221	76.56
237.455	77.56
237.689	86.56
237.922	65.56
238.156	69.56
238.39	79.56
238.624	82.56
238.858	68.56
239.091	76.56
239.325	69.56
239.559	85.56
239.793	71.56
240.027	77.56
240.26	74.56
240.494	98.56
240.728	83.56
240.961	70.56
241.195	70.56
241.429	65.56
241.662	68.56
241.896	85.56
242.13	74.56
242.363	79.56
242.597	76.56
242.83	61.56
243.064	90.56
243.298	82.56
243.531	73.56
243.765	73.56
243.998	75.56
244.232	73.56
244.465	81.56
244.699	82.56
244.932	64.56
245.166	76.56
245.399	67.56
245.633	79.56
245.866	70.56
246.099	62.56
246.333	80.56
246.566	88.56
246.8	82.56
247.033	79.56
247.266	73.56
247.5	82.56
247.733	86.56
247.966	74.56
248.2	74.56
248.433	74.56
248.666	85.56
248.899	78.56
249.133	73.56
249.366	89.56
249.599	81.56
249.832	79.56
250.066	79.56
250.299	74.56
250.532	77.56
250.765	85.56
250.998	72.56
251.231	80.56
251.465	74.56
251.698	64.56
251.931	79.56
252.164	88.56
252.397	89.56
252.63	65.56
252.863	76.56
253.096	62.56
253.329	77.56
253.562	76.56
253.795	88.56
254.028	79.56
254.261	79.56
254.494	86.56
254.727	75.56
254.96	78.56
255.193	91.56
255.426	83.56
255.659	72.56
255.892	83.56
256.124	75.56
256.357	69.56
256.59	90.56
256.823	92.56
257.056	94.56
257.289	70.56
257.521	84.56
257.754	86.56
257.987	69.56
258.22	78.56
258.452	92.56
258.685	83.56
258.918	92.56
259.151	89.56
259.383	83.56
259.616	69.56
259.849	74.56
260.081	73.56
260.314	76.56
260.547	84.56
260.779	77.56
261.012	78.56
261.244	84.56
261.477	97.56
261.71	86.56
261.942	90.56
262.175	113.56
262.407	87.56
262.64	71.56
262.872	70.56
263.105	65.56
263.337	86.56
263.57	74.56
263.802	93.56
264.035	86.56
264.267	75.56
264.499	71.56
264.732	91.56
264.964	86.56
265.197	71.56
265.429	82.56
265.661	88.56
265.894	85.56
266.126	76.56
266.358	80.56
266.591	90.56
266.823	83.56
267.055	70.56
267.287	74.56
267.52	82.56
267.752	75.56
267.984	81.56
268.216	94.56
268.448	87.56
268.681	78.56
268.913	85.56
269.145	101.56
269.377	83.56
269.609	75.56
269.841	84.56
270.073	78.56
270.306	84.56
270.538	95.56
270.77	89.56
271.002	66.56
271.234	89.56
271.466	98.56
271.698	79.56
271.93	94.56
272.162	78.56
272.394	90.56
272.626	94.56
272.858	87.56
273.09	84.56
273.322	92.56
273.553	72.56
273.785	86.56
274.017	79.56
274.249	88.56
274.481	86.56
274.713	75.56
274.945	85.56
275.176	84.56
275.408	89.56
275.64	99.56
275.872	98.56
276.104	82.56
276.335	86.56
276.567	103.56
276.799	126.56
277.031	106.56
277.262	96.56
277.494	86.56
277.726	78.56
277.957	73.56
278.189	90.56
278.421	75.56
278.652	95.56
278.884	86.56
279.115	91.56
279.347	91.56
279.579	79.56
279.81	96.56
280.042	99.56
280.273	103.56
280.505	101.56
280.736	79.56
280.968	90.56
281.199	77.56
281.431	63.56
281.662	57.56
281.894	77.56
282.125	75.56
282.356	105.56
282.588	117.56
282.819	88.56
283.051	87.56
283.282	106.56
283.513	79.56
283.745	82.56
283.976	92.56
284.207	94.56
284.439	82.56
284.67	90.56
284.901	82.56
285.132	87.56
285.364	78.56
285.595	88.56
285.826	85.56
286.057	91.56
286.288	76.56
286.52	82.56
286.751	75.56
286.982	86.56
287.213	81.56
287.444	79.56
287.675	90.56
287.906	85.56
288.138	73.56
288.369	78.56
288.6	90.56
288.831	87.56
289.062	77.56
289.293	77.56
289.524	86.56
289.755	86.56
289.986	90.56
290.217	78.56
290.448	85.56
290.679	96.56
290.91	83.56
291.141	72.56
291.371	70.56
291.602	79.56
291.833	84.56
292.064	79.56
292.295	96.56
292.526	78.56
292.757	82.56
292.987	67.56
293.218	81.56
293.449	80.56
293.68	79.56
293.91	81.56
294.141	89.56
294.372	80.56
294.603	89.56
294.833	81.56
295.064	76.56
295.295	88.56
295.525	83.56
295.756	85.56
295.987	105.56
296.217	126.56
296.448	109.56
296.679	99.56
296.909	71.56
297.14	71.56
297.37	86.56
297.601	91.56
297.831	92.56
298.062	89.56
298.292	76.56
298.523	95.56
298.753	93.56
298.984	95.56
299.214	89.56
299.445	98.56
299.675	94.56
299.905	77.56
300.136	101.56
300.366	83.56
300.597	92.56
300.827	99.56
301.057	89.56
301.288	83.56
301.518	78.56
301.748	97.56
301.979	108.56
302.209	86.56
302.439	93.56
302.669	83.56
302.9	91.56
303.13	93.56
303.36	79.56
303.59	106.56
303.82	81.56
304.051	98.56
304.281	88.56
304.511	97.56
304.741	84.56
304.971	84.56
305.201	82.56
305.431	94.56
305.661	85.56
305.891	85.56
306.121	101.56
306.352	96.56
306.582	97.56
306.812	101.56
307.042	94.56
307.272	94.56
307.502	101.56
307.731	109.56
307.961	97.56
308.191	87.56
308.421	86.56
308.651	83.56
308.881	95.56
309.111	88.56
309.341	85.56
309.571	78.56
309.8	83.56
310.03	92.56
310.26	109.56
310.49	95.56
310.72	84.56
310.949	94.56
311.179	92.56
311.409	81.56
311.639	85.56
311.868	98.56
312.098	108.56
312.328	90.56
312.557	110.56
312.787	105.56
313.017	102.56
313.246	81.56
313.476	101.56
313.706	82.56
313.935	95.56
314.165	95.56
314.394	79.56
314.624	84.56
314.853	93.56
315.083	79.56
315.312	91.56
315.542	78.56
315.771	89.56
316.001	88.56
316.23	98.56
316.46	84.56
316.689	94.56
316.919	84.56
317.148	88.56
317.377	92.56
317.607	89.56
317.836	95.56
318.065	90.56
318.295	84.56
318.524	100.56
318.753	90.56
318.983	95.56
319.212	91.56
319.441	85.56
319.67	103.56
319.9	85.56
320.129	86.56
320.358	92.56
320.587	107.56
320.816	98.56
321.046	92.56
321.275	83.56
321.504	81.56
321.733	102.56
321.962	86.56
322.191	98.56
322.42	92.56
322.649	87.56
322.878	105.56
323.108	119.56
323.337	126.56
323.566	115.56
323.795	144.56
324.024	207.56
324.253	337.56
324.482	713.56
324.71	1430.56
324.939	1886.56
325.168	721.56
325.397	213.56
325.626	141.56
325.855	103.56
326.084	111.56
326.313	111.56
326.542	136.56
326.77	197.56
326.999	389.56
327.228	846.56
327.457	1520.56
327.686	1184.56
327.914	344.56
328.143	210.56
328.372	208.56
328.6	160.56
328.829	118.56
329.058	117.56
329.287	117.56
329.515	120.56
329.744	134.56
329.972	177.56
330.201	227.56
330.43	322.56
330.658	191.56
330.887	157.56
331.115	109.56
331.344	102.56
331.572	95.56
331.801	120.56
332.03	115.56
332.258	103.56
332.486	80.56
332.715	100.56
332.943	90.56
333.172	85.56
333.4	103.56
333.629	114.56
333.857	132.56
334.085	161.56
334.314	244.56
334.542	405.56
334.771	385.56
334.999	155.56
335.227	103.56
335.455	90.56
335.684	93.56
335.912	97.56
336.14	87.56
336.369	93.56
336.597	86.56
336.825	97.56
337.053	85.56
337.281	90.56
337.51	90.56
337.738	89.56
337.966	91.56
338.194	97.56
338.422	99.56
338.65	89.56
338.878	87.56
339.106	84.56
339.334	94.56
339.562	90.56
339.79	76.56
340.018	84.56
340.246	103.56
340.474	89.56
340.702	93.56
340.93	79.56
341.158	96.56
341.386	91.56
341.614	96.56
341.842	98.56
342.07	88.56
342.298	78.56
342.526	99.56
342.754	78.56
342.981	83.56
343.209	86.56
343.437	101.56
343.665	79.56
343.893	86.56
344.12	88.56
344.348	97.56
344.576	82.56
344.804	87.56
345.031	84.56
345.259	75.56
345.487	79.56
345.714	86.56
345.942	83.56
346.17	96.56
346.397	86.56
346.625	78.56
346.853	85.56
347.08	75.56
347.308	81.56
347.535	95.56
347.763	90.56
347.99	85.56
348.218	106.56
348.445	92.56
348.673	82.56
348.9	90.56
349.128	90.56
349.355	90.56
349.583	90.56
349.81	86.56
350.037	98.56
350.265	86.56
350.492	88.56
350.72	93.56
350.947	85.56
351.174	101.56
351.402	100.56
351.629	94.56
351.856	96.56
352.083	79.56
352.311	91.56
352.538	99.56
352.765	99.56
352.992	110.56
353.22	90.56
353.447	106.56
353.674	93.56
353.901	97.56
354.128	85.56
354.355	95.56
354.583	109.56
354.81	94.56
355.037	89.56
355.264	90.56
355.491	75.56
355.718	90.56
355.945	102.56
356.172	83.56
356.399	86.56
356.626	79.56
356.853	94.56
357.08	99.56
357.307	98.56
357.534	90.56
357.761	92.56
357.988	100.56
358.215	82.56
358.441	87.56
358.668	91.56
358.895	87.56
359.122	69.56
359.349	94.56
359.576	91.56
359.802	104.56
360.029	123.56
360.256	107.56
360.483	79.56
360.709	72.56
360.936	82.56
361.163	73.56
361.39	79.56
361.616	94.56
361.843	89.56
362.07	97.56
362.296	89.56
362.523	82.56
362.749	83.56
362.976	73.56
363.203	84.56
363.429	89.56
363.656	88.56
363.882	100.56
364.109	87.56
364.335	92.56
364.562	88.56
364.788	82.56
365.015	85.56
365.241	95.56
365.468	103.56
365.694	109.56
365.92	94.56
366.147	84.56
366.373	84.56
366.599	78.56
366.826	92.56
367.052	93.56
367.278	85.56
367.505	73.56
367.731	88.56
367.957	101.56
368.184	86.56
368.41	89.56
368.636	100.56
368.862	100.56
369.089	102.56
369.315	89.56
369.541	91.56
369.767	82.56
369.993	89.56
370.219	79.56
370.445	77.56
370.672	98.56
370.898	85.56
371.124	98.56
371.35	97.56
371.576	76.56
371.802	79.56
372.028	82.56
372.254	91.56
372.48	91.56
372.706	98.56
372.932	82.56
373.158	81.56
373.384	95.56
373.61	78.56
373.835	90.56
374.061	102.56
374.287	79.56
374.513	94.56
374.739	86.56
374.965	77.56
375.191	67.56
375.416	98.56
375.642	98.56
375.868	79.56
376.094	75.56
376.319	72.56
376.545	78.56
376.771	89.56
376.997	70.56
377.222	89.56
377.448	91.56
377.674	78.56
377.899	74.56
378.125	86.56
378.35	94.56
378.576	79.56
378.802	76.56
379.027	87.56
379.253	93.56
379.478	105.56
379.704	91.56
379.929	83.56
380.155	79.56
380.38	89.56
380.606	90.56
380.831	85.56
381.057	102.56
381.282	89.56
381.507	97.56
381.733	79.56
381.958	82.56
382.184	94.56
382.409	99.56
382.634	94.56
382.86	103.56
383.085	108.56
383.31	99.56
383.535	89.56
383.761	101.56
383.986	102.56
384.211	88.56
384.436	109.56
384.662	106.56
384.887	86.56
385.112	90.56
385.337	89.56
385.562	84.56
385.787	115.56
386.013	119.56
386.238	110.56
386.463	109.56
386.688	105.56
386.913	91.56
387.138	97.56
387.363	100.56
387.588	94.56
387.813	101.56
388.038	105.56
388.263	126.56
388.488	85.56
388.713	105.56
388.938	92.56
389.163	104.56
389.387	98.56
389.612	90.56
389.837	91.56
390.062	83.56
390.287	91.56
390.512	82.56
390.736	82.56
390.961	83.56
391.186	84.56
391.411	87.56
391.636	85.56
391.86	82.56
392.085	77.56
392.31	89.56
392.534	79.56
392.759	100.56
392.984	88.56
393.208	87.56
393.433	96.56
393.658	79.56
393.882	81.56
394.107	82.56
394.331	73.56
394.556	84.56
394.78	85.56
395.005	92.56
395.229	93.56
395.454	85.56
395.678	77.56
395.903	86.56
396.127	81.56
396.352	93.56
396.576	77.56
396.801	83.56
397.025	92.56
397.249	92.56
397.474	88.56
397.698	73.56
397.922	83.56
398.147	74.56
398.371	81.56
398.595	79.56
398.82	79.56
399.044	69.56
399.268	82.56
399.492	85.56
399.717	81.56
399.941	86.56
400.165	85.56
400.389	86.56
400.613	82.56
400.837	73.56
401.062	96.56
401.286	96.56
401.51	88.56
401.734	85.56
401.958	100.56
402.182	105.56
402.406	130.56
402.63	100.56
402.854	77.56
403.078	84.56
403.302	91.56
403.526	82.56
403.75	89.56
403.974	85.56
404.198	83.56
404.422	86.56
404.645	86.56
404.869	85.56
405.093	77.56
405.317	94.56
405.541	93.56
405.765	89.56
405.988	95.56
406.212	144.56
406.436	198.56
406.66	138.56
406.883	106.56
407.107	89.56
407.331	90.56
407.555	103.56
407.778	93.56
408.002	87.56
408.226	73.56
408.449	90.56
408.673	93.56
408.896	88.56
409.12	71.56
409.344	82.56
409.567	80.56
409.791	89.56
410.014	73.56
410.238	100.56
410.461	87.56
410.685	80.56
410.908	93.56
411.132	83.56
411.355	84.56
411.578	91.56
411.802	78.56
412.025	82.56
412.249	89.56
412.472	103.56
412.695	101.56
412.919	93.56
413.142	81.56
413.365	78.56
413.589	91.56
413.812	83.56
414.035	77.56
414.258	75.56
414.482	81.56
414.705	75.56
414.928	94.56
415.151	84.56
415.374	100.56
415.597	92.56
415.821	79.56
416.044	90.56
416.267	79.56
416.49	76.56
416.713	80.56
416.936	92.56
417.159	73.56
417.382	93.56
417.605	88.56
417.828	98.56
418.051	82.56
418.274	74.56
418.497	81.56
418.72	104.56
418.943	77.56
419.166	85.56
419.389	89.56
419.611	82.56
419.834	87.56
420.057	83.56
420.28	85.56
420.503	91.56
420.726	80.56
420.948	96.56
421.171	80.56
421.394	99.56
421.617	103.56
421.839	81.56
422.062	80.56
422.285	95.56
422.507	98.56
422.73	99.56
422.953	106.56
423.175	84.56
423.398	79.56
423.621	88.56
423.843	89.56
424.066	77.56
424.288	81.56
424.511	88.56
424.733	85.56
424.956	97.56
425.178	85.56
425.401	97.56
425.623	93.56
425.846	79.56
426.068	86.56
426.291	85.56
426.513	91.56
426.735	94.56
426.958	84.56
427.18	97.56
427.402	118.56
427.625	146.56
427.847	123.56
428.069	134.56
428.292	99.56
428.514	99.56
428.736	88.56
428.958	78.56
429.181	89.56
429.403	74.56
429.625	75.56
429.847	78.56
430.069	78.56
430.292	84.56
430.514	77.56
430.736	72.56
430.958	78.56
431.18	71.56
431.402	83.56
431.624	85.56
431.846	78.56
432.068	79.56
432.29	69.56
432.512	86.56
432.734	101.56
432.956	96.56
433.178	88.56
433.4	92.56
433.622	71.56
433.844	90.56
434.066	93.56
434.287	90.56
434.509	91.56
434.731	92.56
434.953	98.56
435.175	100.56
435.397	78.56
435.618	87.56
435.84	100.56
436.062	133.56
436.284	105.56
436.505	97.56
436.727	89.56
436.949	82.56
437.17	83.56
437.392	85.56
437.614	95.56
437.835	94.56
438.057	107.56
438.278	98.56
438.5	104.56
438.721	105.56
438.943	94.56
439.165	90.56
439.386	81.56
439.608	78.56
439.829	82.56
440.05	107.56
440.272	131.56
440.493	88.56
440.715	85.56
440.936	85.56
441.158	85.56
441.379	86.56
441.6	82.56
441.822	94.56
442.043	97.56
442.264	105.56
442.486	100.56
442.707	107.56
442.928	89.56
443.149	107.56
443.371	108.56
443.592	112.56
443.813	86.56
444.034	94.56
444.255	81.56
444.476	79.56
444.698	80.56
444.919	77.56
445.14	118.56
445.361	122.56
445.582	114.56
445.803	115.56
446.024	101.56
446.245	116.56
446.466	99.56
446.687	76.56
446.908	76.56
447.129	89.56
447.35	86.56
447.571	86.56
447.792	91.56
448.013	85.56
448.234	101.56
448.455	88.56
448.675	87.56
448.896	113.56
449.117	109.56
449.338	91.56
449.559	103.56
449.779	120.56
450	87.56
450.221	82.56
450.442	84.56
450.662	95.56
450.883	94.56
451.104	99.56
451.324	86.56
451.545	88.56
451.766	90.56
451.986	82.56
452.207	77.56
452.428	84.56
452.648	97.56
452.869	100.56
453.089	93.56
453.31	98.56
453.53	80.56
453.751	90.56
453.971	90.56
454.192	94.56
454.412	90.56
454.633	83.56
454.853	87.56
455.073	93.56
455.294	84.56
455.514	81.56
455.734	85.56
455.955	78.56
456.175	86.56
456.395	73.56
456.616	74.56
456.836	79.56
457.056	84.56
457.276	85.56
457.497	86.56
457.717	82.56
457.937	78.56
458.157	72.56
458.377	98.56
458.598	99.56
458.818	148.56
459.038	142.56
459.258	94.56
459.478	80.56
459.698	85.56
459.918	79.56
460.138	83.56
460.358	84.56
460.578	95.56
460.798	94.56
461.018	83.56
461.238	81.56
461.458	91.56
461.678	90.56
461.898	75.56
462.118	76.56
462.338	83.56
462.558	78.56
462.777	90.56
462.997	78.56
463.217	91.56
463.437	91.56
463.657	85.56
463.876	102.56
464.096	83.56
464.316	93.56
464.536	93.56
464.755	93.56
464.975	91.56
465.195	142.56
465.414	135.56
465.634	94.56
465.854	92.56
466.073	94.56
466.293	77.56
466.512	89.56
466.732	83.56
466.951	91.56
467.171	89.56
467.391	93.56
467.61	93.56
467.829	103.56
468.049	158.56
468.268	219.56
468.488	113.56
468.707	72.56
468.927	58.56
469.146	92.56
469.365	85.56
469.585	77.56
469.804	90.56
470.023	91.56
470.243	89.56
470.462	100.56
470.681	101.56
470.901	98.56
471.12	92.56
471.339	84.56
471.558	91.56
471.777	88.56
471.997	132.56
472.216	289.56
472.435	517.56
472.654	183.56
472.873	90.56
473.092	82.56
473.311	90.56
473.53	89.56
473.749	81.56
473.968	84.56
474.187	101.56
474.406	86.56
474.625	76.56
474.844	74.56
475.063	79.56
475.282	92.56
475.501	87.56
475.72	89.56
475.939	74.56
476.158	89.56
476.377	89.56
476.596	77.56
476.814	94.56
477.033	78.56
477.252	83.56
477.471	77.56
477.69	100.56
477.908	83.56
478.127	93.56
478.346	96.56
478.564	82.56
478.783	99.56
479.002	71.56
479.22	82.56
479.439	106.56
479.658	109.56
479.876	89.56
480.095	99.56
480.313	104.56
480.532	96.56
480.751	130.56
480.969	261.56
481.188	885.56
481.406	545.56
481.624	139.56
481.843	93.56
482.061	92.56
482.28	85.56
482.498	73.56
482.717	76.56
482.935	90.56
483.153	101.56
483.372	81.56
483.59	86.56
483.808	76.56
484.027	93.56
484.245	90.56
484.463	83.56
484.681	76.56
484.9	100.56
485.118	86.56
485.336	89.56
485.554	92.56
485.772	101.56
485.99	101.56
486.209	108.56
486.427	99.56
486.645	105.56
486.863	108.56
487.081	104.56
487.299	80.56
487.517	88.56
487.735	90.56
487.953	100.56
488.171	80.56
488.389	85.56
488.607	99.56
488.825	102.56
489.043	98.56
489.261	94.56
489.479	85.56
489.696	88.56
489.914	102.56
490.132	82.56
490.35	60.56
490.568	82.56
490.786	85.56
491.003	79.56
491.221	88.56
491.439	102.56
491.657	86.56
491.874	92.56
492.092	96.56
492.31	91.56
492.527	79.56
492.745	74.56
492.963	75.56
493.18	88.56
493.398	98.56
493.615	92.56
493.833	87.56
494.05	76.56
494.268	92.56
494.485	88.56
494.703	89.56
494.92	89.56
495.138	95.56
495.355	101.56
495.573	81.56
495.79	80.56
496.008	90.56
496.225	77.56
496.442	101.56
496.66	85.56
496.877	92.56
497.094	97.56
497.312	88.56
497.529	89.56
497.746	81.56
497.963	79.56
498.181	110.56
498.398	101.56
498.615	96.56
498.832	91.56
499.049	93.56
499.267	87.56
499.484	93.56
499.701	85.56
499.918	87.56
500.135	93.56
500.352	94.56
500.569	77.56
500.786	96.56
501.003	89.56
501.22	82.56
501.437	94.56
501.654	88.56
501.871	92.56
502.088	75.56
502.305	86.56
502.522	73.56
502.739	86.56
502.956	86.56
503.172	91.56
503.389	90.56
503.606	93.56
503.823	99.56
504.04	88.56
504.256	90.56
504.473	80.56
504.69	80.56
504.907	90.56
505.123	73.56
505.34	97.56
505.557	88.56
505.773	88.56
505.99	93.56
506.207	89.56
506.423	92.56
506.64	77.56
506.856	83.56
507.073	74.56
507.289	91.56
507.506	87.56
507.722	92.56
507.939	104.56
508.155	93.56
508.372	107.56
508.588	106.56
508.805	96.56
509.021	86.56
509.238	94.56
509.454	85.56
509.67	101.56
509.887	103.56
510.103	126.56
510.319	174.56
510.536	587.56
510.752	1767.56
510.968	520.56
511.184	137.56
511.401	95.56
511.617	95.56
511.833	88.56
512.049	87.56
512.265	85.56
512.481	91.56
512.698	97.56
512.914	90.56
513.13	93.56
513.346	93.56
513.562	92.56
513.778	104.56
513.994	92.56
514.21	87.56
514.426	110.56
514.642	127.56
514.858	112.56
515.074	150.56
515.29	344.56
515.506	1125.56
515.721	438.56
515.937	129.56
516.153	108.56
516.369	90.56
516.585	93.56
516.801	87.56
