Data from Circ_2010_H10_HRD10591_00013.txt Node
Date: Wed Jan 03 10:09:43 EST 2024
User: Yrep
Spectrometer: HR+D1059
Trigger mode: 1
Integration Time (sec): 1.000000E-1
Scans to average: 1
Electric dark correction enabled: true
Nonlinearity correction enabled: false
Boxcar width: 0
XAxis mode: Wavelengths
Number of Pixels in Spectrum: 2048
>>>>>Begin Spectral Data<<<<<
223.165	-11.19
223.4	-11.19
223.635	-11.19
223.869	-14.19
224.104	-23.19
224.338	-12.19
224.573	-11.19
224.808	-22.19
225.042	-2.19
225.277	-0.19
225.511	-2.19
225.746	-0.19
225.98	1.81
226.215	18.81
226.449	19.81
226.683	17.81
226.918	21.81
227.152	18.81
227.387	36.81
227.621	46.81
227.856	58.81
228.09	45.81
228.324	54.81
228.559	54.81
228.793	57.81
229.027	66.81
229.262	75.81
229.496	88.81
229.73	66.81
229.964	73.81
230.199	78.81
230.433	78.81
230.667	96.81
230.901	85.81
231.136	92.81
231.37	77.81
231.604	79.81
231.838	77.81
232.072	80.81
232.306	79.81
232.541	73.81
232.775	78.81
233.009	99.81
233.243	78.81
233.477	91.81
233.711	90.81
233.945	73.81
234.179	85.81
234.413	74.81
234.647	59.81
234.881	75.81
235.115	83.81
235.349	81.81
235.583	78.81
235.817	82.81
236.051	71.81
236.285	86.81
236.519	91.81
236.753	92.81
236.987	79.81
237.221	86.81
237.455	87.81
237.689	75.81
237.922	74.81
238.156	72.81
238.39	73.81
238.624	76.81
238.858	90.81
239.091	88.81
239.325	79.81
239.559	79.81
239.793	70.81
240.027	77.81
240.26	87.81
240.494	67.81
240.728	76.81
240.961	79.81
241.195	90.81
241.429	66.81
241.662	70.81
241.896	91.81
242.13	78.81
242.363	77.81
242.597	71.81
242.83	63.81
243.064	65.81
243.298	85.81
243.531	72.81
243.765	77.81
243.998	78.81
244.232	81.81
244.465	89.81
244.699	75.81
244.932	68.81
245.166	72.81
245.399	77.81
245.633	63.81
245.866	65.81
246.099	72.81
246.333	65.81
246.566	80.81
246.8	88.81
247.033	67.81
247.266	96.81
247.5	87.81
247.733	77.81
247.966	78.81
248.2	79.81
248.433	86.81
248.666	94.81
248.899	89.81
249.133	79.81
249.366	92.81
249.599	90.81
249.832	92.81
250.066	78.81
250.299	76.81
250.532	76.81
250.765	65.81
250.998	77.81
251.231	87.81
251.465	79.81
251.698	88.81
251.931	82.81
252.164	70.81
252.397	77.81
252.63	80.81
252.863	74.81
253.096	87.81
253.329	69.81
253.562	84.81
253.795	83.81
254.028	92.81
254.261	87.81
254.494	78.81
254.727	88.81
254.96	72.81
255.193	86.81
255.426	76.81
255.659	88.81
255.892	89.81
256.124	97.81
256.357	88.81
256.59	90.81
256.823	80.81
257.056	81.81
257.289	78.81
257.521	84.81
257.754	59.81
257.987	81.81
258.22	75.81
258.452	91.81
258.685	84.81
258.918	94.81
259.151	81.81
259.383	86.81
259.616	90.81
259.849	70.81
260.081	82.81
260.314	79.81
260.547	70.81
260.779	84.81
261.012	96.81
261.244	86.81
261.477	83.81
261.71	90.81
261.942	99.81
262.175	100.81
262.407	100.81
262.64	86.81
262.872	82.81
263.105	78.81
263.337	96.81
263.57	96.81
263.802	78.81
264.035	81.81
264.267	74.81
264.499	78.81
264.732	96.81
264.964	77.81
265.197	85.81
265.429	87.81
265.661	81.81
265.894	64.81
266.126	78.81
266.358	77.81
266.591	67.81
266.823	93.81
267.055	73.81
267.287	94.81
267.52	105.81
267.752	81.81
267.984	73.81
268.216	80.81
268.448	79.81
268.681	79.81
268.913	73.81
269.145	79.81
269.377	78.81
269.609	82.81
269.841	66.81
270.073	71.81
270.306	85.81
270.538	95.81
270.77	74.81
271.002	94.81
271.234	101.81
271.466	86.81
271.698	80.81
271.93	78.81
272.162	86.81
272.394	95.81
272.626	83.81
272.858	74.81
273.09	76.81
273.322	77.81
273.553	72.81
273.785	72.81
274.017	95.81
274.249	80.81
274.481	78.81
274.713	76.81
274.945	86.81
275.176	99.81
275.408	95.81
275.64	95.81
275.872	91.81
276.104	85.81
276.335	86.81
276.567	107.81
276.799	100.81
277.031	104.81
277.262	97.81
277.494	93.81
277.726	75.81
277.957	98.81
278.189	89.81
278.421	86.81
278.652	87.81
278.884	107.81
279.115	82.81
279.347	93.81
279.579	103.81
279.81	84.81
280.042	92.81
280.273	99.81
280.505	85.81
280.736	84.81
280.968	89.81
281.199	82.81
281.431	74.81
281.662	100.81
281.894	83.81
282.125	104.81
282.356	102.81
282.588	146.81
282.819	111.81
283.051	90.81
283.282	90.81
283.513	94.81
283.745	85.81
283.976	101.81
284.207	92.81
284.439	84.81
284.67	106.81
284.901	93.81
285.132	93.81
285.364	103.81
285.595	62.81
285.826	86.81
286.057	88.81
286.288	88.81
286.52	82.81
286.751	82.81
286.982	82.81
287.213	87.81
287.444	93.81
287.675	82.81
287.906	93.81
288.138	87.81
288.369	96.81
288.6	105.81
288.831	89.81
289.062	95.81
289.293	83.81
289.524	96.81
289.755	88.81
289.986	90.81
290.217	79.81
290.448	84.81
290.679	84.81
290.91	92.81
291.141	88.81
291.371	83.81
291.602	79.81
291.833	87.81
292.064	102.81
292.295	103.81
292.526	89.81
292.757	86.81
292.987	99.81
293.218	101.81
293.449	87.81
293.68	85.81
293.91	94.81
294.141	85.81
294.372	86.81
294.603	85.81
294.833	93.81
295.064	93.81
295.295	80.81
295.525	97.81
295.756	94.81
295.987	119.81
296.217	114.81
296.448	124.81
296.679	96.81
296.909	101.81
297.14	95.81
297.37	104.81
297.601	74.81
297.831	93.81
298.062	89.81
298.292	89.81
298.523	92.81
298.753	84.81
298.984	82.81
299.214	93.81
299.445	90.81
299.675	90.81
299.905	95.81
300.136	93.81
300.366	87.81
300.597	86.81
300.827	100.81
301.057	98.81
301.288	101.81
301.518	109.81
301.748	92.81
301.979	95.81
302.209	97.81
302.439	96.81
302.669	100.81
302.9	94.81
303.13	95.81
303.36	81.81
303.59	86.81
303.82	115.81
304.051	90.81
304.281	73.81
304.511	98.81
304.741	88.81
304.971	84.81
305.201	84.81
305.431	76.81
305.661	87.81
305.891	102.81
306.121	105.81
306.352	102.81
306.582	109.81
306.812	98.81
307.042	96.81
307.272	97.81
307.502	94.81
307.731	101.81
307.961	83.81
308.191	96.81
308.421	87.81
308.651	92.81
308.881	97.81
309.111	90.81
309.341	98.81
309.571	101.81
309.8	89.81
310.03	90.81
310.26	97.81
310.49	100.81
310.72	104.81
310.949	97.81
311.179	102.81
311.409	102.81
311.639	86.81
311.868	89.81
312.098	85.81
312.328	88.81
312.557	104.81
312.787	105.81
313.017	110.81
313.246	90.81
313.476	98.81
313.706	84.81
313.935	97.81
314.165	103.81
314.394	92.81
314.624	95.81
314.853	100.81
315.083	91.81
315.312	109.81
315.542	101.81
315.771	90.81
316.001	82.81
316.23	104.81
316.46	91.81
316.689	86.81
316.919	95.81
317.148	93.81
317.377	82.81
317.607	83.81
317.836	93.81
318.065	74.81
318.295	95.81
318.524	97.81
318.753	91.81
318.983	97.81
319.212	86.81
319.441	95.81
319.67	102.81
319.9	96.81
320.129	89.81
320.358	85.81
320.587	93.81
320.816	98.81
321.046	82.81
321.275	96.81
321.504	86.81
321.733	108.81
321.962	105.81
322.191	105.81
322.42	97.81
322.649	108.81
322.878	102.81
323.108	102.81
323.337	109.81
323.566	121.81
323.795	144.81
324.024	198.81
324.253	327.81
324.482	684.81
324.71	1371.81
324.939	1822.81
325.168	691.81
325.397	214.81
325.626	140.81
325.855	113.81
326.084	121.81
326.313	123.81
326.542	141.81
326.77	216.81
326.999	398.81
327.228	766.81
327.457	1403.81
327.686	1086.81
327.914	329.81
328.143	177.81
328.372	159.81
328.6	136.81
328.829	110.81
329.058	117.81
329.287	116.81
329.515	96.81
329.744	108.81
329.972	126.81
330.201	160.81
330.43	176.81
330.658	129.81
330.887	135.81
331.115	111.81
331.344	98.81
331.572	86.81
331.801	95.81
332.03	98.81
332.258	85.81
332.486	88.81
332.715	82.81
332.943	86.81
333.172	87.81
333.4	90.81
333.629	104.81
333.857	129.81
334.085	136.81
334.314	134.81
334.542	193.81
334.771	178.81
334.999	122.81
335.227	93.81
335.455	92.81
335.684	87.81
335.912	99.81
336.14	90.81
336.369	96.81
336.597	80.81
336.825	104.81
337.053	82.81
337.281	89.81
337.51	92.81
337.738	85.81
337.966	105.81
338.194	91.81
338.422	73.81
338.65	88.81
338.878	99.81
339.106	100.81
339.334	90.81
339.562	103.81
339.79	97.81
340.018	98.81
340.246	105.81
340.474	101.81
340.702	86.81
340.93	85.81
341.158	90.81
341.386	112.81
341.614	97.81
341.842	89.81
342.07	103.81
342.298	85.81
342.526	82.81
342.754	89.81
342.981	91.81
343.209	85.81
343.437	108.81
343.665	95.81
343.893	90.81
344.12	87.81
344.348	94.81
344.576	93.81
344.804	88.81
345.031	87.81
345.259	86.81
345.487	79.81
345.714	93.81
345.942	84.81
346.17	97.81
346.397	88.81
346.625	91.81
346.853	80.81
347.08	80.81
347.308	80.81
347.535	96.81
347.763	108.81
347.99	97.81
348.218	98.81
348.445	111.81
348.673	101.81
348.9	96.81
349.128	89.81
349.355	92.81
349.583	97.81
349.81	104.81
350.037	112.81
350.265	96.81
350.492	83.81
350.72	99.81
350.947	117.81
351.174	111.81
351.402	108.81
351.629	126.81
351.856	97.81
352.083	119.81
352.311	100.81
352.538	112.81
352.765	103.81
352.992	104.81
353.22	118.81
353.447	118.81
353.674	106.81
353.901	102.81
354.128	106.81
354.355	111.81
354.583	99.81
354.81	95.81
355.037	100.81
355.264	83.81
355.491	101.81
355.718	99.81
355.945	93.81
356.172	93.81
356.399	103.81
356.626	95.81
356.853	104.81
357.08	96.81
357.307	99.81
357.534	104.81
357.761	97.81
357.988	99.81
358.215	104.81
358.441	93.81
358.668	87.81
358.895	92.81
359.122	81.81
359.349	92.81
359.576	80.81
359.802	94.81
360.029	111.81
360.256	103.81
360.483	96.81
360.709	82.81
360.936	82.81
361.163	97.81
361.39	92.81
361.616	106.81
361.843	98.81
362.07	97.81
362.296	94.81
362.523	88.81
362.749	107.81
362.976	100.81
363.203	91.81
363.429	86.81
363.656	86.81
363.882	102.81
364.109	94.81
364.335	83.81
364.562	89.81
364.788	100.81
365.015	101.81
365.241	101.81
365.468	104.81
365.694	107.81
365.92	95.81
366.147	90.81
366.373	81.81
366.599	76.81
366.826	80.81
367.052	92.81
367.278	88.81
367.505	86.81
367.731	91.81
367.957	86.81
368.184	85.81
368.41	93.81
368.636	103.81
368.862	113.81
369.089	101.81
369.315	87.81
369.541	81.81
369.767	81.81
369.993	94.81
370.219	90.81
370.445	79.81
370.672	76.81
370.898	92.81
371.124	84.81
371.35	79.81
371.576	92.81
371.802	95.81
372.028	83.81
372.254	97.81
372.48	95.81
372.706	81.81
372.932	105.81
373.158	91.81
373.384	94.81
373.61	100.81
373.835	96.81
374.061	79.81
374.287	105.81
374.513	80.81
374.739	106.81
374.965	100.81
375.191	90.81
375.416	94.81
375.642	90.81
375.868	88.81
376.094	76.81
376.319	84.81
376.545	93.81
376.771	97.81
376.997	80.81
377.222	94.81
377.448	91.81
377.674	82.81
377.899	103.81
378.125	88.81
378.35	93.81
378.576	96.81
378.802	82.81
379.027	95.81
379.253	102.81
379.478	81.81
379.704	93.81
379.929	82.81
380.155	107.81
380.38	97.81
380.606	103.81
380.831	93.81
381.057	83.81
381.282	86.81
381.507	105.81
381.733	105.81
381.958	85.81
382.184	97.81
382.409	102.81
382.634	106.81
382.86	119.81
383.085	109.81
383.31	105.81
383.535	106.81
383.761	106.81
383.986	105.81
384.211	95.81
384.436	94.81
384.662	106.81
384.887	110.81
385.112	120.81
385.337	111.81
385.562	105.81
385.787	105.81
386.013	110.81
386.238	109.81
386.463	106.81
386.688	116.81
386.913	119.81
387.138	112.81
387.363	110.81
387.588	104.81
387.813	117.81
388.038	118.81
388.263	129.81
388.488	117.81
388.713	94.81
388.938	96.81
389.163	91.81
389.387	108.81
389.612	86.81
389.837	87.81
390.062	89.81
390.287	95.81
390.512	103.81
390.736	96.81
390.961	86.81
391.186	90.81
391.411	92.81
391.636	85.81
391.86	98.81
392.085	99.81
392.31	94.81
392.534	82.81
392.759	90.81
392.984	88.81
393.208	102.81
393.433	122.81
393.658	124.81
393.882	87.81
394.107	89.81
394.331	86.81
394.556	81.81
394.78	101.81
395.005	82.81
395.229	90.81
395.454	77.81
395.678	83.81
395.903	78.81
396.127	96.81
396.352	91.81
396.576	91.81
396.801	101.81
397.025	109.81
397.249	96.81
397.474	92.81
397.698	95.81
397.922	98.81
398.147	80.81
398.371	86.81
398.595	92.81
398.82	79.81
399.044	91.81
399.268	80.81
399.492	89.81
399.717	84.81
399.941	89.81
400.165	94.81
400.389	85.81
400.613	79.81
400.837	94.81
401.062	87.81
401.286	80.81
401.51	82.81
401.734	98.81
401.958	107.81
402.182	118.81
402.406	142.81
402.63	105.81
402.854	93.81
403.078	92.81
403.302	86.81
403.526	87.81
403.75	81.81
403.974	93.81
404.198	93.81
404.422	89.81
404.645	94.81
404.869	86.81
405.093	79.81
405.317	96.81
405.541	106.81
405.765	96.81
405.988	118.81
406.212	144.81
406.436	191.81
406.66	138.81
406.883	96.81
407.107	85.81
407.331	90.81
407.555	97.81
407.778	107.81
408.002	87.81
408.226	94.81
408.449	87.81
408.673	97.81
408.896	92.81
409.12	91.81
409.344	90.81
409.567	90.81
409.791	92.81
410.014	96.81
410.238	88.81
410.461	82.81
410.685	90.81
410.908	107.81
411.132	83.81
411.355	90.81
411.578	96.81
411.802	86.81
412.025	89.81
412.249	88.81
412.472	94.81
412.695	103.81
412.919	98.81
413.142	82.81
413.365	96.81
413.589	89.81
413.812	92.81
414.035	88.81
414.258	98.81
414.482	93.81
414.705	98.81
414.928	87.81
415.151	90.81
415.374	88.81
415.597	103.81
415.821	74.81
416.044	84.81
416.267	97.81
416.49	92.81
416.713	96.81
416.936	86.81
417.159	94.81
417.382	92.81
417.605	84.81
417.828	99.81
418.051	113.81
418.274	85.81
418.497	85.81
418.72	87.81
418.943	86.81
419.166	92.81
419.389	104.81
419.611	78.81
419.834	85.81
420.057	75.81
420.28	78.81
420.503	102.81
420.726	90.81
420.948	85.81
421.171	102.81
421.394	100.81
421.617	97.81
421.839	94.81
422.062	87.81
422.285	110.81
422.507	104.81
422.73	103.81
422.953	89.81
423.175	93.81
423.398	83.81
423.621	79.81
423.843	92.81
424.066	84.81
424.288	58.81
424.511	82.81
424.733	89.81
424.956	111.81
425.178	103.81
425.401	85.81
425.623	103.81
425.846	92.81
426.068	103.81
426.291	89.81
426.513	84.81
426.735	108.81
426.958	98.81
427.18	96.81
427.402	140.81
427.625	152.81
427.847	121.81
428.069	118.81
428.292	81.81
428.514	91.81
428.736	86.81
428.958	90.81
429.181	96.81
429.403	86.81
429.625	90.81
429.847	86.81
430.069	90.81
430.292	99.81
430.514	87.81
430.736	86.81
430.958	88.81
431.18	72.81
431.402	85.81
431.624	77.81
431.846	88.81
432.068	93.81
432.29	105.81
432.512	86.81
432.734	106.81
432.956	105.81
433.178	90.81
433.4	109.81
433.622	86.81
433.844	88.81
434.066	98.81
434.287	86.81
434.509	78.81
434.731	94.81
434.953	92.81
435.175	89.81
435.397	96.81
435.618	98.81
435.84	85.81
436.062	120.81
436.284	113.81
436.505	92.81
436.727	101.81
436.949	86.81
437.17	82.81
437.392	99.81
437.614	90.81
437.835	103.81
438.057	100.81
438.278	89.81
438.5	102.81
438.721	107.81
438.943	94.81
439.165	88.81
439.386	79.81
439.608	84.81
439.829	91.81
440.05	112.81
440.272	123.81
440.493	100.81
440.715	84.81
440.936	86.81
441.158	90.81
441.379	82.81
441.6	91.81
441.822	84.81
442.043	93.81
442.264	106.81
442.486	92.81
442.707	89.81
442.928	91.81
443.149	117.81
443.371	92.81
443.592	101.81
443.813	107.81
444.034	97.81
444.255	106.81
444.476	93.81
444.698	92.81
444.919	85.81
445.14	132.81
445.361	120.81
445.582	102.81
445.803	130.81
446.024	118.81
446.245	124.81
446.466	97.81
446.687	95.81
446.908	75.81
447.129	87.81
447.35	97.81
447.571	86.81
447.792	102.81
448.013	96.81
448.234	92.81
448.455	96.81
448.675	101.81
448.896	106.81
449.117	89.81
449.338	100.81
449.559	111.81
449.779	131.81
450	87.81
450.221	90.81
450.442	97.81
450.662	91.81
450.883	90.81
451.104	101.81
451.324	88.81
451.545	96.81
451.766	74.81
451.986	90.81
452.207	97.81
452.428	92.81
452.648	92.81
452.869	101.81
453.089	110.81
453.31	116.81
453.53	84.81
453.751	87.81
453.971	93.81
454.192	107.81
454.412	96.81
454.633	89.81
454.853	81.81
455.073	79.81
455.294	85.81
455.514	83.81
455.734	86.81
455.955	84.81
456.175	85.81
456.395	75.81
456.616	77.81
456.836	91.81
457.056	85.81
457.276	81.81
457.497	86.81
457.717	85.81
457.937	86.81
458.157	87.81
458.377	75.81
458.598	98.81
458.818	118.81
459.038	130.81
459.258	110.81
459.478	85.81
459.698	75.81
459.918	86.81
460.138	76.81
460.358	86.81
460.578	89.81
460.798	108.81
461.018	86.81
461.238	92.81
461.458	70.81
461.678	81.81
461.898	84.81
462.118	93.81
462.338	87.81
462.558	94.81
462.777	75.81
462.997	85.81
463.217	89.81
463.437	107.81
463.657	82.81
463.876	96.81
464.096	88.81
464.316	87.81
464.536	98.81
464.755	92.81
464.975	105.81
465.195	140.81
465.414	139.81
465.634	99.81
465.854	92.81
466.073	100.81
466.293	76.81
466.512	89.81
466.732	92.81
466.951	92.81
467.171	91.81
467.391	85.81
467.61	92.81
467.829	105.81
468.049	116.81
468.268	126.81
468.488	90.81
468.707	105.81
468.927	77.81
469.146	92.81
469.365	104.81
469.585	83.81
469.804	90.81
470.023	89.81
470.243	88.81
470.462	106.81
470.681	92.81
470.901	94.81
471.12	88.81
471.339	88.81
471.558	85.81
471.777	70.81
471.997	102.81
472.216	145.81
472.435	239.81
472.654	118.81
472.873	86.81
473.092	86.81
473.311	94.81
473.53	91.81
473.749	92.81
473.968	90.81
474.187	93.81
474.406	89.81
474.625	89.81
474.844	77.81
475.063	88.81
475.282	74.81
475.501	87.81
475.72	105.81
475.939	93.81
476.158	91.81
476.377	80.81
476.596	81.81
476.814	98.81
477.033	86.81
477.252	101.81
477.471	87.81
477.69	77.81
477.908	86.81
478.127	95.81
478.346	81.81
478.564	82.81
478.783	88.81
479.002	92.81
479.22	93.81
479.439	93.81
479.658	101.81
479.876	96.81
480.095	87.81
480.313	88.81
480.532	87.81
480.751	86.81
480.969	160.81
481.188	343.81
481.406	250.81
481.624	97.81
481.843	99.81
482.061	85.81
482.28	92.81
482.498	81.81
482.717	97.81
482.935	85.81
483.153	92.81
483.372	92.81
483.59	86.81
483.808	93.81
484.027	96.81
484.245	100.81
484.463	89.81
484.681	91.81
484.9	90.81
485.118	96.81
485.336	88.81
485.554	87.81
485.772	101.81
485.99	107.81
486.209	104.81
486.427	101.81
486.645	114.81
486.863	107.81
487.081	103.81
487.299	88.81
487.517	100.81
487.735	91.81
487.953	87.81
488.171	104.81
488.389	80.81
488.607	103.81
488.825	96.81
489.043	89.81
489.261	99.81
489.479	89.81
489.696	96.81
489.914	95.81
490.132	97.81
490.35	91.81
490.568	77.81
490.786	93.81
491.003	90.81
491.221	95.81
491.439	95.81
491.657	94.81
491.874	89.81
492.092	99.81
492.31	97.81
492.527	90.81
492.745	80.81
492.963	91.81
493.18	85.81
493.398	88.81
493.615	89.81
493.833	80.81
494.05	92.81
494.268	94.81
494.485	96.81
494.703	88.81
494.92	80.81
495.138	95.81
495.355	89.81
495.573	89.81
495.79	83.81
496.008	83.81
496.225	89.81
496.442	105.81
496.66	92.81
496.877	108.81
497.094	101.81
497.312	87.81
497.529	88.81
497.746	92.81
497.963	105.81
498.181	73.81
498.398	94.81
498.615	103.81
498.832	101.81
499.049	80.81
499.267	79.81
499.484	83.81
499.701	87.81
499.918	93.81
500.135	102.81
500.352	78.81
500.569	84.81
500.786	97.81
501.003	88.81
501.22	82.81
501.437	88.81
501.654	104.81
501.871	93.81
502.088	94.81
502.305	97.81
502.522	87.81
502.739	80.81
502.956	97.81
503.172	107.81
503.389	88.81
503.606	101.81
503.823	100.81
504.04	93.81
504.256	95.81
504.473	85.81
504.69	90.81
504.907	89.81
505.123	95.81
505.34	83.81
505.557	102.81
505.773	69.81
505.99	84.81
506.207	79.81
506.423	82.81
506.64	68.81
506.856	90.81
507.073	74.81
507.289	93.81
507.506	104.81
507.722	103.81
507.939	101.81
508.155	97.81
508.372	87.81
508.588	101.81
508.805	77.81
509.021	101.81
509.238	101.81
509.454	98.81
509.67	103.81
509.887	95.81
510.103	120.81
510.319	188.81
510.536	646.81
510.752	2072.81
510.968	598.81
511.184	156.81
511.401	113.81
511.617	108.81
511.833	103.81
512.049	82.81
512.265	96.81
512.481	101.81
512.698	98.81
512.914	89.81
513.13	85.81
513.346	88.81
513.562	96.81
513.778	100.81
513.994	98.81
514.21	87.81
514.426	122.81
514.642	137.81
514.858	104.81
515.074	149.81
515.29	370.81
