Data from Circ_2010_H10_HRD10591_00009.txt Node
Date: Wed Jan 03 10:09:43 EST 2024
User: Yrep
Spectrometer: HR+D1059
Trigger mode: 1
Integration Time (sec): 1.000000E-1
Scans to average: 1
Electric dark correction enabled: true
Nonlinearity correction enabled: false
Boxcar width: 0
XAxis mode: Wavelengths
Number of Pixels in Spectrum: 2048
>>>>>Begin Spectral Data<<<<<
223.165	-6.25
223.4	-6.25
223.635	-6.25
223.869	-22.25
224.104	-22.25
224.338	-22.25
224.573	-17.25
224.808	-16.25
225.042	-15.25
225.277	8.75
225.511	-2.25
225.746	0.75
225.98	11.75
226.215	12.75
226.449	15.75
226.683	5.75
226.918	34.75
227.152	33.75
227.387	27.75
227.621	43.75
227.856	40.75
228.09	64.75
228.324	58.75
228.559	58.75
228.793	73.75
229.027	63.75
229.262	60.75
229.496	73.75
229.73	82.75
229.964	74.75
230.199	75.75
230.433	95.75
230.667	82.75
230.901	86.75
231.136	72.75
231.37	79.75
231.604	81.75
231.838	90.75
232.072	89.75
232.306	80.75
232.541	80.75
232.775	74.75
233.009	77.75
233.243	88.75
233.477	83.75
233.711	89.75
233.945	74.75
234.179	86.75
234.413	95.75
234.647	83.75
234.881	81.75
235.115	71.75
235.349	97.75
235.583	80.75
235.817	77.75
236.051	87.75
236.285	91.75
236.519	75.75
236.753	83.75
236.987	100.75
237.221	88.75
237.455	76.75
237.689	79.75
237.922	82.75
238.156	95.75
238.39	89.75
238.624	83.75
238.858	66.75
239.091	83.75
239.325	76.75
239.559	79.75
239.793	85.75
240.027	82.75
240.26	89.75
240.494	74.75
240.728	88.75
240.961	69.75
241.195	90.75
241.429	83.75
241.662	79.75
241.896	89.75
242.13	75.75
242.363	69.75
242.597	89.75
242.83	74.75
243.064	68.75
243.298	75.75
243.531	79.75
243.765	80.75
243.998	82.75
244.232	75.75
244.465	90.75
244.699	84.75
244.932	87.75
245.166	77.75
245.399	87.75
245.633	79.75
245.866	82.75
246.099	75.75
246.333	76.75
246.566	79.75
246.8	87.75
247.033	83.75
247.266	75.75
247.5	93.75
247.733	92.75
247.966	97.75
248.2	93.75
248.433	89.75
248.666	83.75
248.899	82.75
249.133	89.75
249.366	98.75
249.599	92.75
249.832	84.75
250.066	84.75
250.299	75.75
250.532	63.75
250.765	63.75
250.998	75.75
251.231	81.75
251.465	84.75
251.698	82.75
251.931	91.75
252.164	85.75
252.397	81.75
252.63	83.75
252.863	91.75
253.096	91.75
253.329	77.75
253.562	88.75
253.795	93.75
254.028	88.75
254.261	92.75
254.494	66.75
254.727	90.75
254.96	108.75
255.193	82.75
255.426	71.75
255.659	77.75
255.892	87.75
256.124	73.75
256.357	71.75
256.59	104.75
256.823	86.75
257.056	85.75
257.289	81.75
257.521	78.75
257.754	80.75
257.987	88.75
258.22	83.75
258.452	87.75
258.685	85.75
258.918	76.75
259.151	76.75
259.383	74.75
259.616	95.75
259.849	90.75
260.081	82.75
260.314	75.75
260.547	88.75
260.779	85.75
261.012	93.75
261.244	91.75
261.477	96.75
261.71	87.75
261.942	107.75
262.175	105.75
262.407	81.75
262.64	88.75
262.872	91.75
263.105	81.75
263.337	97.75
263.57	99.75
263.802	83.75
264.035	89.75
264.267	96.75
264.499	77.75
264.732	86.75
264.964	94.75
265.197	93.75
265.429	89.75
265.661	95.75
265.894	83.75
266.126	94.75
266.358	70.75
266.591	77.75
266.823	102.75
267.055	79.75
267.287	80.75
267.52	92.75
267.752	97.75
267.984	90.75
268.216	88.75
268.448	89.75
268.681	97.75
268.913	92.75
269.145	98.75
269.377	98.75
269.609	100.75
269.841	92.75
270.073	92.75
270.306	95.75
270.538	85.75
270.77	86.75
271.002	84.75
271.234	78.75
271.466	95.75
271.698	73.75
271.93	88.75
272.162	79.75
272.394	100.75
272.626	94.75
272.858	83.75
273.09	87.75
273.322	90.75
273.553	73.75
273.785	95.75
274.017	101.75
274.249	82.75
274.481	90.75
274.713	81.75
274.945	95.75
275.176	80.75
275.408	93.75
275.64	79.75
275.872	93.75
276.104	62.75
276.335	89.75
276.567	104.75
276.799	93.75
277.031	104.75
277.262	93.75
277.494	96.75
277.726	88.75
277.957	81.75
278.189	91.75
278.421	96.75
278.652	93.75
278.884	80.75
279.115	88.75
279.347	81.75
279.579	80.75
279.81	88.75
280.042	87.75
280.273	91.75
280.505	82.75
280.736	104.75
280.968	82.75
281.199	86.75
281.431	102.75
281.662	99.75
281.894	95.75
282.125	93.75
282.356	130.75
282.588	138.75
282.819	106.75
283.051	90.75
283.282	96.75
283.513	87.75
283.745	85.75
283.976	92.75
284.207	101.75
284.439	91.75
284.67	86.75
284.901	86.75
285.132	82.75
285.364	76.75
285.595	90.75
285.826	89.75
286.057	85.75
286.288	91.75
286.52	101.75
286.751	91.75
286.982	89.75
287.213	80.75
287.444	85.75
287.675	96.75
287.906	95.75
288.138	96.75
288.369	91.75
288.6	84.75
288.831	81.75
289.062	89.75
289.293	87.75
289.524	97.75
289.755	94.75
289.986	98.75
290.217	83.75
290.448	87.75
290.679	105.75
290.91	93.75
291.141	92.75
291.371	90.75
291.602	86.75
291.833	85.75
292.064	99.75
292.295	89.75
292.526	91.75
292.757	84.75
292.987	85.75
293.218	85.75
293.449	104.75
293.68	99.75
293.91	77.75
294.141	108.75
294.372	87.75
294.603	86.75
294.833	99.75
295.064	99.75
295.295	93.75
295.525	97.75
295.756	114.75
295.987	108.75
296.217	136.75
296.448	124.75
296.679	99.75
296.909	92.75
297.14	91.75
297.37	98.75
297.601	94.75
297.831	97.75
298.062	98.75
298.292	87.75
298.523	89.75
298.753	94.75
298.984	110.75
299.214	94.75
299.445	108.75
299.675	98.75
299.905	86.75
300.136	88.75
300.366	91.75
300.597	90.75
300.827	100.75
301.057	104.75
301.288	100.75
301.518	90.75
301.748	91.75
301.979	101.75
302.209	94.75
302.439	92.75
302.669	105.75
302.9	84.75
303.13	89.75
303.36	99.75
303.59	108.75
303.82	95.75
304.051	101.75
304.281	98.75
304.511	82.75
304.741	92.75
304.971	86.75
305.201	102.75
305.431	84.75
305.661	88.75
305.891	84.75
306.121	103.75
306.352	116.75
306.582	113.75
306.812	93.75
307.042	97.75
307.272	104.75
307.502	82.75
307.731	105.75
307.961	92.75
308.191	100.75
308.421	107.75
308.651	89.75
308.881	98.75
309.111	109.75
309.341	109.75
309.571	101.75
309.8	101.75
310.03	92.75
310.26	94.75
310.49	94.75
310.72	122.75
310.949	97.75
311.179	97.75
311.409	107.75
311.639	92.75
311.868	96.75
312.098	102.75
312.328	99.75
312.557	107.75
312.787	111.75
313.017	108.75
313.246	92.75
313.476	97.75
313.706	101.75
313.935	91.75
314.165	106.75
314.394	94.75
314.624	105.75
314.853	92.75
315.083	88.75
315.312	101.75
315.542	87.75
315.771	89.75
316.001	99.75
316.23	92.75
316.46	86.75
316.689	96.75
316.919	91.75
317.148	96.75
317.377	85.75
317.607	113.75
317.836	102.75
318.065	101.75
318.295	79.75
318.524	100.75
318.753	89.75
318.983	106.75
319.212	107.75
319.441	104.75
319.67	104.75
319.9	95.75
320.129	96.75
320.358	100.75
320.587	106.75
320.816	95.75
321.046	108.75
321.275	101.75
321.504	99.75
321.733	100.75
321.962	112.75
322.191	113.75
322.42	106.75
322.649	110.75
322.878	105.75
323.108	117.75
323.337	116.75
323.566	109.75
323.795	158.75
324.024	180.75
324.253	322.75
324.482	681.75
324.71	1355.75
324.939	1701.75
325.168	637.75
325.397	204.75
325.626	134.75
325.855	131.75
326.084	119.75
326.313	121.75
326.542	146.75
326.77	198.75
326.999	392.75
327.228	750.75
327.457	1335.75
327.686	1068.75
327.914	320.75
328.143	164.75
328.372	155.75
328.6	116.75
328.829	105.75
329.058	112.75
329.287	124.75
329.515	121.75
329.744	95.75
329.972	113.75
330.201	143.75
330.43	160.75
330.658	144.75
330.887	143.75
331.115	116.75
331.344	95.75
331.572	110.75
331.801	120.75
332.03	114.75
332.258	100.75
332.486	106.75
332.715	104.75
332.943	93.75
333.172	95.75
333.4	103.75
333.629	113.75
333.857	125.75
334.085	106.75
334.314	139.75
334.542	175.75
334.771	173.75
334.999	116.75
335.227	109.75
335.455	86.75
335.684	94.75
335.912	96.75
336.14	103.75
336.369	102.75
336.597	84.75
336.825	92.75
337.053	103.75
337.281	100.75
337.51	99.75
337.738	98.75
337.966	90.75
338.194	79.75
338.422	95.75
338.65	100.75
338.878	91.75
339.106	100.75
339.334	101.75
339.562	87.75
339.79	93.75
340.018	99.75
340.246	99.75
340.474	103.75
340.702	99.75
340.93	94.75
341.158	86.75
341.386	101.75
341.614	78.75
341.842	89.75
342.07	94.75
342.298	97.75
342.526	98.75
342.754	99.75
342.981	97.75
343.209	93.75
343.437	110.75
343.665	103.75
343.893	82.75
344.12	93.75
344.348	92.75
344.576	96.75
344.804	89.75
345.031	87.75
345.259	80.75
345.487	99.75
345.714	93.75
345.942	101.75
346.17	95.75
346.397	94.75
346.625	96.75
346.853	84.75
347.08	94.75
347.308	90.75
347.535	102.75
347.763	101.75
347.99	101.75
348.218	113.75
348.445	94.75
348.673	104.75
348.9	101.75
349.128	103.75
349.355	99.75
349.583	96.75
349.81	97.75
350.037	100.75
350.265	97.75
350.492	111.75
350.72	97.75
350.947	119.75
351.174	112.75
351.402	98.75
351.629	97.75
351.856	96.75
352.083	94.75
352.311	92.75
352.538	105.75
352.765	93.75
352.992	117.75
353.22	104.75
353.447	108.75
353.674	104.75
353.901	100.75
354.128	114.75
354.355	102.75
354.583	98.75
354.81	99.75
355.037	95.75
355.264	99.75
355.491	89.75
355.718	99.75
355.945	105.75
356.172	103.75
356.399	92.75
356.626	89.75
356.853	93.75
357.08	100.75
357.307	108.75
357.534	104.75
357.761	88.75
357.988	107.75
358.215	108.75
358.441	103.75
358.668	100.75
358.895	92.75
359.122	100.75
359.349	94.75
359.576	90.75
359.802	97.75
360.029	105.75
360.256	106.75
360.483	98.75
360.709	89.75
360.936	102.75
361.163	93.75
361.39	93.75
361.616	95.75
361.843	114.75
362.07	94.75
362.296	100.75
362.523	107.75
362.749	99.75
362.976	90.75
363.203	102.75
363.429	89.75
363.656	79.75
363.882	88.75
364.109	91.75
364.335	101.75
364.562	95.75
364.788	100.75
365.015	92.75
365.241	104.75
365.468	109.75
365.694	126.75
365.92	103.75
366.147	100.75
366.373	104.75
366.599	95.75
366.826	85.75
367.052	82.75
367.278	82.75
367.505	83.75
367.731	84.75
367.957	101.75
368.184	99.75
368.41	95.75
368.636	110.75
368.862	107.75
369.089	87.75
369.315	101.75
369.541	98.75
369.767	93.75
369.993	101.75
370.219	88.75
370.445	102.75
370.672	91.75
370.898	99.75
371.124	108.75
371.35	88.75
371.576	99.75
371.802	90.75
372.028	92.75
372.254	94.75
372.48	85.75
372.706	96.75
372.932	92.75
373.158	99.75
373.384	77.75
373.61	103.75
373.835	89.75
374.061	81.75
374.287	92.75
374.513	75.75
374.739	97.75
374.965	94.75
375.191	89.75
375.416	96.75
375.642	104.75
375.868	81.75
376.094	93.75
376.319	87.75
376.545	95.75
376.771	96.75
376.997	104.75
377.222	105.75
377.448	94.75
377.674	104.75
377.899	101.75
378.125	82.75
378.35	103.75
378.576	97.75
378.802	84.75
379.027	103.75
379.253	99.75
379.478	84.75
379.704	84.75
379.929	97.75
380.155	98.75
380.38	85.75
380.606	91.75
380.831	85.75
381.057	97.75
381.282	88.75
381.507	98.75
381.733	101.75
381.958	99.75
382.184	103.75
382.409	101.75
382.634	97.75
382.86	95.75
383.085	105.75
383.31	112.75
383.535	105.75
383.761	107.75
383.986	99.75
384.211	103.75
384.436	105.75
384.662	100.75
384.887	116.75
385.112	105.75
385.337	121.75
385.562	103.75
385.787	116.75
386.013	105.75
386.238	107.75
386.463	113.75
386.688	106.75
386.913	107.75
387.138	105.75
387.363	112.75
387.588	122.75
387.813	99.75
388.038	102.75
388.263	120.75
388.488	107.75
388.713	111.75
388.938	92.75
389.163	100.75
389.387	101.75
389.612	101.75
389.837	82.75
390.062	96.75
390.287	86.75
390.512	101.75
390.736	90.75
390.961	94.75
391.186	91.75
391.411	99.75
391.636	99.75
391.86	90.75
392.085	91.75
392.31	86.75
392.534	77.75
392.759	93.75
392.984	88.75
393.208	105.75
393.433	130.75
393.658	109.75
393.882	97.75
394.107	82.75
394.331	86.75
394.556	96.75
394.78	109.75
395.005	88.75
395.229	92.75
395.454	100.75
395.678	95.75
395.903	98.75
396.127	90.75
396.352	84.75
396.576	88.75
396.801	92.75
397.025	91.75
397.249	91.75
397.474	92.75
397.698	92.75
397.922	93.75
398.147	83.75
398.371	84.75
398.595	87.75
398.82	81.75
399.044	94.75
399.268	84.75
399.492	86.75
399.717	82.75
399.941	77.75
400.165	104.75
400.389	102.75
400.613	102.75
400.837	79.75
401.062	96.75
401.286	83.75
401.51	84.75
401.734	100.75
401.958	108.75
402.182	116.75
402.406	143.75
402.63	107.75
402.854	90.75
403.078	88.75
403.302	96.75
403.526	82.75
403.75	94.75
403.974	85.75
404.198	98.75
404.422	97.75
404.645	94.75
404.869	92.75
405.093	88.75
405.317	109.75
405.541	111.75
405.765	103.75
405.988	119.75
406.212	149.75
406.436	179.75
406.66	139.75
406.883	110.75
407.107	100.75
407.331	106.75
407.555	110.75
407.778	98.75
408.002	97.75
408.226	94.75
408.449	88.75
408.673	88.75
408.896	99.75
409.12	92.75
409.344	95.75
409.567	89.75
409.791	96.75
410.014	101.75
410.238	95.75
410.461	82.75
410.685	100.75
410.908	102.75
411.132	105.75
411.355	104.75
411.578	106.75
411.802	85.75
412.025	92.75
412.249	96.75
412.472	95.75
412.695	91.75
412.919	90.75
413.142	86.75
413.365	91.75
413.589	85.75
413.812	94.75
414.035	103.75
414.258	75.75
414.482	89.75
414.705	100.75
414.928	97.75
415.151	87.75
415.374	88.75
415.597	109.75
415.821	103.75
416.044	87.75
416.267	90.75
416.49	100.75
416.713	96.75
416.936	104.75
417.159	91.75
417.382	77.75
417.605	95.75
417.828	92.75
418.051	96.75
418.274	90.75
418.497	85.75
418.72	97.75
418.943	80.75
419.166	90.75
419.389	92.75
419.611	89.75
419.834	99.75
420.057	90.75
420.28	91.75
420.503	89.75
420.726	85.75
420.948	93.75
421.171	92.75
421.394	96.75
421.617	82.75
421.839	89.75
422.062	97.75
422.285	83.75
422.507	93.75
422.73	99.75
422.953	101.75
423.175	90.75
423.398	92.75
423.621	104.75
423.843	87.75
424.066	77.75
424.288	96.75
424.511	105.75
424.733	97.75
424.956	95.75
425.178	96.75
425.401	106.75
425.623	111.75
425.846	83.75
426.068	93.75
426.291	92.75
426.513	93.75
426.735	89.75
426.958	76.75
427.18	100.75
427.402	123.75
427.625	142.75
427.847	130.75
428.069	98.75
428.292	84.75
428.514	87.75
428.736	98.75
428.958	90.75
429.181	87.75
429.403	85.75
429.625	91.75
429.847	98.75
430.069	100.75
430.292	100.75
430.514	85.75
430.736	87.75
430.958	93.75
431.18	86.75
431.402	84.75
431.624	87.75
431.846	81.75
432.068	89.75
432.29	94.75
432.512	96.75
432.734	92.75
432.956	96.75
433.178	103.75
433.4	96.75
433.622	96.75
433.844	92.75
434.066	93.75
434.287	103.75
434.509	84.75
434.731	95.75
434.953	99.75
435.175	83.75
435.397	104.75
435.618	76.75
435.84	107.75
436.062	125.75
436.284	115.75
436.505	112.75
436.727	108.75
436.949	100.75
437.17	99.75
437.392	95.75
437.614	99.75
437.835	85.75
438.057	103.75
438.278	106.75
438.5	101.75
438.721	104.75
438.943	98.75
439.165	93.75
439.386	94.75
439.608	94.75
439.829	98.75
440.05	122.75
440.272	124.75
440.493	96.75
440.715	80.75
440.936	85.75
441.158	95.75
441.379	95.75
441.6	90.75
441.822	103.75
442.043	99.75
442.264	93.75
442.486	115.75
442.707	94.75
442.928	98.75
443.149	125.75
443.371	127.75
443.592	110.75
443.813	103.75
444.034	98.75
444.255	93.75
444.476	82.75
444.698	89.75
444.919	93.75
445.14	114.75
445.361	116.75
445.582	109.75
445.803	135.75
446.024	119.75
446.245	128.75
446.466	101.75
446.687	98.75
446.908	107.75
447.129	99.75
447.35	80.75
447.571	89.75
447.792	102.75
448.013	103.75
448.234	106.75
448.455	102.75
448.675	111.75
448.896	125.75
449.117	99.75
449.338	91.75
449.559	114.75
449.779	121.75
450	103.75
450.221	95.75
450.442	84.75
450.662	96.75
450.883	108.75
451.104	100.75
451.324	99.75
451.545	92.75
451.766	79.75
451.986	86.75
452.207	90.75
452.428	84.75
452.648	93.75
452.869	99.75
453.089	119.75
453.31	98.75
453.53	97.75
453.751	88.75
453.971	98.75
454.192	99.75
454.412	101.75
454.633	91.75
454.853	93.75
455.073	103.75
455.294	95.75
455.514	103.75
455.734	100.75
455.955	91.75
456.175	80.75
456.395	106.75
456.616	105.75
456.836	106.75
457.056	89.75
457.276	87.75
457.497	89.75
457.717	95.75
457.937	80.75
458.157	90.75
458.377	90.75
458.598	113.75
458.818	139.75
459.038	136.75
459.258	135.75
459.478	98.75
459.698	97.75
459.918	91.75
460.138	74.75
460.358	81.75
460.578	79.75
460.798	82.75
461.018	98.75
461.238	87.75
461.458	89.75
461.678	88.75
461.898	92.75
462.118	91.75
462.338	88.75
462.558	100.75
462.777	82.75
462.997	81.75
463.217	83.75
463.437	87.75
463.657	82.75
463.876	97.75
464.096	86.75
464.316	87.75
464.536	80.75
464.755	102.75
464.975	98.75
465.195	152.75
465.414	133.75
465.634	86.75
465.854	91.75
466.073	93.75
466.293	76.75
466.512	81.75
466.732	87.75
466.951	79.75
467.171	86.75
467.391	103.75
467.61	108.75
467.829	100.75
468.049	113.75
468.268	124.75
468.488	84.75
468.707	85.75
468.927	82.75
469.146	89.75
469.365	78.75
469.585	82.75
469.804	84.75
470.023	92.75
470.243	89.75
470.462	95.75
470.681	113.75
470.901	116.75
471.12	90.75
471.339	108.75
471.558	92.75
471.777	82.75
471.997	111.75
472.216	145.75
472.435	210.75
472.654	119.75
472.873	101.75
473.092	91.75
473.311	81.75
473.53	85.75
473.749	77.75
473.968	98.75
474.187	95.75
474.406	95.75
474.625	84.75
474.844	83.75
475.063	106.75
475.282	94.75
475.501	86.75
475.72	64.75
475.939	98.75
476.158	83.75
476.377	95.75
476.596	98.75
476.814	100.75
477.033	81.75
477.252	99.75
477.471	87.75
477.69	104.75
477.908	90.75
478.127	85.75
478.346	83.75
478.564	98.75
478.783	93.75
479.002	82.75
479.22	87.75
479.439	109.75
479.658	98.75
479.876	99.75
480.095	92.75
480.313	85.75
480.532	99.75
480.751	112.75
480.969	154.75
481.188	322.75
481.406	247.75
481.624	105.75
481.843	98.75
482.061	98.75
482.28	84.75
482.498	90.75
482.717	96.75
482.935	110.75
483.153	77.75
483.372	91.75
483.59	93.75
483.808	91.75
484.027	102.75
484.245	103.75
484.463	89.75
484.681	86.75
484.9	103.75
485.118	87.75
485.336	90.75
485.554	87.75
485.772	106.75
485.99	107.75
486.209	103.75
486.427	107.75
486.645	109.75
486.863	96.75
487.081	112.75
487.299	98.75
487.517	108.75
487.735	100.75
487.953	106.75
488.171	95.75
488.389	105.75
488.607	80.75
488.825	98.75
489.043	87.75
489.261	95.75
489.479	81.75
489.696	104.75
489.914	102.75
490.132	82.75
490.35	84.75
490.568	90.75
490.786	92.75
491.003	89.75
491.221	81.75
491.439	92.75
491.657	102.75
491.874	93.75
492.092	85.75
492.31	99.75
492.527	94.75
492.745	102.75
492.963	100.75
493.18	98.75
493.398	101.75
493.615	99.75
493.833	98.75
494.05	86.75
494.268	106.75
494.485	104.75
494.703	90.75
494.92	101.75
495.138	90.75
495.355	93.75
495.573	83.75
495.79	92.75
496.008	91.75
496.225	97.75
496.442	95.75
496.66	98.75
496.877	105.75
497.094	98.75
497.312	92.75
497.529	107.75
497.746	93.75
497.963	99.75
498.181	100.75
498.398	88.75
498.615	103.75
498.832	101.75
499.049	88.75
499.267	82.75
499.484	100.75
499.701	83.75
499.918	80.75
500.135	96.75
500.352	81.75
500.569	94.75
500.786	103.75
501.003	91.75
501.22	104.75
501.437	95.75
501.654	91.75
501.871	117.75
502.088	94.75
502.305	98.75
502.522	80.75
502.739	97.75
502.956	93.75
503.172	107.75
503.389	104.75
503.606	102.75
503.823	89.75
504.04	94.75
504.256	106.75
504.473	100.75
504.69	98.75
504.907	100.75
505.123	97.75
505.34	74.75
505.557	90.75
505.773	96.75
505.99	106.75
506.207	93.75
506.423	96.75
506.64	92.75
506.856	91.75
507.073	89.75
507.289	103.75
507.506	93.75
507.722	113.75
507.939	113.75
508.155	98.75
508.372	97.75
508.588	111.75
508.805	95.75
509.021	94.75
509.238	79.75
509.454	94.75
509.67	98.75
509.887	101.75
510.103	123.75
510.319	201.75
510.536	585.75
510.752	1888.75
510.968	539.75
511.184	151.75
511.401	107.75
511.617	97.75
511.833	81.75
512.049	99.75
512.265	109.75
512.481	107.75
512.698	94.75
512.914	90.75
513.13	96.75
513.346	100.75
513.562	105.75
513.778	99.75
513.994	106.75
514.21	106.75
