Data from Circ_2010_H10_HRD10591_00056.txt Node
Date: Wed Jan 03 10:09:52 EST 2024
User: Yrep
Spectrometer: HR+D1059
Trigger mode: 1
Integration Time (sec): 1.000000E-1
Scans to average: 1
Electric dark correction enabled: true
Nonlinearity correction enabled: false
Boxcar width: 0
XAxis mode: Wavelengths
Number of Pixels in Spectrum: 2048
>>>>>Begin Spectral Data<<<<<
223.165	-25.06
223.4	-25.06
223.635	-25.06
223.869	-26.06
224.104	-27.06
224.338	-12.06
224.573	-8.06
224.808	-16.06
225.042	1.94
225.277	-3.06
225.511	-1.06
225.746	1.94
225.98	0.94
226.215	13.94
226.449	23.94
226.683	27.94
226.918	13.94
227.152	33.94
227.387	43.94
227.621	35.94
227.856	63.94
228.09	46.94
228.324	52.94
228.559	55.94
228.793	43.94
229.027	56.94
229.262	67.94
229.496	65.94
229.73	80.94
229.964	76.94
230.199	66.94
230.433	79.94
230.667	84.94
230.901	80.94
231.136	79.94
231.37	83.94
231.604	67.94
231.838	85.94
232.072	76.94
232.306	91.94
232.541	83.94
232.775	86.94
233.009	94.94
233.243	86.94
233.477	87.94
233.711	70.94
233.945	89.94
234.179	99.94
234.413	77.94
234.647	87.94
234.881	83.94
235.115	88.94
235.349	84.94
235.583	81.94
235.817	81.94
236.051	95.94
236.285	70.94
236.519	73.94
236.753	75.94
236.987	92.94
237.221	88.94
237.455	87.94
237.689	79.94
237.922	86.94
238.156	81.94
238.39	71.94
238.624	63.94
238.858	89.94
239.091	87.94
239.325	79.94
239.559	82.94
239.793	70.94
240.027	84.94
240.26	71.94
240.494	73.94
240.728	62.94
240.961	87.94
241.195	81.94
241.429	81.94
241.662	79.94
241.896	87.94
242.13	77.94
242.363	86.94
242.597	79.94
242.83	63.94
243.064	86.94
243.298	73.94
243.531	83.94
243.765	87.94
243.998	68.94
244.232	91.94
244.465	82.94
244.699	88.94
244.932	79.94
245.166	80.94
245.399	76.94
245.633	79.94
245.866	82.94
246.099	76.94
246.333	75.94
246.566	72.94
246.8	77.94
247.033	72.94
247.266	90.94
247.5	87.94
247.733	71.94
247.966	85.94
248.2	81.94
248.433	63.94
248.666	82.94
248.899	69.94
249.133	88.94
249.366	86.94
249.599	93.94
249.832	81.94
250.066	77.94
250.299	80.94
250.532	75.94
250.765	90.94
250.998	76.94
251.231	71.94
251.465	80.94
251.698	72.94
251.931	78.94
252.164	82.94
252.397	75.94
252.63	91.94
252.863	86.94
253.096	71.94
253.329	77.94
253.562	91.94
253.795	87.94
254.028	77.94
254.261	93.94
254.494	86.94
254.727	87.94
254.96	72.94
255.193	96.94
255.426	78.94
255.659	88.94
255.892	78.94
256.124	81.94
256.357	88.94
256.59	79.94
256.823	82.94
257.056	70.94
257.289	85.94
257.521	80.94
257.754	93.94
257.987	86.94
258.22	82.94
258.452	81.94
258.685	99.94
258.918	79.94
259.151	96.94
259.383	78.94
259.616	89.94
259.849	80.94
260.081	71.94
260.314	81.94
260.547	68.94
260.779	86.94
261.012	85.94
261.244	91.94
261.477	74.94
261.71	90.94
261.942	108.94
262.175	105.94
262.407	100.94
262.64	84.94
262.872	80.94
263.105	65.94
263.337	79.94
263.57	84.94
263.802	87.94
264.035	78.94
264.267	73.94
264.499	85.94
264.732	89.94
264.964	84.94
265.197	86.94
265.429	84.94
265.661	73.94
265.894	81.94
266.126	89.94
266.358	80.94
266.591	81.94
266.823	79.94
267.055	79.94
267.287	79.94
267.52	84.94
267.752	87.94
267.984	85.94
268.216	85.94
268.448	84.94
268.681	94.94
268.913	81.94
269.145	75.94
269.377	83.94
269.609	67.94
269.841	78.94
270.073	78.94
270.306	72.94
270.538	86.94
270.77	81.94
271.002	74.94
271.234	88.94
271.466	92.94
271.698	82.94
271.93	87.94
272.162	88.94
272.394	77.94
272.626	93.94
272.858	76.94
273.09	102.94
273.322	84.94
273.553	76.94
273.785	76.94
274.017	71.94
274.249	85.94
274.481	91.94
274.713	78.94
274.945	69.94
275.176	83.94
275.408	97.94
275.64	83.94
275.872	94.94
276.104	92.94
276.335	84.94
276.567	91.94
276.799	120.94
277.031	98.94
277.262	99.94
277.494	90.94
277.726	85.94
277.957	92.94
278.189	79.94
278.421	84.94
278.652	79.94
278.884	75.94
279.115	82.94
279.347	99.94
279.579	89.94
279.81	86.94
280.042	83.94
280.273	94.94
280.505	102.94
280.736	84.94
280.968	99.94
281.199	80.94
281.431	89.94
281.662	83.94
281.894	80.94
282.125	94.94
282.356	106.94
282.588	120.94
282.819	109.94
283.051	103.94
283.282	80.94
283.513	80.94
283.745	90.94
283.976	76.94
284.207	82.94
284.439	86.94
284.67	85.94
284.901	77.94
285.132	84.94
285.364	84.94
285.595	79.94
285.826	87.94
286.057	78.94
286.288	72.94
286.52	81.94
286.751	71.94
286.982	89.94
287.213	88.94
287.444	88.94
287.675	88.94
287.906	82.94
288.138	107.94
288.369	82.94
288.6	93.94
288.831	76.94
289.062	72.94
289.293	87.94
289.524	92.94
289.755	84.94
289.986	85.94
290.217	89.94
290.448	91.94
290.679	84.94
290.91	79.94
291.141	67.94
291.371	83.94
291.602	94.94
291.833	92.94
292.064	76.94
292.295	86.94
292.526	94.94
292.757	76.94
292.987	82.94
293.218	87.94
293.449	107.94
293.68	85.94
293.91	73.94
294.141	84.94
294.372	86.94
294.603	103.94
294.833	94.94
295.064	80.94
295.295	86.94
295.525	88.94
295.756	90.94
295.987	120.94
296.217	115.94
296.448	110.94
296.679	89.94
296.909	94.94
297.14	103.94
297.37	78.94
297.601	80.94
297.831	85.94
298.062	95.94
298.292	98.94
298.523	98.94
298.753	90.94
298.984	82.94
299.214	75.94
299.445	82.94
299.675	87.94
299.905	101.94
300.136	79.94
300.366	83.94
300.597	94.94
300.827	87.94
301.057	79.94
301.288	91.94
301.518	102.94
301.748	98.94
301.979	103.94
302.209	91.94
302.439	84.94
302.669	80.94
302.9	100.94
303.13	84.94
303.36	104.94
303.59	91.94
303.82	82.94
304.051	97.94
304.281	84.94
304.511	88.94
304.741	92.94
304.971	88.94
305.201	87.94
305.431	87.94
305.661	74.94
305.891	78.94
306.121	94.94
306.352	89.94
306.582	95.94
306.812	92.94
307.042	81.94
307.272	107.94
307.502	110.94
307.731	104.94
307.961	96.94
308.191	79.94
308.421	83.94
308.651	82.94
308.881	103.94
309.111	96.94
309.341	102.94
309.571	87.94
309.8	86.94
310.03	99.94
310.26	98.94
310.49	98.94
310.72	93.94
310.949	92.94
311.179	107.94
311.409	103.94
311.639	80.94
311.868	88.94
312.098	92.94
312.328	84.94
312.557	92.94
312.787	104.94
313.017	94.94
313.246	112.94
313.476	107.94
313.706	80.94
313.935	91.94
314.165	96.94
314.394	100.94
314.624	93.94
314.853	85.94
315.083	90.94
315.312	84.94
315.542	89.94
315.771	101.94
316.001	99.94
316.23	93.94
316.46	86.94
316.689	94.94
316.919	104.94
317.148	108.94
317.377	88.94
317.607	96.94
317.836	88.94
318.065	93.94
318.295	77.94
318.524	84.94
318.753	98.94
318.983	79.94
319.212	108.94
319.441	108.94
319.67	97.94
319.9	84.94
320.129	91.94
320.358	103.94
320.587	95.94
320.816	92.94
321.046	75.94
321.275	94.94
321.504	87.94
321.733	94.94
321.962	93.94
322.191	101.94
322.42	95.94
322.649	99.94
322.878	105.94
323.108	102.94
323.337	130.94
323.566	116.94
323.795	129.94
324.024	183.94
324.253	350.94
324.482	718.94
324.71	1441.94
324.939	1831.94
325.168	709.94
325.397	223.94
325.626	131.94
325.855	121.94
326.084	121.94
326.313	139.94
326.542	127.94
326.77	221.94
326.999	424.94
327.228	855.94
327.457	1459.94
327.686	1157.94
327.914	324.94
328.143	191.94
328.372	172.94
328.6	126.94
328.829	118.94
329.058	116.94
329.287	119.94
329.515	99.94
329.744	109.94
329.972	135.94
330.201	171.94
330.43	211.94
330.658	152.94
330.887	127.94
331.115	109.94
331.344	101.94
331.572	95.94
331.801	80.94
332.03	107.94
332.258	101.94
332.486	94.94
332.715	102.94
332.943	91.94
333.172	95.94
333.4	85.94
333.629	95.94
333.857	128.94
334.085	138.94
334.314	173.94
334.542	263.94
334.771	239.94
334.999	121.94
335.227	85.94
335.455	99.94
335.684	101.94
335.912	106.94
336.14	101.94
336.369	83.94
336.597	85.94
336.825	92.94
337.053	94.94
337.281	81.94
337.51	79.94
337.738	84.94
337.966	94.94
338.194	109.94
338.422	111.94
338.65	95.94
338.878	83.94
339.106	92.94
339.334	95.94
339.562	74.94
339.79	96.94
340.018	96.94
340.246	102.94
340.474	96.94
340.702	97.94
340.93	82.94
341.158	91.94
341.386	88.94
341.614	87.94
341.842	92.94
342.07	83.94
342.298	92.94
342.526	99.94
342.754	87.94
342.981	85.94
343.209	90.94
343.437	106.94
343.665	84.94
343.893	86.94
344.12	81.94
344.348	94.94
344.576	84.94
344.804	91.94
345.031	94.94
345.259	88.94
345.487	94.94
345.714	94.94
345.942	96.94
346.17	84.94
346.397	94.94
346.625	72.94
346.853	100.94
347.08	95.94
347.308	85.94
347.535	86.94
347.763	94.94
347.99	92.94
348.218	104.94
348.445	103.94
348.673	94.94
348.9	86.94
349.128	95.94
349.355	89.94
349.583	94.94
349.81	91.94
350.037	96.94
350.265	103.94
350.492	87.94
350.72	104.94
350.947	92.94
351.174	118.94
351.402	106.94
351.629	92.94
351.856	91.94
352.083	93.94
352.311	102.94
352.538	88.94
352.765	81.94
352.992	99.94
353.22	105.94
353.447	106.94
353.674	97.94
353.901	104.94
354.128	83.94
354.355	84.94
354.583	92.94
354.81	91.94
355.037	103.94
355.264	96.94
355.491	93.94
355.718	91.94
355.945	94.94
356.172	96.94
356.399	103.94
356.626	85.94
356.853	90.94
357.08	93.94
357.307	94.94
357.534	93.94
357.761	79.94
357.988	79.94
358.215	112.94
358.441	99.94
358.668	94.94
358.895	102.94
359.122	84.94
359.349	86.94
359.576	86.94
359.802	82.94
360.029	89.94
360.256	105.94
360.483	88.94
360.709	90.94
360.936	104.94
361.163	91.94
361.39	92.94
361.616	88.94
361.843	100.94
362.07	81.94
362.296	85.94
362.523	97.94
362.749	85.94
362.976	100.94
363.203	80.94
363.429	98.94
363.656	86.94
363.882	89.94
364.109	101.94
364.335	88.94
364.562	89.94
364.788	80.94
365.015	99.94
365.241	78.94
365.468	85.94
365.694	91.94
365.92	91.94
366.147	77.94
366.373	98.94
366.599	103.94
366.826	88.94
367.052	97.94
367.278	102.94
367.505	91.94
367.731	95.94
367.957	85.94
368.184	100.94
368.41	86.94
368.636	84.94
368.862	111.94
369.089	92.94
369.315	100.94
369.541	90.94
369.767	87.94
369.993	93.94
370.219	75.94
370.445	80.94
370.672	79.94
370.898	84.94
371.124	87.94
371.35	88.94
371.576	88.94
371.802	75.94
372.028	97.94
372.254	83.94
372.48	87.94
372.706	87.94
372.932	89.94
373.158	82.94
373.384	85.94
373.61	94.94
373.835	93.94
374.061	88.94
374.287	90.94
374.513	81.94
374.739	97.94
374.965	91.94
375.191	94.94
375.416	88.94
375.642	100.94
375.868	91.94
376.094	91.94
376.319	84.94
376.545	80.94
376.771	83.94
376.997	99.94
377.222	89.94
377.448	102.94
377.674	88.94
377.899	100.94
378.125	99.94
378.35	95.94
378.576	86.94
378.802	88.94
379.027	76.94
379.253	75.94
379.478	78.94
379.704	93.94
379.929	88.94
380.155	93.94
380.38	87.94
380.606	96.94
380.831	99.94
381.057	94.94
381.282	96.94
381.507	91.94
381.733	96.94
381.958	93.94
382.184	85.94
382.409	92.94
382.634	87.94
382.86	104.94
383.085	100.94
383.31	98.94
383.535	103.94
383.761	91.94
383.986	90.94
384.211	83.94
384.436	90.94
384.662	89.94
384.887	102.94
385.112	98.94
385.337	89.94
385.562	80.94
385.787	103.94
386.013	121.94
386.238	118.94
386.463	93.94
386.688	105.94
386.913	106.94
387.138	91.94
387.363	98.94
387.588	93.94
387.813	99.94
388.038	86.94
388.263	104.94
388.488	110.94
388.713	91.94
388.938	89.94
389.163	91.94
389.387	87.94
389.612	91.94
389.837	81.94
390.062	84.94
390.287	83.94
390.512	88.94
390.736	87.94
390.961	92.94
391.186	89.94
391.411	88.94
391.636	71.94
391.86	89.94
392.085	87.94
392.31	93.94
392.534	79.94
392.759	84.94
392.984	91.94
393.208	78.94
393.433	100.94
393.658	111.94
393.882	87.94
394.107	83.94
394.331	71.94
394.556	71.94
394.78	75.94
395.005	89.94
395.229	88.94
395.454	86.94
395.678	78.94
395.903	83.94
396.127	81.94
396.352	84.94
396.576	89.94
396.801	90.94
397.025	92.94
397.249	90.94
397.474	83.94
397.698	98.94
397.922	103.94
398.147	87.94
398.371	80.94
398.595	91.94
398.82	82.94
399.044	87.94
399.268	93.94
399.492	88.94
399.717	84.94
399.941	91.94
400.165	106.94
400.389	86.94
400.613	84.94
400.837	77.94
401.062	81.94
401.286	86.94
401.51	77.94
401.734	80.94
401.958	88.94
402.182	119.94
402.406	149.94
402.63	118.94
402.854	96.94
403.078	99.94
403.302	90.94
403.526	88.94
403.75	84.94
403.974	78.94
404.198	94.94
404.422	88.94
404.645	93.94
404.869	81.94
405.093	102.94
405.317	101.94
405.541	116.94
405.765	86.94
405.988	119.94
406.212	135.94
406.436	183.94
406.66	132.94
406.883	88.94
407.107	90.94
407.331	115.94
407.555	85.94
407.778	97.94
408.002	88.94
408.226	87.94
408.449	82.94
408.673	75.94
408.896	93.94
409.12	91.94
409.344	88.94
409.567	93.94
409.791	87.94
410.014	86.94
410.238	97.94
410.461	103.94
410.685	95.94
410.908	96.94
411.132	103.94
411.355	93.94
411.578	88.94
411.802	78.94
412.025	91.94
412.249	96.94
412.472	95.94
412.695	95.94
412.919	80.94
413.142	75.94
413.365	78.94
413.589	73.94
413.812	98.94
414.035	78.94
414.258	96.94
414.482	95.94
414.705	90.94
414.928	76.94
415.151	86.94
415.374	74.94
415.597	76.94
415.821	80.94
416.044	80.94
416.267	93.94
416.49	89.94
416.713	64.94
416.936	89.94
417.159	80.94
417.382	87.94
417.605	73.94
417.828	75.94
418.051	96.94
418.274	87.94
418.497	78.94
418.72	78.94
418.943	74.94
419.166	106.94
419.389	80.94
419.611	93.94
419.834	85.94
420.057	85.94
420.28	87.94
420.503	78.94
420.726	86.94
420.948	87.94
421.171	101.94
421.394	89.94
421.617	80.94
421.839	95.94
422.062	104.94
422.285	82.94
422.507	106.94
422.73	108.94
422.953	94.94
423.175	88.94
423.398	87.94
423.621	81.94
423.843	89.94
424.066	89.94
424.288	87.94
424.511	80.94
424.733	96.94
424.956	119.94
425.178	104.94
425.401	96.94
425.623	96.94
425.846	84.94
426.068	94.94
426.291	78.94
426.513	88.94
426.735	101.94
426.958	89.94
427.18	108.94
427.402	139.94
427.625	151.94
427.847	112.94
428.069	115.94
428.292	82.94
428.514	76.94
428.736	103.94
428.958	92.94
429.181	78.94
429.403	87.94
429.625	91.94
429.847	89.94
430.069	81.94
430.292	92.94
430.514	84.94
430.736	73.94
430.958	87.94
431.18	87.94
431.402	99.94
431.624	69.94
431.846	75.94
432.068	96.94
432.29	81.94
432.512	83.94
432.734	91.94
432.956	91.94
433.178	88.94
433.4	91.94
433.622	91.94
433.844	85.94
434.066	79.94
434.287	87.94
434.509	87.94
434.731	92.94
434.953	84.94
435.175	81.94
435.397	82.94
435.618	90.94
435.84	94.94
436.062	122.94
436.284	96.94
436.505	97.94
436.727	96.94
436.949	85.94
437.17	87.94
437.392	82.94
437.614	97.94
437.835	109.94
438.057	112.94
438.278	90.94
438.5	82.94
438.721	105.94
438.943	91.94
439.165	88.94
439.386	73.94
439.608	86.94
439.829	99.94
440.05	96.94
440.272	131.94
440.493	96.94
440.715	100.94
440.936	75.94
441.158	71.94
441.379	89.94
441.6	91.94
441.822	83.94
442.043	80.94
442.264	107.94
442.486	110.94
442.707	95.94
442.928	94.94
443.149	109.94
443.371	131.94
443.592	102.94
443.813	104.94
444.034	94.94
444.255	92.94
444.476	84.94
444.698	76.94
444.919	93.94
445.14	111.94
445.361	104.94
445.582	91.94
445.803	124.94
446.024	137.94
446.245	128.94
446.466	97.94
446.687	92.94
446.908	77.94
447.129	76.94
447.35	89.94
447.571	85.94
447.792	98.94
448.013	81.94
448.234	97.94
448.455	110.94
448.675	102.94
448.896	104.94
449.117	101.94
449.338	108.94
449.559	126.94
449.779	106.94
450	90.94
450.221	85.94
450.442	90.94
450.662	85.94
450.883	101.94
451.104	109.94
451.324	98.94
451.545	80.94
451.766	80.94
451.986	81.94
452.207	95.94
452.428	77.94
452.648	101.94
452.869	100.94
453.089	111.94
453.31	92.94
453.53	85.94
453.751	90.94
453.971	100.94
454.192	105.94
454.412	90.94
454.633	91.94
454.853	72.94
455.073	87.94
455.294	86.94
455.514	98.94
455.734	79.94
455.955	91.94
456.175	85.94
456.395	94.94
456.616	97.94
456.836	86.94
457.056	89.94
457.276	86.94
457.497	87.94
457.717	91.94
457.937	99.94
458.157	79.94
458.377	100.94
458.598	104.94
458.818	132.94
459.038	148.94
459.258	104.94
459.478	92.94
459.698	86.94
459.918	100.94
460.138	72.94
460.358	79.94
460.578	98.94
460.798	78.94
461.018	86.94
461.238	81.94
461.458	78.94
461.678	74.94
461.898	91.94
462.118	95.94
462.338	77.94
462.558	78.94
462.777	92.94
462.997	91.94
463.217	82.94
463.437	81.94
463.657	73.94
463.876	86.94
464.096	93.94
464.316	79.94
464.536	91.94
464.755	83.94
464.975	106.94
465.195	163.94
465.414	158.94
465.634	79.94
465.854	93.94
466.073	79.94
466.293	89.94
466.512	92.94
466.732	95.94
466.951	86.94
467.171	101.94
467.391	99.94
467.61	94.94
467.829	115.94
468.049	137.94
468.268	142.94
468.488	97.94
468.707	87.94
468.927	86.94
469.146	80.94
469.365	87.94
469.585	85.94
469.804	91.94
470.023	91.94
470.243	93.94
470.462	89.94
470.681	98.94
470.901	85.94
471.12	87.94
471.339	99.94
471.558	83.94
471.777	93.94
471.997	109.94
472.216	217.94
472.435	321.94
472.654	127.94
472.873	98.94
473.092	100.94
473.311	80.94
473.53	87.94
473.749	76.94
473.968	82.94
474.187	92.94
474.406	87.94
474.625	95.94
474.844	89.94
475.063	73.94
475.282	79.94
475.501	80.94
475.72	82.94
475.939	95.94
476.158	88.94
476.377	77.94
476.596	74.94
476.814	91.94
477.033	94.94
477.252	75.94
477.471	77.94
477.69	88.94
477.908	104.94
478.127	87.94
478.346	82.94
478.564	88.94
478.783	95.94
479.002	95.94
479.22	72.94
479.439	85.94
479.658	102.94
479.876	94.94
480.095	79.94
480.313	91.94
480.532	94.94
480.751	110.94
480.969	195.94
481.188	527.94
481.406	332.94
481.624	117.94
481.843	84.94
482.061	84.94
482.28	83.94
482.498	86.94
482.717	86.94
482.935	72.94
483.153	92.94
483.372	85.94
483.59	93.94
483.808	92.94
484.027	101.94
484.245	109.94
484.463	94.94
484.681	93.94
484.9	86.94
485.118	99.94
485.336	77.94
485.554	92.94
485.772	99.94
485.99	101.94
486.209	91.94
486.427	104.94
486.645	110.94
486.863	93.94
487.081	101.94
487.299	97.94
487.517	94.94
487.735	85.94
487.953	92.94
488.171	96.94
488.389	88.94
488.607	100.94
488.825	95.94
489.043	67.94
489.261	99.94
489.479	79.94
489.696	94.94
489.914	88.94
490.132	83.94
490.35	96.94
490.568	94.94
490.786	89.94
491.003	85.94
491.221	91.94
491.439	88.94
491.657	101.94
491.874	96.94
492.092	85.94
492.31	91.94
492.527	99.94
492.745	83.94
492.963	85.94
493.18	94.94
493.398	90.94
493.615	99.94
493.833	90.94
494.05	85.94
494.268	86.94
494.485	90.94
494.703	80.94
494.92	75.94
495.138	81.94
495.355	92.94
495.573	101.94
495.79	96.94
496.008	83.94
496.225	98.94
496.442	91.94
496.66	89.94
496.877	99.94
497.094	87.94
497.312	98.94
497.529	83.94
497.746	91.94
497.963	85.94
498.181	92.94
498.398	99.94
498.615	110.94
498.832	103.94
499.049	95.94
499.267	91.94
499.484	82.94
499.701	88.94
499.918	93.94
500.135	106.94
500.352	91.94
500.569	80.94
500.786	89.94
501.003	86.94
501.22	77.94
501.437	85.94
501.654	86.94
501.871	91.94
502.088	102.94
502.305	89.94
502.522	101.94
502.739	89.94
502.956	89.94
503.172	81.94
503.389	100.94
503.606	92.94
503.823	100.94
504.04	97.94
504.256	99.94
504.473	80.94
504.69	87.94
504.907	86.94
505.123	90.94
505.34	97.94
505.557	85.94
505.773	79.94
505.99	76.94
506.207	83.94
506.423	91.94
506.64	103.94
506.856	91.94
507.073	78.94
507.289	81.94
507.506	81.94
507.722	98.94
507.939	108.94
508.155	94.94
508.372	90.94
508.588	88.94
508.805	93.94
509.021	94.94
509.238	93.94
509.454	86.94
509.67	94.94
509.887	100.94
510.103	125.94
510.319	189.94
510.536	598.94
510.752	1831.94
510.968	539.94
511.184	135.94
511.401	107.94
511.617	89.94
511.833	88.94
512.049	89.94
512.265	84.94
512.481	79.94
512.698	98.94
512.914	91.94
513.13	86.94
513.346	94.94
513.562	87.94
513.778	75.94
513.994	97.94
514.21	106.94
514.426	106.94
514.642	128.94
514.858	127.94
515.074	141.94
515.29	372.94
515.506	1133.94
515.721	431.94
515.937	143.94
516.153	120.94
516.369	97.94
516.585	96.94
