Data from Circ_2010_H10_HRD10591_00081.txt Node
Date: Wed Jan 03 10:09:57 EST 2024
User: Yrep
Spectrometer: HR+D1059
Trigger mode: 1
Integration Time (sec): 1.000000E-1
Scans to average: 1
Electric dark correction enabled: true
Nonlinearity correction enabled: false
Boxcar width: 0
XAxis mode: Wavelengths
Number of Pixels in Spectrum: 2048
>>>>>Begin Spectral Data<<<<<
223.165	-16.25
223.4	-16.25
223.635	-16.25
223.869	-16.25
224.104	-26.25
224.338	-8.25
224.573	-3.25
224.808	-15.25
225.042	-13.25
225.277	-0.25
225.511	-5.25
225.746	-11.25
225.98	24.75
226.215	8.75
226.449	16.75
226.683	7.75
226.918	34.75
227.152	22.75
227.387	49.75
227.621	20.75
227.856	41.75
228.09	45.75
228.324	52.75
228.559	69.75
228.793	151.75
229.027	412.75
229.262	460.75
229.496	549.75
229.73	732.75
229.964	715.75
230.199	485.75
230.433	453.75
230.667	433.75
230.901	424.75
231.136	422.75
231.37	413.75
231.604	420.75
231.838	438.75
232.072	438.75
232.306	461.75
232.541	458.75
232.775	460.75
233.009	448.75
233.243	443.75
233.477	457.75
233.711	472.75
233.945	464.75
234.179	495.75
234.413	493.75
234.647	496.75
234.881	501.75
235.115	504.75
235.349	508.75
235.583	536.75
235.817	576.75
236.051	597.75
236.285	582.75
236.519	575.75
236.753	663.75
236.987	823.75
237.221	1272.75
237.455	1316.75
237.689	815.75
237.922	693.75
238.156	678.75
238.39	625.75
238.624	609.75
238.858	590.75
239.091	649.75
239.325	630.75
239.559	658.75
239.793	685.75
240.027	720.75
240.26	861.75
240.494	884.75
240.728	862.75
240.961	817.75
241.195	761.75
241.429	745.75
241.662	732.75
241.896	725.75
242.13	719.75
242.363	753.75
242.597	785.75
242.83	793.75
243.064	815.75
243.298	837.75
243.531	829.75
243.765	818.75
243.998	816.75
244.232	840.75
244.465	860.75
244.699	892.75
244.932	888.75
245.166	904.75
245.399	878.75
245.633	888.75
245.866	918.75
246.099	925.75
246.333	929.75
246.566	927.75
246.8	910.75
247.033	975.75
247.266	1028.75
247.5	1056.75
247.733	1122.75
247.966	1096.75
248.2	1080.75
248.433	1114.75
248.666	1174.75
248.899	1325.75
249.133	1366.75
249.366	1387.75
249.599	1296.75
249.832	1303.75
250.066	1393.75
250.299	1681.75
250.532	2126.75
250.765	2076.75
250.998	1901.75
251.231	1694.75
251.465	1517.75
251.698	1437.75
251.931	1391.75
252.164	1385.75
252.397	1383.75
252.63	1400.75
252.863	1511.75
253.096	1600.75
253.329	1611.75
253.562	1550.75
253.795	1506.75
254.028	1521.75
254.261	1555.75
254.494	1762.75
254.727	2047.75
254.96	2106.75
255.193	1953.75
255.426	1876.75
255.659	2081.75
255.892	2807.75
256.124	3520.75
256.357	2951.75
256.59	2273.75
256.823	1946.75
257.056	1787.75
257.289	1698.75
257.521	1646.75
257.754	1605.75
257.987	1566.75
258.22	1588.75
258.452	1536.75
258.685	1548.75
258.918	1586.75
259.151	1625.75
259.383	1638.75
259.616	1662.75
259.849	1661.75
260.081	1841.75
260.314	1934.75
260.547	1894.75
260.779	1732.75
261.012	1672.75
261.244	1687.75
261.477	1623.75
261.71	1634.75
261.942	1689.75
262.175	1732.75
262.407	1647.75
262.64	1616.75
262.872	1605.75
263.105	1594.75
263.337	1600.75
263.57	1612.75
263.802	1637.75
264.035	1602.75
264.267	1648.75
264.499	1641.75
264.732	1641.75
264.964	1680.75
265.197	1672.75
265.429	1674.75
265.661	1686.75
265.894	1682.75
266.126	1707.75
266.358	1751.75
266.591	1756.75
266.823	1835.75
267.055	1778.75
267.287	1826.75
267.52	1776.75
267.752	1792.75
267.984	1808.75
268.216	1840.75
268.448	1859.75
268.681	1936.75
268.913	2024.75
269.145	2208.75
269.377	2209.75
269.609	2104.75
269.841	2114.75
270.073	2231.75
270.306	2438.75
270.538	2550.75
270.77	2444.75
271.002	2264.75
271.234	2250.75
271.466	2477.75
271.698	2543.75
271.93	2514.75
272.162	2551.75
272.394	2454.75
272.626	2332.75
272.858	2268.75
273.09	2168.75
273.322	2166.75
273.553	2150.75
273.785	2171.75
274.017	2131.75
274.249	2206.75
274.481	2215.75
274.713	2190.75
274.945	2244.75
275.176	2255.75
275.408	2199.75
275.64	2269.75
275.872	2301.75
276.104	2304.75
276.335	2285.75
276.567	2409.75
276.799	2589.75
277.031	2813.75
277.262	2913.75
277.494	2760.75
277.726	2535.75
277.957	2500.75
278.189	2447.75
278.421	2400.75
278.652	2397.75
278.884	2378.75
279.115	2357.75
279.347	2414.75
279.579	2413.75
279.81	2446.75
280.042	2508.75
280.273	2644.75
280.505	2609.75
280.736	2499.75
280.968	2453.75
281.199	2494.75
281.431	2472.75
281.662	2440.75
281.894	2460.75
282.125	2493.75
282.356	2633.75
282.588	2726.75
282.819	2606.75
283.051	2521.75
283.282	2556.75
283.513	2458.75
283.745	2593.75
283.976	2600.75
284.207	2613.75
284.439	2558.75
284.67	2555.75
284.901	2558.75
285.132	2580.75
285.364	2542.75
285.595	2602.75
285.826	2606.75
286.057	2585.75
286.288	2590.75
286.52	2659.75
286.751	2599.75
286.982	2614.75
287.213	2664.75
287.444	2681.75
287.675	2742.75
287.906	2823.75
288.138	2821.75
288.369	2876.75
288.6	2819.75
288.831	2768.75
289.062	2732.75
289.293	2819.75
289.524	2698.75
289.755	2743.75
289.986	2736.75
290.217	2767.75
290.448	2724.75
290.679	2731.75
290.91	2789.75
291.141	2729.75
291.371	2758.75
291.602	2747.75
291.833	2723.75
292.064	2790.75
292.295	2753.75
292.526	2757.75
292.757	2730.75
292.987	2689.75
293.218	2730.75
293.449	2817.75
293.68	2808.75
293.91	2774.75
294.141	2766.75
294.372	2735.75
294.603	2720.75
294.833	2789.75
295.064	2808.75
295.295	2791.75
295.525	2778.75
295.756	2834.75
295.987	2947.75
296.217	3064.75
296.448	2975.75
296.679	2868.75
296.909	2845.75
297.14	2871.75
297.37	2929.75
297.601	2948.75
297.831	2967.75
298.062	2973.75
298.292	2978.75
298.523	3024.75
298.753	3039.75
298.984	3024.75
299.214	3022.75
299.445	3019.75
299.675	3057.75
299.905	3090.75
300.136	3060.75
300.366	3044.75
300.597	3092.75
300.827	3172.75
301.057	3278.75
301.288	3301.75
301.518	3224.75
301.748	3260.75
301.979	3340.75
302.209	3368.75
302.439	3285.75
302.669	3232.75
302.9	3213.75
303.13	3198.75
303.36	3279.75
303.59	3294.75
303.82	3345.75
304.051	3313.75
304.281	3265.75
304.511	3184.75
304.741	3212.75
304.971	3191.75
305.201	3232.75
305.431	3152.75
305.661	3228.75
305.891	3138.75
306.121	3221.75
306.352	3232.75
306.582	3190.75
306.812	3187.75
307.042	3215.75
307.272	3252.75
307.502	3322.75
307.731	3265.75
307.961	3263.75
308.191	3223.75
308.421	3207.75
308.651	3219.75
308.881	3252.75
309.111	3229.75
309.341	3252.75
309.571	3365.75
309.8	3414.75
310.03	3460.75
310.26	3462.75
310.49	3453.75
310.72	3542.75
310.949	3604.75
311.179	3654.75
311.409	3465.75
311.639	3501.75
311.868	3525.75
312.098	3599.75
312.328	3657.75
312.557	3751.75
312.787	3880.75
313.017	3758.75
313.246	3704.75
313.476	3581.75
313.706	3684.75
313.935	3741.75
314.165	3802.75
314.394	3825.75
314.624	3755.75
314.853	3701.75
315.083	3733.75
315.312	3599.75
315.542	3602.75
315.771	3542.75
316.001	3584.75
316.23	3608.75
316.46	3589.75
316.689	3642.75
316.919	3673.75
317.148	3680.75
317.377	3700.75
317.607	3629.75
317.836	3672.75
318.065	3666.75
318.295	3617.75
318.524	3614.75
318.753	3633.75
318.983	3624.75
319.212	3589.75
319.441	3628.75
319.67	3682.75
319.9	3667.75
320.129	3636.75
320.358	3644.75
320.587	3641.75
320.816	3737.75
321.046	3776.75
321.275	3738.75
321.504	3770.75
321.733	3785.75
321.962	3836.75
322.191	3993.75
322.42	4136.75
322.649	4092.75
322.878	4201.75
323.108	4275.75
323.337	4418.75
323.566	4673.75
323.795	4906.75
324.024	5441.75
324.253	7168.75
324.482	10714.75
324.71	15099.75
324.939	15602.75
325.168	12270.75
325.397	6232.75
325.626	5194.75
325.855	4805.75
326.084	4761.75
326.313	4808.75
326.542	4938.75
326.77	5693.75
326.999	7007.75
327.228	10264.75
327.457	14259.75
327.686	13486.75
327.914	7825.75
328.143	6968.75
328.372	6948.75
328.6	6098.75
328.829	5821.75
329.058	5835.75
329.287	5874.75
329.515	5734.75
329.744	6234.75
329.972	7196.75
330.201	8701.75
330.43	9550.75
330.658	7682.75
330.887	6599.75
331.115	5865.75
331.344	5375.75
331.572	5217.75
331.801	5294.75
332.03	5321.75
332.258	5183.75
332.486	5284.75
332.715	5412.75
332.943	5622.75
333.172	5883.75
333.4	6199.75
333.629	6596.75
333.857	7231.75
334.085	8529.75
334.314	10288.75
334.542	12209.75
334.771	11194.75
334.999	7533.75
335.227	6373.75
335.455	5867.75
335.684	5525.75
335.912	5308.75
336.14	5158.75
336.369	5128.75
336.597	5145.75
336.825	5052.75
337.053	4948.75
337.281	4873.75
337.51	4780.75
337.738	4723.75
337.966	4694.75
338.194	4708.75
338.422	4642.75
338.65	4549.75
338.878	4516.75
339.106	4494.75
339.334	4461.75
339.562	4395.75
339.79	4310.75
340.018	4360.75
340.246	4284.75
340.474	4326.75
340.702	4323.75
340.93	4327.75
341.158	4336.75
341.386	4309.75
341.614	4343.75
341.842	4236.75
342.07	4219.75
342.298	4251.75
342.526	4207.75
342.754	4178.75
342.981	4200.75
343.209	4379.75
343.437	4471.75
343.665	4823.75
343.893	5024.75
344.12	5020.75
344.348	4855.75
344.576	4633.75
344.804	4529.75
345.031	4508.75
345.259	4418.75
345.487	4344.75
345.714	4227.75
345.942	4162.75
346.17	4078.75
346.397	4137.75
346.625	4132.75
346.853	4052.75
347.08	4059.75
347.308	4098.75
347.535	4159.75
347.763	4196.75
347.99	4151.75
348.218	4240.75
348.445	4196.75
348.673	4173.75
348.9	4024.75
349.128	3996.75
349.355	3967.75
349.583	3921.75
349.81	3990.75
350.037	3982.75
350.265	3903.75
350.492	3979.75
350.72	3938.75
350.947	4050.75
351.174	4057.75
351.402	4151.75
351.629	4072.75
351.856	4090.75
352.083	4095.75
352.311	4126.75
352.538	4123.75
352.765	4092.75
352.992	4049.75
353.22	4027.75
353.447	3921.75
353.674	3949.75
353.901	3897.75
354.128	3925.75
354.355	3861.75
354.583	3798.75
354.81	3886.75
355.037	3900.75
355.264	3844.75
355.491	3837.75
355.718	3844.75
355.945	3838.75
356.172	3915.75
356.399	3844.75
356.626	3832.75
356.853	3865.75
357.08	3823.75
357.307	3869.75
357.534	3856.75
357.761	3913.75
357.988	3966.75
358.215	3828.75
358.441	3907.75
358.668	3859.75
358.895	3953.75
359.122	3986.75
359.349	4033.75
359.576	4188.75
359.802	4300.75
360.029	4444.75
360.256	4472.75
360.483	4299.75
360.709	4069.75
360.936	4015.75
361.163	4060.75
361.39	4076.75
361.616	4051.75
361.843	3970.75
362.07	4105.75
362.296	4100.75
362.523	4005.75
362.749	4053.75
362.976	3993.75
363.203	4007.75
363.429	3944.75
363.656	4010.75
363.882	3919.75
364.109	3938.75
364.335	3943.75
364.562	3888.75
364.788	3940.75
365.015	3923.75
365.241	3903.75
365.468	3964.75
365.694	4021.75
365.92	4046.75
366.147	3918.75
366.373	4001.75
366.599	3921.75
366.826	3896.75
367.052	3894.75
367.278	3926.75
367.505	3977.75
367.731	3994.75
367.957	3970.75
368.184	3972.75
368.41	4070.75
368.636	4149.75
368.862	4089.75
369.089	4014.75
369.315	4038.75
369.541	4031.75
369.767	4054.75
369.993	4094.75
370.219	4081.75
370.445	4092.75
370.672	4156.75
370.898	4162.75
371.124	4175.75
371.35	4234.75
371.576	4167.75
371.802	4137.75
372.028	4174.75
372.254	4206.75
372.48	4270.75
372.706	4328.75
372.932	4353.75
373.158	4340.75
373.384	4249.75
373.61	4196.75
373.835	4268.75
374.061	4221.75
374.287	4457.75
374.513	4397.75
374.739	4548.75
374.965	4592.75
375.191	4597.75
375.416	4534.75
375.642	4351.75
375.868	4375.75
376.094	4306.75
376.319	4263.75
376.545	4290.75
376.771	4205.75
376.997	4177.75
377.222	4192.75
377.448	4141.75
377.674	4156.75
377.899	4131.75
378.125	4157.75
378.35	4121.75
378.576	4144.75
378.802	4154.75
379.027	4140.75
379.253	4188.75
379.478	4090.75
379.704	4137.75
379.929	4147.75
380.155	4117.75
380.38	4169.75
380.606	4272.75
380.831	4188.75
381.057	4225.75
381.282	4202.75
381.507	4168.75
381.733	4269.75
381.958	4315.75
382.184	4302.75
382.409	4440.75
382.634	4438.75
382.86	4412.75
383.085	4470.75
383.31	4479.75
383.535	4583.75
383.761	4673.75
383.986	4710.75
384.211	4797.75
384.436	4822.75
384.662	4956.75
384.887	5013.75
385.112	4943.75
385.337	5015.75
385.562	5015.75
385.787	5045.75
386.013	5092.75
386.238	5156.75
386.463	5078.75
386.688	5131.75
386.913	5014.75
387.138	5052.75
387.363	4943.75
387.588	4943.75
387.813	5014.75
388.038	5078.75
388.263	5033.75
388.488	4975.75
388.713	5045.75
388.938	4912.75
389.163	4960.75
389.387	4944.75
389.612	4905.75
389.837	4886.75
390.062	4912.75
390.287	4972.75
390.512	4911.75
390.736	4973.75
390.961	5128.75
391.186	5153.75
391.411	5264.75
391.636	5386.75
391.86	5553.75
392.085	5586.75
392.31	5496.75
392.534	5327.75
392.759	5249.75
392.984	5220.75
393.208	5234.75
393.433	5143.75
393.658	5266.75
393.882	5167.75
394.107	5203.75
394.331	5284.75
394.556	5287.75
394.78	5295.75
395.005	5391.75
395.229	5345.75
395.454	5537.75
395.678	5696.75
395.903	5678.75
396.127	5631.75
396.352	5449.75
396.576	5280.75
396.801	5282.75
397.025	5407.75
397.249	5486.75
397.474	5642.75
397.698	5669.75
397.922	5753.75
398.147	5805.75
398.371	6008.75
398.595	6059.75
398.82	6309.75
399.044	6946.75
399.268	7643.75
399.492	8776.75
399.717	9322.75
399.941	8965.75
400.165	8318.75
400.389	7749.75
400.613	6884.75
400.837	6656.75
401.062	6473.75
401.286	6311.75
401.51	6353.75
401.734	6280.75
401.958	6431.75
402.182	6548.75
402.406	6649.75
402.63	6668.75
402.854	6812.75
403.078	6896.75
403.302	6972.75
403.526	7062.75
403.75	7208.75
403.974	7180.75
404.198	7313.75
404.422	7419.75
404.645	7410.75
404.869	7622.75
405.093	8040.75
405.317	8688.75
405.541	8577.75
405.765	7703.75
405.988	7377.75
406.212	7276.75
406.436	7406.75
406.66	7577.75
406.883	7466.75
407.107	8181.75
407.331	8639.75
407.555	9062.75
407.778	8684.75
408.002	8027.75
408.226	7673.75
408.449	7544.75
408.673	7427.75
408.896	7494.75
409.12	7719.75
409.344	7288.75
409.567	6973.75
409.791	6966.75
410.014	6817.75
410.238	6744.75
410.461	6839.75
410.685	6923.75
410.908	6934.75
411.132	7165.75
411.355	7239.75
411.578	6803.75
411.802	6713.75
412.025	6905.75
412.249	7418.75
412.472	7827.75
412.695	8388.75
412.919	7723.75
413.142	7167.75
413.365	6836.75
413.589	6701.75
413.812	6442.75
414.035	6421.75
414.258	6381.75
414.482	6418.75
414.705	6427.75
414.928	6408.75
415.151	6288.75
415.374	6341.75
415.597	6248.75
415.821	6125.75
416.044	6108.75
416.267	6164.75
416.49	6080.75
416.713	6025.75
416.936	6235.75
417.159	6221.75
417.382	6337.75
417.605	6346.75
417.828	6473.75
418.051	6559.75
418.274	6424.75
418.497	6266.75
418.72	6419.75
418.943	6318.75
419.166	6790.75
419.389	7133.75
419.611	7091.75
419.834	7055.75
420.057	7182.75
420.28	7235.75
420.503	7243.75
420.726	6897.75
420.948	6866.75
421.171	7014.75
421.394	6966.75
421.617	6481.75
421.839	6439.75
422.062	6438.75
422.285	6632.75
422.507	7170.75
422.73	7697.75
422.953	7118.75
423.175	6691.75
423.398	6769.75
423.621	6742.75
423.843	6998.75
424.066	6936.75
424.288	6860.75
424.511	7046.75
424.733	7510.75
424.956	7948.75
425.178	7412.75
425.401	7598.75
425.623	7418.75
425.846	6498.75
426.068	6418.75
426.291	6307.75
426.513	6280.75
426.735	6440.75
426.958	6885.75
427.18	7588.75
427.402	8796.75
427.625	9052.75
427.847	8117.75
428.069	7919.75
428.292	6810.75
428.514	6083.75
428.736	5822.75
428.958	5823.75
429.181	5630.75
429.403	5568.75
429.625	5761.75
429.847	6052.75
430.069	6551.75
430.292	6081.75
430.514	5589.75
430.736	5629.75
430.958	5591.75
431.18	5438.75
431.402	5470.75
431.624	5487.75
431.846	5536.75
432.068	5616.75
432.29	5641.75
432.512	5511.75
432.734	5682.75
432.956	5543.75
433.178	5625.75
433.4	5622.75
433.622	5537.75
433.844	5593.75
434.066	5546.75
434.287	5636.75
434.509	5872.75
434.731	6132.75
434.953	6223.75
435.175	6345.75
435.397	6392.75
435.618	6320.75
435.84	6716.75
436.062	7500.75
436.284	7455.75
436.505	6203.75
436.727	5885.75
436.949	5706.75
437.17	5579.75
437.392	5559.75
437.614	5702.75
437.835	6158.75
438.057	6950.75
438.278	7620.75
438.5	7496.75
438.721	8296.75
438.943	7268.75
439.165	6097.75
439.386	5906.75
439.608	6026.75
439.829	5992.75
440.05	6434.75
440.272	6767.75
440.493	6156.75
440.715	5910.75
440.936	5784.75
441.158	5890.75
441.379	6014.75
441.6	6348.75
441.822	6565.75
442.043	6874.75
442.264	7625.75
442.486	7308.75
442.707	6578.75
442.928	6435.75
443.149	6761.75
443.371	6894.75
443.592	7332.75
443.813	8277.75
444.034	8214.75
444.255	7093.75
444.476	7012.75
444.698	7208.75
444.919	7226.75
445.14	7076.75
445.361	6982.75
445.582	7166.75
445.803	7664.75
446.024	8237.75
446.245	7933.75
446.466	7076.75
446.687	6041.75
446.908	5862.75
447.129	5567.75
447.35	5479.75
447.571	5389.75
447.792	5345.75
448.013	5441.75
448.234	5511.75
448.455	6224.75
448.675	7351.75
448.896	7819.75
449.117	6423.75
449.338	6582.75
449.559	7930.75
449.779	8056.75
450	6102.75
450.221	5465.75
450.442	5257.75
450.662	5175.75
450.883	5294.75
451.104	5394.75
451.324	5279.75
451.545	5196.75
451.766	5082.75
451.986	4945.75
452.207	4896.75
452.428	4863.75
452.648	4893.75
452.869	4942.75
453.089	4928.75
453.31	5059.75
453.53	4879.75
453.751	4836.75
453.971	4869.75
454.192	4981.75
454.412	4774.75
454.633	4716.75
454.853	4711.75
455.073	4780.75
455.294	5138.75
455.514	5607.75
455.734	5085.75
455.955	4678.75
456.175	4540.75
456.395	4521.75
456.616	4568.75
456.836	4549.75
457.056	4511.75
457.276	4461.75
457.497	4636.75
457.717	4586.75
457.937	4625.75
458.157	4724.75
458.377	4806.75
458.598	5132.75
458.818	5789.75
459.038	6494.75
459.258	6423.75
459.478	5719.75
459.698	5674.75
459.918	5661.75
460.138	5932.75
460.358	6033.75
460.578	6053.75
460.798	6189.75
461.018	6108.75
461.238	6001.75
461.458	5987.75
461.678	6025.75
461.898	6101.75
462.118	6215.75
462.338	6531.75
462.558	6633.75
462.777	6933.75
462.997	7510.75
463.217	7853.75
463.437	7700.75
463.657	7150.75
463.876	6945.75
464.096	7007.75
464.316	7007.75
464.536	7016.75
464.755	6807.75
464.975	6625.75
465.195	6857.75
465.414	6813.75
465.634	6013.75
465.854	5672.75
466.073	5506.75
466.293	5283.75
466.512	5169.75
466.732	5112.75
466.951	5181.75
467.171	5092.75
467.391	5221.75
467.61	5327.75
467.829	5359.75
468.049	5633.75
468.268	6174.75
468.488	5468.75
468.707	5155.75
468.927	5103.75
469.146	4942.75
469.365	5077.75
469.585	5100.75
469.804	5235.75
470.023	5415.75
470.243	5314.75
470.462	5417.75
470.681	5543.75
470.901	5476.75
471.12	5333.75
471.339	5288.75
471.558	5245.75
471.777	5320.75
471.997	5533.75
472.216	6655.75
472.435	8931.75
472.654	7190.75
472.873	5884.75
473.092	5514.75
473.311	5324.75
473.53	5252.75
473.749	5303.75
473.968	5696.75
474.187	6624.75
474.406	6103.75
474.625	5313.75
474.844	5036.75
475.063	5036.75
475.282	5022.75
475.501	5062.75
475.72	5133.75
475.939	5097.75
476.158	5150.75
476.377	5165.75
476.596	5170.75
476.814	5305.75
477.033	5294.75
477.252	5410.75
477.471	5483.75
477.69	5634.75
477.908	5737.75
478.127	5876.75
478.346	5897.75
478.564	5946.75
478.783	6117.75
479.002	6225.75
479.22	6230.75
479.439	6312.75
479.658	6450.75
479.876	6575.75
480.095	6791.75
480.313	7223.75
480.532	7253.75
480.751	7458.75
480.969	8464.75
481.188	12645.75
481.406	12822.75
481.624	8992.75
481.843	7608.75
482.061	6974.75
482.28	6685.75
482.498	6426.75
482.717	6242.75
482.935	6181.75
483.153	6117.75
483.372	6009.75
483.59	6004.75
483.808	5987.75
484.027	5990.75
484.245	6016.75
484.463	6053.75
484.681	6085.75
484.9	6169.75
485.118	6110.75
485.336	6194.75
485.554	6310.75
485.772	6244.75
485.99	6336.75
486.209	6342.75
486.427	6326.75
486.645	6315.75
486.863	6471.75
487.081	6452.75
487.299	6419.75
487.517	6386.75
487.735	6332.75
