Data from Circ_2010_H10_HRD10591_00099.txt Node
Date: Wed Jan 03 10:10:01 EST 2024
User: Yrep
Spectrometer: HR+D1059
Trigger mode: 1
Integration Time (sec): 1.000000E-1
Scans to average: 1
Electric dark correction enabled: true
Nonlinearity correction enabled: false
Boxcar width: 0
XAxis mode: Wavelengths
Number of Pixels in Spectrum: 2048
>>>>>Begin Spectral Data<<<<<
223.165	-17.88
223.4	-17.88
223.635	-17.88
223.869	-21.88
224.104	-24.88
224.338	-1.88
224.573	-12.88
224.808	-12.88
225.042	-15.88
225.277	5.12
225.511	-7.88
225.746	9.12
225.98	5.12
226.215	8.12
226.449	15.12
226.683	13.12
226.918	32.12
227.152	28.12
227.387	31.12
227.621	35.12
227.856	50.12
228.09	50.12
228.324	51.12
228.559	64.12
228.793	71.12
229.027	64.12
229.262	77.12
229.496	70.12
229.73	93.12
229.964	80.12
230.199	71.12
230.433	85.12
230.667	76.12
230.901	70.12
231.136	77.12
231.37	78.12
231.604	81.12
231.838	77.12
232.072	75.12
232.306	77.12
232.541	83.12
232.775	85.12
233.009	73.12
233.243	74.12
233.477	78.12
233.711	85.12
233.945	84.12
234.179	75.12
234.413	82.12
234.647	89.12
234.881	84.12
235.115	83.12
235.349	80.12
235.583	78.12
235.817	83.12
236.051	92.12
236.285	65.12
236.519	93.12
236.753	81.12
236.987	71.12
237.221	89.12
237.455	85.12
237.689	82.12
237.922	73.12
238.156	73.12
238.39	79.12
238.624	86.12
238.858	67.12
239.091	74.12
239.325	75.12
239.559	73.12
239.793	91.12
240.027	72.12
240.26	87.12
240.494	76.12
240.728	84.12
240.961	77.12
241.195	79.12
241.429	63.12
241.662	82.12
241.896	77.12
242.13	83.12
242.363	73.12
242.597	73.12
242.83	90.12
243.064	70.12
243.298	87.12
243.531	85.12
243.765	85.12
243.998	80.12
244.232	89.12
244.465	82.12
244.699	87.12
244.932	85.12
245.166	74.12
245.399	81.12
245.633	75.12
245.866	73.12
246.099	75.12
246.333	75.12
246.566	76.12
246.8	83.12
247.033	79.12
247.266	70.12
247.5	93.12
247.733	78.12
247.966	71.12
248.2	91.12
248.433	79.12
248.666	71.12
248.899	82.12
249.133	80.12
249.366	109.12
249.599	95.12
249.832	88.12
250.066	71.12
250.299	69.12
250.532	70.12
250.765	88.12
250.998	68.12
251.231	82.12
251.465	93.12
251.698	80.12
251.931	75.12
252.164	93.12
252.397	83.12
252.63	87.12
252.863	88.12
253.096	74.12
253.329	71.12
253.562	69.12
253.795	82.12
254.028	78.12
254.261	87.12
254.494	81.12
254.727	85.12
254.96	93.12
255.193	82.12
255.426	73.12
255.659	89.12
255.892	92.12
256.124	85.12
256.357	73.12
256.59	74.12
256.823	78.12
257.056	90.12
257.289	82.12
257.521	89.12
257.754	81.12
257.987	98.12
258.22	85.12
258.452	91.12
258.685	90.12
258.918	94.12
259.151	79.12
259.383	87.12
259.616	73.12
259.849	86.12
260.081	82.12
260.314	90.12
260.547	90.12
260.779	94.12
261.012	94.12
261.244	82.12
261.477	85.12
261.71	92.12
261.942	97.12
262.175	95.12
262.407	97.12
262.64	87.12
262.872	90.12
263.105	89.12
263.337	90.12
263.57	80.12
263.802	86.12
264.035	93.12
264.267	80.12
264.499	70.12
264.732	98.12
264.964	81.12
265.197	83.12
265.429	77.12
265.661	82.12
265.894	84.12
266.126	75.12
266.358	85.12
266.591	69.12
266.823	87.12
267.055	96.12
267.287	67.12
267.52	85.12
267.752	86.12
267.984	80.12
268.216	88.12
268.448	87.12
268.681	87.12
268.913	93.12
269.145	82.12
269.377	77.12
269.609	82.12
269.841	88.12
270.073	89.12
270.306	83.12
270.538	74.12
270.77	94.12
271.002	77.12
271.234	78.12
271.466	92.12
271.698	90.12
271.93	106.12
272.162	90.12
272.394	75.12
272.626	96.12
272.858	75.12
273.09	80.12
273.322	83.12
273.553	82.12
273.785	96.12
274.017	82.12
274.249	88.12
274.481	88.12
274.713	93.12
274.945	88.12
275.176	90.12
275.408	83.12
275.64	94.12
275.872	92.12
276.104	90.12
276.335	93.12
276.567	102.12
276.799	102.12
277.031	112.12
277.262	109.12
277.494	102.12
277.726	88.12
277.957	84.12
278.189	77.12
278.421	94.12
278.652	81.12
278.884	78.12
279.115	95.12
279.347	92.12
279.579	92.12
279.81	112.12
280.042	115.12
280.273	133.12
280.505	98.12
280.736	89.12
280.968	104.12
281.199	95.12
281.431	97.12
281.662	66.12
281.894	97.12
282.125	92.12
282.356	115.12
282.588	140.12
282.819	129.12
283.051	89.12
283.282	88.12
283.513	91.12
283.745	93.12
283.976	79.12
284.207	89.12
284.439	83.12
284.67	84.12
284.901	87.12
285.132	78.12
285.364	82.12
285.595	81.12
285.826	80.12
286.057	93.12
286.288	85.12
286.52	83.12
286.751	88.12
286.982	90.12
287.213	78.12
287.444	84.12
287.675	88.12
287.906	104.12
288.138	84.12
288.369	83.12
288.6	87.12
288.831	102.12
289.062	80.12
289.293	92.12
289.524	84.12
289.755	92.12
289.986	90.12
290.217	84.12
290.448	88.12
290.679	94.12
290.91	90.12
291.141	82.12
291.371	95.12
291.602	80.12
291.833	85.12
292.064	91.12
292.295	82.12
292.526	95.12
292.757	85.12
292.987	88.12
293.218	95.12
293.449	95.12
293.68	83.12
293.91	99.12
294.141	89.12
294.372	102.12
294.603	97.12
294.833	89.12
295.064	83.12
295.295	90.12
295.525	82.12
295.756	93.12
295.987	105.12
296.217	119.12
296.448	114.12
296.679	92.12
296.909	87.12
297.14	91.12
297.37	87.12
297.601	95.12
297.831	82.12
298.062	79.12
298.292	93.12
298.523	85.12
298.753	85.12
298.984	89.12
299.214	93.12
299.445	94.12
299.675	98.12
299.905	97.12
300.136	98.12
300.366	105.12
300.597	88.12
300.827	100.12
301.057	89.12
301.288	96.12
301.518	97.12
301.748	101.12
301.979	109.12
302.209	87.12
302.439	94.12
302.669	96.12
302.9	86.12
303.13	101.12
303.36	87.12
303.59	106.12
303.82	107.12
304.051	100.12
304.281	99.12
304.511	110.12
304.741	88.12
304.971	90.12
305.201	89.12
305.431	86.12
305.661	80.12
305.891	96.12
306.121	89.12
306.352	92.12
306.582	96.12
306.812	106.12
307.042	90.12
307.272	90.12
307.502	110.12
307.731	112.12
307.961	85.12
308.191	92.12
308.421	90.12
308.651	98.12
308.881	94.12
309.111	98.12
309.341	86.12
309.571	96.12
309.8	104.12
310.03	107.12
310.26	96.12
310.49	92.12
310.72	99.12
310.949	122.12
311.179	100.12
311.409	99.12
311.639	84.12
311.868	101.12
312.098	89.12
312.328	90.12
312.557	96.12
312.787	107.12
313.017	87.12
313.246	105.12
313.476	92.12
313.706	93.12
313.935	101.12
314.165	91.12
314.394	99.12
314.624	105.12
314.853	91.12
315.083	93.12
315.312	94.12
315.542	91.12
315.771	107.12
316.001	94.12
316.23	110.12
316.46	79.12
316.689	86.12
316.919	85.12
317.148	99.12
317.377	93.12
317.607	98.12
317.836	85.12
318.065	90.12
318.295	91.12
318.524	88.12
318.753	95.12
318.983	86.12
319.212	109.12
319.441	108.12
319.67	108.12
319.9	102.12
320.129	79.12
320.358	85.12
320.587	91.12
320.816	95.12
321.046	97.12
321.275	89.12
321.504	88.12
321.733	111.12
321.962	87.12
322.191	100.12
322.42	96.12
322.649	92.12
322.878	115.12
323.108	104.12
323.337	113.12
323.566	133.12
323.795	155.12
324.024	200.12
324.253	375.12
324.482	759.12
324.71	1542.12
324.939	1967.12
325.168	761.12
325.397	232.12
325.626	137.12
325.855	124.12
326.084	126.12
326.313	122.12
326.542	146.12
326.77	213.12
326.999	426.12
327.228	874.12
327.457	1569.12
327.686	1255.12
327.914	366.12
328.143	236.12
328.372	245.12
328.6	167.12
328.829	134.12
329.058	121.12
329.287	118.12
329.515	112.12
329.744	136.12
329.972	175.12
330.201	297.12
330.43	404.12
330.658	223.12
330.887	152.12
331.115	122.12
331.344	97.12
331.572	110.12
331.801	101.12
332.03	112.12
332.258	91.12
332.486	88.12
332.715	102.12
332.943	96.12
333.172	105.12
333.4	106.12
333.629	112.12
333.857	133.12
334.085	172.12
334.314	285.12
334.542	492.12
334.771	447.12
334.999	173.12
335.227	117.12
335.455	105.12
335.684	110.12
335.912	104.12
336.14	104.12
336.369	94.12
336.597	96.12
336.825	86.12
337.053	97.12
337.281	79.12
337.51	93.12
337.738	89.12
337.966	90.12
338.194	106.12
338.422	102.12
338.65	84.12
338.878	86.12
339.106	91.12
339.334	75.12
339.562	94.12
339.79	86.12
340.018	88.12
340.246	89.12
340.474	92.12
340.702	94.12
340.93	94.12
341.158	97.12
341.386	99.12
341.614	78.12
341.842	76.12
342.07	78.12
342.298	94.12
342.526	93.12
342.754	95.12
342.981	79.12
343.209	77.12
343.437	99.12
343.665	83.12
343.893	89.12
344.12	88.12
344.348	91.12
344.576	80.12
344.804	96.12
345.031	106.12
345.259	104.12
345.487	96.12
345.714	97.12
345.942	93.12
346.17	80.12
346.397	91.12
346.625	102.12
346.853	91.12
347.08	82.12
347.308	93.12
347.535	98.12
347.763	99.12
347.99	107.12
348.218	106.12
348.445	112.12
348.673	91.12
348.9	98.12
349.128	99.12
349.355	106.12
349.583	82.12
349.81	98.12
350.037	103.12
350.265	82.12
350.492	97.12
350.72	97.12
350.947	102.12
351.174	113.12
351.402	107.12
351.629	102.12
351.856	110.12
352.083	116.12
352.311	89.12
352.538	105.12
352.765	105.12
352.992	113.12
353.22	97.12
353.447	89.12
353.674	103.12
353.901	99.12
354.128	101.12
354.355	88.12
354.583	115.12
354.81	100.12
355.037	107.12
355.264	92.12
355.491	105.12
355.718	112.12
355.945	84.12
356.172	91.12
356.399	97.12
356.626	103.12
356.853	98.12
357.08	93.12
357.307	94.12
357.534	95.12
357.761	89.12
357.988	90.12
358.215	91.12
358.441	73.12
358.668	85.12
358.895	90.12
359.122	84.12
359.349	100.12
359.576	98.12
359.802	97.12
360.029	112.12
360.256	106.12
360.483	93.12
360.709	88.12
360.936	94.12
361.163	95.12
361.39	85.12
361.616	98.12
361.843	81.12
362.07	80.12
362.296	86.12
362.523	103.12
362.749	92.12
362.976	93.12
363.203	99.12
363.429	93.12
363.656	95.12
363.882	82.12
364.109	87.12
364.335	89.12
364.562	93.12
364.788	95.12
365.015	80.12
365.241	108.12
365.468	104.12
365.694	97.12
365.92	88.12
366.147	91.12
366.373	82.12
366.599	83.12
366.826	76.12
367.052	82.12
367.278	92.12
367.505	98.12
367.731	91.12
367.957	96.12
368.184	71.12
368.41	103.12
368.636	118.12
368.862	119.12
369.089	120.12
369.315	94.12
369.541	97.12
369.767	101.12
369.993	99.12
370.219	101.12
370.445	90.12
370.672	95.12
370.898	86.12
371.124	93.12
371.35	80.12
371.576	98.12
371.802	89.12
372.028	83.12
372.254	88.12
372.48	86.12
372.706	86.12
372.932	93.12
373.158	93.12
373.384	88.12
373.61	100.12
373.835	92.12
374.061	95.12
374.287	90.12
374.513	95.12
374.739	85.12
374.965	94.12
375.191	94.12
375.416	96.12
375.642	97.12
375.868	94.12
376.094	92.12
376.319	94.12
376.545	87.12
376.771	74.12
376.997	87.12
377.222	93.12
377.448	91.12
377.674	89.12
377.899	100.12
378.125	84.12
378.35	91.12
378.576	85.12
378.802	94.12
379.027	83.12
379.253	91.12
379.478	92.12
379.704	104.12
379.929	99.12
380.155	102.12
380.38	92.12
380.606	90.12
380.831	99.12
381.057	104.12
381.282	98.12
381.507	113.12
381.733	107.12
381.958	85.12
382.184	94.12
382.409	98.12
382.634	102.12
382.86	83.12
383.085	93.12
383.31	99.12
383.535	95.12
383.761	105.12
383.986	89.12
384.211	100.12
384.436	94.12
384.662	103.12
384.887	88.12
385.112	106.12
385.337	83.12
385.562	97.12
385.787	112.12
386.013	108.12
386.238	121.12
386.463	104.12
386.688	98.12
386.913	106.12
387.138	97.12
387.363	111.12
387.588	101.12
387.813	109.12
388.038	107.12
388.263	114.12
388.488	89.12
388.713	105.12
388.938	101.12
389.163	88.12
389.387	108.12
389.612	73.12
389.837	93.12
390.062	94.12
390.287	97.12
390.512	80.12
390.736	93.12
390.961	100.12
391.186	109.12
391.411	113.12
391.636	88.12
391.86	71.12
392.085	81.12
392.31	79.12
392.534	91.12
392.759	84.12
392.984	90.12
393.208	94.12
393.433	102.12
393.658	99.12
393.882	83.12
394.107	87.12
394.331	97.12
394.556	89.12
394.78	78.12
395.005	95.12
395.229	91.12
395.454	90.12
395.678	82.12
395.903	89.12
396.127	101.12
396.352	104.12
396.576	102.12
396.801	89.12
397.025	95.12
397.249	74.12
397.474	99.12
397.698	88.12
397.922	96.12
398.147	84.12
398.371	79.12
398.595	92.12
398.82	83.12
399.044	89.12
399.268	91.12
399.492	88.12
399.717	93.12
399.941	100.12
400.165	90.12
400.389	100.12
400.613	88.12
400.837	96.12
401.062	86.12
401.286	79.12
401.51	95.12
401.734	93.12
401.958	94.12
402.182	114.12
402.406	141.12
402.63	120.12
402.854	97.12
403.078	85.12
403.302	97.12
403.526	93.12
403.75	90.12
403.974	83.12
404.198	92.12
404.422	93.12
404.645	87.12
404.869	101.12
405.093	94.12
405.317	114.12
405.541	111.12
405.765	98.12
405.988	109.12
406.212	162.12
406.436	173.12
406.66	125.12
406.883	87.12
407.107	82.12
407.331	98.12
407.555	117.12
407.778	109.12
408.002	92.12
408.226	86.12
408.449	77.12
408.673	86.12
408.896	94.12
409.12	111.12
409.344	93.12
409.567	98.12
409.791	95.12
410.014	95.12
410.238	87.12
410.461	89.12
410.685	101.12
410.908	87.12
411.132	113.12
411.355	98.12
411.578	81.12
411.802	88.12
412.025	87.12
412.249	86.12
412.472	96.12
412.695	110.12
412.919	92.12
413.142	87.12
413.365	89.12
413.589	87.12
413.812	93.12
414.035	100.12
414.258	98.12
414.482	102.12
414.705	97.12
414.928	95.12
415.151	94.12
415.374	88.12
415.597	92.12
415.821	91.12
416.044	85.12
416.267	91.12
416.49	81.12
416.713	76.12
416.936	102.12
417.159	86.12
417.382	80.12
417.605	101.12
417.828	101.12
418.051	82.12
418.274	97.12
418.497	100.12
418.72	86.12
418.943	98.12
419.166	85.12
419.389	97.12
419.611	93.12
419.834	98.12
420.057	91.12
420.28	89.12
420.503	74.12
420.726	78.12
420.948	83.12
421.171	100.12
421.394	80.12
421.617	82.12
421.839	91.12
422.062	100.12
422.285	106.12
422.507	105.12
422.73	93.12
422.953	79.12
423.175	90.12
423.398	95.12
423.621	82.12
423.843	97.12
424.066	82.12
424.288	90.12
424.511	91.12
424.733	96.12
424.956	105.12
425.178	102.12
425.401	94.12
425.623	97.12
425.846	86.12
426.068	89.12
426.291	81.12
426.513	84.12
426.735	88.12
426.958	102.12
427.18	100.12
427.402	134.12
427.625	164.12
427.847	137.12
428.069	160.12
428.292	104.12
428.514	99.12
428.736	89.12
428.958	73.12
429.181	87.12
429.403	94.12
429.625	99.12
429.847	101.12
430.069	106.12
430.292	90.12
430.514	90.12
430.736	96.12
430.958	77.12
431.18	81.12
431.402	82.12
431.624	79.12
431.846	90.12
432.068	80.12
432.29	80.12
432.512	92.12
432.734	94.12
432.956	76.12
433.178	99.12
433.4	106.12
433.622	99.12
433.844	93.12
434.066	96.12
434.287	96.12
434.509	77.12
434.731	89.12
434.953	88.12
435.175	89.12
435.397	98.12
435.618	80.12
435.84	95.12
436.062	133.12
436.284	107.12
436.505	85.12
436.727	89.12
436.949	87.12
437.17	86.12
437.392	87.12
437.614	96.12
437.835	97.12
438.057	117.12
438.278	110.12
438.5	120.12
438.721	121.12
438.943	101.12
439.165	90.12
439.386	81.12
439.608	107.12
439.829	102.12
440.05	130.12
440.272	134.12
440.493	106.12
440.715	89.12
440.936	95.12
441.158	90.12
441.379	91.12
441.6	83.12
441.822	90.12
442.043	97.12
442.264	99.12
442.486	107.12
442.707	88.12
442.928	108.12
443.149	140.12
443.371	130.12
443.592	116.12
443.813	93.12
444.034	95.12
444.255	89.12
444.476	77.12
444.698	104.12
444.919	98.12
445.14	129.12
445.361	113.12
445.582	106.12
445.803	127.12
446.024	138.12
446.245	132.12
446.466	104.12
446.687	90.12
446.908	96.12
447.129	92.12
447.35	91.12
447.571	101.12
447.792	86.12
448.013	96.12
448.234	93.12
448.455	104.12
448.675	130.12
448.896	107.12
449.117	100.12
449.338	91.12
449.559	132.12
449.779	127.12
450	94.12
450.221	93.12
450.442	90.12
450.662	110.12
450.883	86.12
451.104	93.12
451.324	94.12
451.545	96.12
451.766	99.12
451.986	79.12
452.207	91.12
452.428	78.12
452.648	102.12
452.869	98.12
453.089	83.12
453.31	106.12
453.53	77.12
453.751	83.12
453.971	91.12
454.192	114.12
454.412	104.12
454.633	87.12
454.853	85.12
455.073	95.12
455.294	80.12
455.514	88.12
455.734	92.12
455.955	81.12
456.175	80.12
456.395	72.12
456.616	93.12
456.836	91.12
457.056	82.12
457.276	92.12
457.497	96.12
457.717	98.12
457.937	75.12
458.157	83.12
458.377	96.12
458.598	100.12
458.818	140.12
459.038	144.12
459.258	125.12
459.478	100.12
459.698	90.12
459.918	88.12
460.138	75.12
460.358	77.12
460.578	82.12
460.798	86.12
461.018	93.12
461.238	65.12
461.458	88.12
461.678	74.12
461.898	101.12
462.118	75.12
462.338	83.12
462.558	82.12
462.777	86.12
462.997	98.12
463.217	88.12
463.437	110.12
463.657	80.12
463.876	87.12
464.096	89.12
464.316	102.12
464.536	90.12
464.755	85.12
464.975	112.12
465.195	145.12
465.414	139.12
465.634	94.12
465.854	90.12
466.073	91.12
466.293	98.12
466.512	82.12
466.732	95.12
466.951	91.12
467.171	94.12
467.391	97.12
467.61	114.12
467.829	118.12
468.049	185.12
468.268	255.12
468.488	110.12
468.707	83.12
468.927	79.12
469.146	80.12
469.365	85.12
469.585	85.12
469.804	100.12
470.023	82.12
470.243	97.12
470.462	101.12
470.681	109.12
470.901	92.12
471.12	91.12
471.339	82.12
471.558	95.12
471.777	104.12
471.997	165.12
472.216	335.12
472.435	658.12
472.654	215.12
472.873	102.12
473.092	93.12
473.311	85.12
473.53	88.12
473.749	93.12
473.968	97.12
474.187	94.12
474.406	82.12
474.625	80.12
474.844	83.12
475.063	88.12
475.282	90.12
475.501	80.12
475.72	91.12
475.939	90.12
476.158	83.12
476.377	86.12
476.596	81.12
476.814	86.12
477.033	86.12
477.252	81.12
477.471	91.12
477.69	87.12
477.908	80.12
478.127	89.12
478.346	96.12
478.564	94.12
478.783	100.12
479.002	113.12
479.22	96.12
479.439	103.12
479.658	91.12
479.876	94.12
480.095	96.12
480.313	98.12
480.532	104.12
480.751	146.12
480.969	321.12
481.188	1097.12
481.406	679.12
481.624	155.12
481.843	94.12
482.061	111.12
482.28	94.12
482.498	83.12
482.717	87.12
482.935	92.12
483.153	91.12
483.372	86.12
483.59	72.12
483.808	90.12
484.027	88.12
484.245	105.12
484.463	96.12
484.681	97.12
484.9	106.12
485.118	102.12
485.336	94.12
485.554	108.12
485.772	81.12
485.99	117.12
486.209	98.12
486.427	105.12
486.645	117.12
486.863	119.12
487.081	92.12
487.299	95.12
487.517	108.12
487.735	86.12
487.953	93.12
488.171	104.12
488.389	99.12
488.607	97.12
488.825	86.12
489.043	78.12
489.261	77.12
489.479	92.12
489.696	89.12
489.914	85.12
490.132	102.12
490.35	97.12
490.568	92.12
490.786	102.12
491.003	94.12
491.221	93.12
491.439	98.12
491.657	94.12
491.874	76.12
492.092	86.12
492.31	83.12
492.527	88.12
492.745	91.12
492.963	90.12
493.18	98.12
493.398	93.12
493.615	103.12
493.833	88.12
494.05	88.12
494.268	90.12
494.485	87.12
494.703	90.12
494.92	90.12
495.138	97.12
495.355	102.12
495.573	89.12
495.79	85.12
496.008	105.12
496.225	84.12
496.442	92.12
496.66	81.12
496.877	99.12
497.094	90.12
497.312	102.12
497.529	67.12
497.746	101.12
497.963	87.12
498.181	97.12
498.398	99.12
498.615	96.12
498.832	106.12
499.049	79.12
499.267	89.12
499.484	94.12
499.701	86.12
499.918	100.12
500.135	91.12
500.352	102.12
500.569	82.12
500.786	97.12
501.003	80.12
501.22	78.12
501.437	61.12
501.654	93.12
501.871	102.12
502.088	92.12
502.305	92.12
502.522	84.12
502.739	99.12
502.956	95.12
503.172	97.12
503.389	95.12
503.606	102.12
503.823	94.12
504.04	95.12
504.256	95.12
504.473	97.12
504.69	87.12
504.907	93.12
505.123	103.12
505.34	89.12
505.557	77.12
505.773	96.12
505.99	93.12
506.207	83.12
506.423	97.12
506.64	92.12
506.856	88.12
507.073	84.12
507.289	99.12
507.506	86.12
507.722	109.12
507.939	120.12
508.155	97.12
508.372	86.12
508.588	82.12
508.805	94.12
509.021	95.12
509.238	106.12
509.454	97.12
509.67	101.12
509.887	97.12
510.103	127.12
510.319	181.12
510.536	559.12
510.752	1803.12
510.968	523.12
511.184	147.12
511.401	120.12
511.617	91.12
511.833	79.12
512.049	94.12
512.265	103.12
512.481	81.12
512.698	106.12
512.914	83.12
513.13	92.12
513.346	101.12
513.562	96.12
513.778	90.12
513.994	91.12
514.21	104.12
514.426	105.12
514.642	143.12
514.858	114.12
515.074	154.12
515.29	358.12
