Data from Circ_2010_H10_HRD10591_00025.txt Node
Date: Wed Jan 03 10:09:46 EST 2024
User: Yrep
Spectrometer: HR+D1059
Trigger mode: 1
Integration Time (sec): 1.000000E-1
Scans to average: 1
Electric dark correction enabled: true
Nonlinearity correction enabled: false
Boxcar width: 0
XAxis mode: Wavelengths
Number of Pixels in Spectrum: 2048
>>>>>Begin Spectral Data<<<<<
223.165	-0.12
223.4	-0.12
223.635	-0.12
223.869	-18.12
224.104	-9.12
224.338	-11.12
224.573	-5.12
224.808	-9.12
225.042	-14.12
225.277	-12.12
225.511	-3.12
225.746	-14.12
225.98	0.88
226.215	17.88
226.449	17.88
226.683	15.88
226.918	24.88
227.152	18.88
227.387	29.88
227.621	48.88
227.856	41.88
228.09	35.88
228.324	53.88
228.559	58.88
228.793	68.88
229.027	78.88
229.262	72.88
229.496	83.88
229.73	98.88
229.964	82.88
230.199	85.88
230.433	71.88
230.667	73.88
230.901	87.88
231.136	57.88
231.37	79.88
231.604	69.88
231.838	80.88
232.072	82.88
232.306	89.88
232.541	91.88
232.775	81.88
233.009	87.88
233.243	96.88
233.477	89.88
233.711	75.88
233.945	69.88
234.179	81.88
234.413	82.88
234.647	85.88
234.881	83.88
235.115	87.88
235.349	79.88
235.583	89.88
235.817	67.88
236.051	79.88
236.285	77.88
236.519	79.88
236.753	87.88
236.987	72.88
237.221	84.88
237.455	84.88
237.689	72.88
237.922	71.88
238.156	91.88
238.39	76.88
238.624	66.88
238.858	74.88
239.091	66.88
239.325	84.88
239.559	78.88
239.793	74.88
240.027	72.88
240.26	76.88
240.494	75.88
240.728	74.88
240.961	75.88
241.195	77.88
241.429	78.88
241.662	86.88
241.896	85.88
242.13	78.88
242.363	74.88
242.597	79.88
242.83	81.88
243.064	74.88
243.298	72.88
243.531	73.88
243.765	82.88
243.998	86.88
244.232	74.88
244.465	90.88
244.699	83.88
244.932	76.88
245.166	77.88
245.399	91.88
245.633	75.88
245.866	63.88
246.099	74.88
246.333	85.88
246.566	87.88
246.8	90.88
247.033	80.88
247.266	95.88
247.5	82.88
247.733	77.88
247.966	71.88
248.2	81.88
248.433	77.88
248.666	71.88
248.899	79.88
249.133	65.88
249.366	88.88
249.599	94.88
249.832	75.88
250.066	75.88
250.299	63.88
250.532	101.88
250.765	81.88
250.998	82.88
251.231	70.88
251.465	80.88
251.698	82.88
251.931	75.88
252.164	95.88
252.397	90.88
252.63	88.88
252.863	78.88
253.096	81.88
253.329	88.88
253.562	76.88
253.795	80.88
254.028	90.88
254.261	84.88
254.494	83.88
254.727	101.88
254.96	98.88
255.193	91.88
255.426	84.88
255.659	79.88
255.892	83.88
256.124	87.88
256.357	84.88
256.59	88.88
256.823	99.88
257.056	94.88
257.289	78.88
257.521	77.88
257.754	72.88
257.987	83.88
258.22	81.88
258.452	88.88
258.685	83.88
258.918	73.88
259.151	88.88
259.383	88.88
259.616	90.88
259.849	75.88
260.081	70.88
260.314	96.88
260.547	79.88
260.779	79.88
261.012	82.88
261.244	98.88
261.477	75.88
261.71	90.88
261.942	98.88
262.175	96.88
262.407	98.88
262.64	86.88
262.872	90.88
263.105	76.88
263.337	91.88
263.57	85.88
263.802	72.88
264.035	84.88
264.267	80.88
264.499	89.88
264.732	92.88
264.964	80.88
265.197	89.88
265.429	93.88
265.661	83.88
265.894	86.88
266.126	82.88
266.358	96.88
266.591	83.88
266.823	87.88
267.055	79.88
267.287	87.88
267.52	91.88
267.752	82.88
267.984	91.88
268.216	76.88
268.448	87.88
268.681	81.88
268.913	73.88
269.145	85.88
269.377	93.88
269.609	83.88
269.841	86.88
270.073	81.88
270.306	94.88
270.538	98.88
270.77	92.88
271.002	92.88
271.234	89.88
271.466	81.88
271.698	88.88
271.93	87.88
272.162	83.88
272.394	95.88
272.626	82.88
272.858	84.88
273.09	102.88
273.322	77.88
273.553	86.88
273.785	85.88
274.017	73.88
274.249	82.88
274.481	84.88
274.713	87.88
274.945	75.88
275.176	77.88
275.408	81.88
275.64	93.88
275.872	96.88
276.104	99.88
276.335	94.88
276.567	88.88
276.799	87.88
277.031	91.88
277.262	97.88
277.494	90.88
277.726	94.88
277.957	83.88
278.189	82.88
278.421	78.88
278.652	89.88
278.884	84.88
279.115	94.88
279.347	89.88
279.579	88.88
279.81	88.88
280.042	94.88
280.273	83.88
280.505	102.88
280.736	90.88
280.968	92.88
281.199	83.88
281.431	80.88
281.662	82.88
281.894	75.88
282.125	104.88
282.356	104.88
282.588	137.88
282.819	102.88
283.051	86.88
283.282	91.88
283.513	106.88
283.745	96.88
283.976	89.88
284.207	96.88
284.439	86.88
284.67	79.88
284.901	89.88
285.132	76.88
285.364	86.88
285.595	95.88
285.826	87.88
286.057	69.88
286.288	99.88
286.52	83.88
286.751	79.88
286.982	94.88
287.213	98.88
287.444	97.88
287.675	82.88
287.906	97.88
288.138	90.88
288.369	91.88
288.6	97.88
288.831	81.88
289.062	94.88
289.293	87.88
289.524	81.88
289.755	98.88
289.986	87.88
290.217	109.88
290.448	91.88
290.679	86.88
290.91	92.88
291.141	94.88
291.371	95.88
291.602	94.88
291.833	102.88
292.064	90.88
292.295	96.88
292.526	80.88
292.757	96.88
292.987	80.88
293.218	73.88
293.449	96.88
293.68	82.88
293.91	99.88
294.141	94.88
294.372	94.88
294.603	99.88
294.833	89.88
295.064	94.88
295.295	97.88
295.525	91.88
295.756	98.88
295.987	105.88
296.217	128.88
296.448	117.88
296.679	87.88
296.909	101.88
297.14	92.88
297.37	109.88
297.601	94.88
297.831	95.88
298.062	79.88
298.292	87.88
298.523	89.88
298.753	95.88
298.984	91.88
299.214	89.88
299.445	87.88
299.675	94.88
299.905	94.88
300.136	80.88
300.366	107.88
300.597	99.88
300.827	97.88
301.057	87.88
301.288	102.88
301.518	103.88
301.748	83.88
301.979	96.88
302.209	85.88
302.439	90.88
302.669	80.88
302.9	97.88
303.13	88.88
303.36	95.88
303.59	117.88
303.82	105.88
304.051	97.88
304.281	89.88
304.511	93.88
304.741	83.88
304.971	77.88
305.201	88.88
305.431	78.88
305.661	102.88
305.891	97.88
306.121	96.88
306.352	104.88
306.582	86.88
306.812	93.88
307.042	94.88
307.272	91.88
307.502	91.88
307.731	108.88
307.961	94.88
308.191	110.88
308.421	98.88
308.651	95.88
308.881	96.88
309.111	95.88
309.341	101.88
309.571	113.88
309.8	103.88
310.03	86.88
310.26	96.88
310.49	85.88
310.72	88.88
310.949	94.88
311.179	99.88
311.409	84.88
311.639	103.88
311.868	101.88
312.098	99.88
312.328	111.88
312.557	101.88
312.787	110.88
313.017	97.88
313.246	100.88
313.476	100.88
313.706	93.88
313.935	87.88
314.165	86.88
314.394	114.88
314.624	110.88
314.853	82.88
315.083	108.88
315.312	95.88
315.542	89.88
315.771	94.88
316.001	106.88
316.23	87.88
316.46	90.88
316.689	86.88
316.919	106.88
317.148	98.88
317.377	109.88
317.607	101.88
317.836	96.88
318.065	87.88
318.295	89.88
318.524	85.88
318.753	94.88
318.983	95.88
319.212	110.88
319.441	103.88
319.67	108.88
319.9	113.88
320.129	107.88
320.358	95.88
320.587	108.88
320.816	102.88
321.046	91.88
321.275	104.88
321.504	105.88
321.733	98.88
321.962	96.88
322.191	78.88
322.42	99.88
322.649	106.88
322.878	101.88
323.108	104.88
323.337	106.88
323.566	121.88
323.795	139.88
324.024	173.88
324.253	309.88
324.482	651.88
324.71	1285.88
324.939	1730.88
325.168	659.88
325.397	200.88
325.626	124.88
325.855	123.88
326.084	119.88
326.313	137.88
326.542	130.88
326.77	198.88
326.999	391.88
327.228	761.88
327.457	1292.88
327.686	1031.88
327.914	309.88
328.143	176.88
328.372	149.88
328.6	118.88
328.829	106.88
329.058	114.88
329.287	116.88
329.515	111.88
329.744	113.88
329.972	126.88
330.201	157.88
330.43	173.88
330.658	141.88
330.887	125.88
331.115	110.88
331.344	83.88
331.572	94.88
331.801	85.88
332.03	102.88
332.258	90.88
332.486	110.88
332.715	97.88
332.943	94.88
333.172	99.88
333.4	107.88
333.629	119.88
333.857	103.88
334.085	121.88
334.314	153.88
334.542	203.88
334.771	195.88
334.999	97.88
335.227	110.88
335.455	91.88
335.684	94.88
335.912	102.88
336.14	86.88
336.369	107.88
336.597	106.88
336.825	97.88
337.053	101.88
337.281	82.88
337.51	101.88
337.738	105.88
337.966	98.88
338.194	94.88
338.422	95.88
338.65	91.88
338.878	74.88
339.106	91.88
339.334	93.88
339.562	98.88
339.79	98.88
340.018	92.88
340.246	96.88
340.474	91.88
340.702	93.88
340.93	100.88
341.158	87.88
341.386	88.88
341.614	83.88
341.842	89.88
342.07	90.88
342.298	83.88
342.526	89.88
342.754	98.88
342.981	86.88
343.209	93.88
343.437	90.88
343.665	93.88
343.893	85.88
344.12	111.88
344.348	86.88
344.576	89.88
344.804	89.88
345.031	78.88
345.259	99.88
345.487	82.88
345.714	94.88
345.942	99.88
346.17	102.88
346.397	91.88
346.625	109.88
346.853	85.88
347.08	98.88
347.308	109.88
347.535	86.88
347.763	98.88
347.99	103.88
348.218	106.88
348.445	111.88
348.673	93.88
348.9	102.88
349.128	99.88
349.355	86.88
349.583	112.88
349.81	103.88
350.037	97.88
350.265	91.88
350.492	94.88
350.72	92.88
350.947	94.88
351.174	99.88
351.402	114.88
351.629	95.88
351.856	98.88
352.083	95.88
352.311	83.88
352.538	112.88
352.765	104.88
352.992	97.88
353.22	95.88
353.447	102.88
353.674	93.88
353.901	102.88
354.128	94.88
354.355	93.88
354.583	105.88
354.81	105.88
355.037	97.88
355.264	117.88
355.491	110.88
355.718	104.88
355.945	105.88
356.172	90.88
356.399	96.88
356.626	102.88
356.853	93.88
357.08	98.88
357.307	92.88
357.534	89.88
357.761	85.88
357.988	101.88
358.215	90.88
358.441	114.88
358.668	95.88
358.895	79.88
359.122	92.88
359.349	85.88
359.576	90.88
359.802	94.88
360.029	109.88
360.256	103.88
360.483	88.88
360.709	77.88
360.936	102.88
361.163	93.88
361.39	99.88
361.616	102.88
361.843	79.88
362.07	87.88
362.296	97.88
362.523	93.88
362.749	104.88
362.976	89.88
363.203	95.88
363.429	97.88
363.656	95.88
363.882	85.88
364.109	93.88
364.335	93.88
364.562	81.88
364.788	94.88
365.015	96.88
365.241	86.88
365.468	102.88
365.694	119.88
365.92	88.88
366.147	91.88
366.373	100.88
366.599	93.88
366.826	91.88
367.052	99.88
367.278	93.88
367.505	79.88
367.731	82.88
367.957	90.88
368.184	89.88
368.41	91.88
368.636	102.88
368.862	99.88
369.089	106.88
369.315	94.88
369.541	82.88
369.767	86.88
369.993	78.88
370.219	73.88
370.445	96.88
370.672	98.88
370.898	82.88
371.124	93.88
371.35	90.88
371.576	86.88
371.802	82.88
372.028	80.88
372.254	93.88
372.48	89.88
372.706	91.88
372.932	90.88
373.158	101.88
373.384	107.88
373.61	96.88
373.835	78.88
374.061	87.88
374.287	90.88
374.513	93.88
374.739	88.88
374.965	85.88
375.191	96.88
375.416	104.88
375.642	78.88
375.868	94.88
376.094	104.88
376.319	86.88
376.545	94.88
376.771	95.88
376.997	80.88
377.222	80.88
377.448	103.88
377.674	89.88
377.899	96.88
378.125	89.88
378.35	107.88
378.576	88.88
378.802	106.88
379.027	101.88
379.253	104.88
379.478	94.88
379.704	82.88
379.929	88.88
380.155	92.88
380.38	86.88
380.606	96.88
380.831	94.88
381.057	95.88
381.282	99.88
381.507	83.88
381.733	106.88
381.958	83.88
382.184	93.88
382.409	101.88
382.634	95.88
382.86	103.88
383.085	124.88
383.31	113.88
383.535	105.88
383.761	97.88
383.986	95.88
384.211	99.88
384.436	93.88
384.662	117.88
384.887	99.88
385.112	110.88
385.337	106.88
385.562	92.88
385.787	113.88
386.013	110.88
386.238	124.88
386.463	106.88
386.688	94.88
386.913	98.88
387.138	112.88
387.363	109.88
387.588	107.88
387.813	109.88
388.038	100.88
388.263	119.88
388.488	117.88
388.713	107.88
388.938	94.88
389.163	106.88
389.387	95.88
389.612	94.88
389.837	99.88
390.062	77.88
390.287	93.88
390.512	86.88
390.736	81.88
390.961	87.88
391.186	81.88
391.411	86.88
391.636	96.88
391.86	89.88
392.085	82.88
392.31	90.88
392.534	90.88
392.759	79.88
392.984	86.88
393.208	95.88
393.433	113.88
393.658	99.88
393.882	80.88
394.107	78.88
394.331	81.88
394.556	90.88
394.78	90.88
395.005	87.88
395.229	82.88
395.454	86.88
395.678	77.88
395.903	76.88
396.127	80.88
396.352	90.88
396.576	94.88
396.801	81.88
397.025	91.88
397.249	88.88
397.474	98.88
397.698	94.88
397.922	82.88
398.147	84.88
398.371	99.88
398.595	82.88
398.82	82.88
399.044	88.88
399.268	71.88
399.492	76.88
399.717	83.88
399.941	87.88
400.165	90.88
400.389	106.88
400.613	90.88
400.837	97.88
401.062	93.88
401.286	85.88
401.51	96.88
401.734	95.88
401.958	86.88
402.182	96.88
402.406	132.88
402.63	102.88
402.854	99.88
403.078	98.88
403.302	99.88
403.526	90.88
403.75	84.88
403.974	95.88
404.198	81.88
404.422	78.88
404.645	86.88
404.869	95.88
405.093	84.88
405.317	108.88
405.541	113.88
405.765	92.88
405.988	98.88
406.212	146.88
406.436	188.88
406.66	140.88
406.883	92.88
407.107	108.88
407.331	98.88
407.555	92.88
407.778	97.88
408.002	101.88
408.226	84.88
408.449	82.88
408.673	91.88
408.896	90.88
409.12	88.88
409.344	81.88
409.567	92.88
409.791	106.88
410.014	89.88
410.238	89.88
410.461	90.88
410.685	88.88
410.908	98.88
411.132	94.88
411.355	98.88
411.578	81.88
411.802	82.88
412.025	96.88
412.249	90.88
412.472	89.88
412.695	86.88
412.919	97.88
413.142	92.88
413.365	100.88
413.589	109.88
413.812	77.88
414.035	93.88
414.258	95.88
414.482	92.88
414.705	92.88
414.928	94.88
415.151	95.88
415.374	92.88
415.597	97.88
415.821	96.88
416.044	92.88
416.267	94.88
416.49	76.88
416.713	109.88
416.936	88.88
417.159	95.88
417.382	77.88
417.605	80.88
417.828	85.88
418.051	86.88
418.274	102.88
418.497	91.88
418.72	89.88
418.943	93.88
419.166	87.88
419.389	96.88
419.611	101.88
419.834	85.88
420.057	81.88
420.28	86.88
420.503	91.88
420.726	98.88
420.948	85.88
421.171	85.88
421.394	91.88
421.617	104.88
421.839	86.88
422.062	99.88
422.285	101.88
422.507	98.88
422.73	111.88
422.953	103.88
423.175	82.88
423.398	93.88
423.621	87.88
423.843	78.88
424.066	75.88
424.288	81.88
424.511	89.88
424.733	110.88
424.956	108.88
425.178	104.88
425.401	98.88
425.623	88.88
425.846	90.88
426.068	93.88
426.291	76.88
426.513	93.88
426.735	85.88
426.958	89.88
427.18	99.88
427.402	131.88
427.625	146.88
427.847	127.88
428.069	106.88
428.292	83.88
428.514	85.88
428.736	88.88
428.958	89.88
429.181	80.88
429.403	83.88
429.625	85.88
429.847	91.88
430.069	81.88
430.292	108.88
430.514	78.88
430.736	88.88
430.958	103.88
431.18	104.88
431.402	88.88
431.624	76.88
431.846	84.88
432.068	85.88
432.29	86.88
432.512	111.88
432.734	86.88
432.956	95.88
433.178	99.88
433.4	101.88
433.622	83.88
433.844	89.88
434.066	89.88
434.287	94.88
434.509	81.88
434.731	96.88
434.953	76.88
435.175	82.88
435.397	94.88
435.618	99.88
435.84	90.88
436.062	109.88
436.284	100.88
436.505	87.88
436.727	101.88
436.949	83.88
437.17	92.88
437.392	84.88
437.614	85.88
437.835	90.88
438.057	111.88
438.278	113.88
438.5	118.88
438.721	111.88
438.943	108.88
439.165	90.88
439.386	83.88
439.608	96.88
439.829	85.88
440.05	117.88
440.272	118.88
440.493	102.88
440.715	91.88
440.936	90.88
441.158	87.88
441.379	83.88
441.6	86.88
441.822	78.88
442.043	105.88
442.264	91.88
442.486	98.88
442.707	100.88
442.928	98.88
443.149	103.88
443.371	110.88
443.592	94.88
443.813	104.88
444.034	105.88
444.255	101.88
444.476	70.88
444.698	80.88
444.919	86.88
445.14	127.88
445.361	118.88
445.582	98.88
445.803	127.88
446.024	129.88
446.245	124.88
446.466	96.88
446.687	94.88
446.908	97.88
447.129	87.88
447.35	82.88
447.571	96.88
447.792	92.88
448.013	93.88
448.234	91.88
448.455	90.88
448.675	96.88
448.896	102.88
449.117	99.88
449.338	116.88
449.559	121.88
449.779	118.88
450	93.88
450.221	104.88
450.442	87.88
450.662	86.88
450.883	103.88
451.104	100.88
451.324	96.88
451.545	95.88
451.766	98.88
451.986	92.88
452.207	88.88
452.428	93.88
452.648	85.88
452.869	99.88
453.089	114.88
453.31	120.88
453.53	112.88
453.751	99.88
453.971	95.88
454.192	104.88
454.412	80.88
454.633	81.88
454.853	101.88
455.073	97.88
455.294	93.88
455.514	89.88
455.734	85.88
455.955	88.88
456.175	96.88
456.395	92.88
456.616	80.88
456.836	85.88
457.056	83.88
457.276	90.88
457.497	95.88
457.717	90.88
457.937	80.88
458.157	87.88
458.377	84.88
458.598	107.88
458.818	127.88
459.038	155.88
459.258	113.88
459.478	83.88
459.698	90.88
459.918	86.88
460.138	83.88
460.358	89.88
460.578	71.88
460.798	86.88
461.018	89.88
461.238	78.88
461.458	72.88
461.678	85.88
461.898	82.88
462.118	80.88
462.338	79.88
462.558	90.88
462.777	87.88
462.997	92.88
463.217	80.88
463.437	90.88
463.657	84.88
463.876	73.88
464.096	94.88
464.316	82.88
464.536	86.88
464.755	108.88
464.975	95.88
465.195	128.88
465.414	134.88
465.634	83.88
465.854	92.88
466.073	65.88
466.293	84.88
466.512	89.88
466.732	92.88
466.951	91.88
467.171	105.88
467.391	98.88
467.61	104.88
467.829	91.88
468.049	115.88
468.268	130.88
468.488	98.88
468.707	97.88
468.927	93.88
469.146	90.88
469.365	90.88
469.585	79.88
469.804	85.88
470.023	87.88
470.243	98.88
470.462	95.88
470.681	103.88
470.901	87.88
471.12	77.88
471.339	87.88
471.558	71.88
471.777	93.88
471.997	97.88
472.216	165.88
472.435	251.88
472.654	133.88
472.873	97.88
473.092	87.88
473.311	89.88
473.53	78.88
473.749	86.88
473.968	82.88
474.187	103.88
474.406	90.88
474.625	86.88
474.844	94.88
475.063	83.88
475.282	94.88
475.501	82.88
475.72	97.88
475.939	93.88
476.158	78.88
476.377	86.88
476.596	86.88
476.814	91.88
477.033	83.88
477.252	95.88
477.471	85.88
477.69	89.88
477.908	89.88
478.127	71.88
478.346	73.88
478.564	102.88
478.783	93.88
479.002	86.88
479.22	93.88
479.439	91.88
479.658	95.88
479.876	86.88
480.095	91.88
480.313	89.88
480.532	95.88
480.751	103.88
480.969	159.88
481.188	381.88
481.406	253.88
481.624	99.88
481.843	106.88
482.061	92.88
482.28	102.88
482.498	97.88
482.717	96.88
482.935	95.88
483.153	73.88
483.372	94.88
483.59	95.88
483.808	79.88
484.027	92.88
484.245	90.88
484.463	93.88
484.681	85.88
484.9	79.88
485.118	88.88
485.336	92.88
485.554	98.88
485.772	117.88
485.99	112.88
486.209	96.88
486.427	94.88
486.645	98.88
486.863	101.88
487.081	97.88
487.299	108.88
487.517	92.88
487.735	91.88
487.953	99.88
488.171	113.88
488.389	89.88
488.607	93.88
488.825	93.88
489.043	87.88
489.261	79.88
489.479	89.88
489.696	81.88
489.914	88.88
490.132	94.88
490.35	88.88
490.568	96.88
490.786	82.88
491.003	83.88
491.221	96.88
491.439	101.88
491.657	98.88
491.874	98.88
492.092	97.88
492.31	101.88
492.527	92.88
492.745	91.88
492.963	93.88
493.18	95.88
493.398	96.88
493.615	98.88
493.833	102.88
494.05	92.88
494.268	89.88
494.485	78.88
494.703	93.88
494.92	114.88
495.138	100.88
495.355	88.88
495.573	85.88
495.79	76.88
496.008	85.88
496.225	86.88
496.442	87.88
496.66	97.88
496.877	94.88
497.094	90.88
497.312	92.88
497.529	87.88
497.746	96.88
497.963	82.88
498.181	98.88
498.398	93.88
498.615	100.88
498.832	117.88
499.049	97.88
499.267	87.88
499.484	92.88
499.701	77.88
499.918	98.88
500.135	90.88
500.352	81.88
500.569	84.88
500.786	95.88
501.003	86.88
501.22	97.88
501.437	82.88
501.654	106.88
501.871	101.88
502.088	98.88
502.305	67.88
502.522	102.88
502.739	104.88
502.956	92.88
503.172	75.88
503.389	83.88
503.606	105.88
503.823	100.88
504.04	88.88
504.256	96.88
504.473	89.88
504.69	96.88
504.907	83.88
505.123	84.88
505.34	90.88
505.557	98.88
505.773	102.88
505.99	91.88
506.207	81.88
506.423	78.88
506.64	88.88
506.856	69.88
507.073	97.88
507.289	91.88
507.506	101.88
507.722	97.88
507.939	111.88
508.155	101.88
508.372	89.88
508.588	81.88
508.805	97.88
509.021	88.88
509.238	104.88
509.454	99.88
509.67	101.88
509.887	101.88
510.103	118.88
510.319	188.88
510.536	591.88
510.752	1837.88
510.968	570.88
511.184	148.88
511.401	101.88
511.617	82.88
511.833	108.88
512.049	106.88
512.265	79.88
512.481	81.88
512.698	93.88
512.914	95.88
513.13	85.88
513.346	96.88
513.562	98.88
513.778	100.88
513.994	110.88
514.21	105.88
514.426	104.88
514.642	119.88
514.858	106.88
515.074	135.88
515.29	349.88
515.506	1081.88
515.721	448.88
