Data from Circ_2010_H10_HRD10591_00051.txt Node
Date: Wed Jan 03 10:09:51 EST 2024
User: Yrep
Spectrometer: HR+D1059
Trigger mode: 1
Integration Time (sec): 1.000000E-1
Scans to average: 1
Electric dark correction enabled: true
Nonlinearity correction enabled: false
Boxcar width: 0
XAxis mode: Wavelengths
Number of Pixels in Spectrum: 2048
>>>>>Begin Spectral Data<<<<<
223.165	-7.44
223.4	-7.44
223.635	-7.44
223.869	-11.44
224.104	-11.44
224.338	-10.44
224.573	-11.44
224.808	-20.44
225.042	-13.44
225.277	-10.44
225.511	4.56
225.746	-7.44
225.98	-2.44
226.215	8.56
226.449	21.56
226.683	28.56
226.918	19.56
227.152	23.56
227.387	31.56
227.621	44.56
227.856	43.56
228.09	61.56
228.324	41.56
228.559	44.56
228.793	56.56
229.027	66.56
229.262	60.56
229.496	65.56
229.73	81.56
229.964	78.56
230.199	67.56
230.433	79.56
230.667	75.56
230.901	73.56
231.136	76.56
231.37	75.56
231.604	80.56
231.838	75.56
232.072	75.56
232.306	76.56
232.541	89.56
232.775	80.56
233.009	67.56
233.243	77.56
233.477	72.56
233.711	77.56
233.945	68.56
234.179	73.56
234.413	76.56
234.647	78.56
234.881	85.56
235.115	83.56
235.349	79.56
235.583	69.56
235.817	71.56
236.051	71.56
236.285	71.56
236.519	80.56
236.753	74.56
236.987	78.56
237.221	67.56
237.455	90.56
237.689	84.56
237.922	72.56
238.156	72.56
238.39	76.56
238.624	73.56
238.858	61.56
239.091	74.56
239.325	72.56
239.559	78.56
239.793	79.56
240.027	74.56
240.26	75.56
240.494	80.56
240.728	76.56
240.961	84.56
241.195	74.56
241.429	79.56
241.662	70.56
241.896	68.56
242.13	77.56
242.363	80.56
242.597	80.56
242.83	79.56
243.064	53.56
243.298	68.56
243.531	83.56
243.765	65.56
243.998	77.56
244.232	84.56
244.465	76.56
244.699	75.56
244.932	84.56
245.166	73.56
245.399	61.56
245.633	88.56
245.866	86.56
246.099	69.56
246.333	77.56
246.566	78.56
246.8	74.56
247.033	78.56
247.266	58.56
247.5	60.56
247.733	72.56
247.966	84.56
248.2	85.56
248.433	79.56
248.666	89.56
248.899	74.56
249.133	77.56
249.366	95.56
249.599	90.56
249.832	71.56
250.066	79.56
250.299	80.56
250.532	80.56
250.765	77.56
250.998	68.56
251.231	91.56
251.465	75.56
251.698	71.56
251.931	86.56
252.164	74.56
252.397	73.56
252.63	93.56
252.863	87.56
253.096	82.56
253.329	79.56
253.562	80.56
253.795	81.56
254.028	78.56
254.261	75.56
254.494	72.56
254.727	74.56
254.96	72.56
255.193	80.56
255.426	69.56
255.659	79.56
255.892	79.56
256.124	75.56
256.357	80.56
256.59	76.56
256.823	76.56
257.056	79.56
257.289	75.56
257.521	81.56
257.754	85.56
257.987	69.56
258.22	86.56
258.452	83.56
258.685	78.56
258.918	77.56
259.151	85.56
259.383	103.56
259.616	74.56
259.849	86.56
260.081	87.56
260.314	76.56
260.547	92.56
260.779	81.56
261.012	82.56
261.244	76.56
261.477	84.56
261.71	77.56
261.942	91.56
262.175	106.56
262.407	98.56
262.64	87.56
262.872	92.56
263.105	83.56
263.337	87.56
263.57	79.56
263.802	82.56
264.035	72.56
264.267	84.56
264.499	91.56
264.732	83.56
264.964	85.56
265.197	78.56
265.429	75.56
265.661	92.56
265.894	80.56
266.126	83.56
266.358	80.56
266.591	78.56
266.823	89.56
267.055	74.56
267.287	92.56
267.52	60.56
267.752	73.56
267.984	65.56
268.216	79.56
268.448	73.56
268.681	87.56
268.913	85.56
269.145	87.56
269.377	67.56
269.609	83.56
269.841	77.56
270.073	82.56
270.306	78.56
270.538	76.56
270.77	97.56
271.002	88.56
271.234	78.56
271.466	86.56
271.698	74.56
271.93	83.56
272.162	84.56
272.394	80.56
272.626	72.56
272.858	79.56
273.09	74.56
273.322	84.56
273.553	73.56
273.785	78.56
274.017	71.56
274.249	81.56
274.481	92.56
274.713	66.56
274.945	80.56
275.176	88.56
275.408	82.56
275.64	91.56
275.872	95.56
276.104	78.56
276.335	91.56
276.567	97.56
276.799	95.56
277.031	76.56
277.262	108.56
277.494	90.56
277.726	86.56
277.957	78.56
278.189	66.56
278.421	79.56
278.652	81.56
278.884	84.56
279.115	99.56
279.347	77.56
279.579	83.56
279.81	79.56
280.042	83.56
280.273	102.56
280.505	92.56
280.736	88.56
280.968	87.56
281.199	85.56
281.431	99.56
281.662	83.56
281.894	84.56
282.125	91.56
282.356	106.56
282.588	124.56
282.819	110.56
283.051	86.56
283.282	76.56
283.513	80.56
283.745	89.56
283.976	89.56
284.207	91.56
284.439	77.56
284.67	80.56
284.901	91.56
285.132	89.56
285.364	94.56
285.595	84.56
285.826	79.56
286.057	88.56
286.288	73.56
286.52	91.56
286.751	91.56
286.982	84.56
287.213	77.56
287.444	88.56
287.675	67.56
287.906	90.56
288.138	83.56
288.369	80.56
288.6	78.56
288.831	83.56
289.062	79.56
289.293	97.56
289.524	78.56
289.755	77.56
289.986	80.56
290.217	85.56
290.448	97.56
290.679	96.56
290.91	85.56
291.141	90.56
291.371	88.56
291.602	72.56
291.833	82.56
292.064	92.56
292.295	78.56
292.526	74.56
292.757	97.56
292.987	81.56
293.218	86.56
293.449	85.56
293.68	89.56
293.91	80.56
294.141	86.56
294.372	95.56
294.603	82.56
294.833	97.56
295.064	84.56
295.295	96.56
295.525	88.56
295.756	98.56
295.987	100.56
296.217	128.56
296.448	116.56
296.679	93.56
296.909	86.56
297.14	92.56
297.37	79.56
297.601	81.56
297.831	91.56
298.062	103.56
298.292	101.56
298.523	87.56
298.753	89.56
298.984	87.56
299.214	76.56
299.445	93.56
299.675	95.56
299.905	88.56
300.136	91.56
300.366	83.56
300.597	106.56
300.827	93.56
301.057	96.56
301.288	104.56
301.518	89.56
301.748	91.56
301.979	102.56
302.209	79.56
302.439	76.56
302.669	79.56
302.9	84.56
303.13	86.56
303.36	88.56
303.59	95.56
303.82	106.56
304.051	91.56
304.281	86.56
304.511	84.56
304.741	78.56
304.971	91.56
305.201	80.56
305.431	93.56
305.661	88.56
305.891	95.56
306.121	91.56
306.352	91.56
306.582	79.56
306.812	82.56
307.042	82.56
307.272	92.56
307.502	96.56
307.731	95.56
307.961	88.56
308.191	95.56
308.421	84.56
308.651	89.56
308.881	94.56
309.111	94.56
309.341	81.56
309.571	82.56
309.8	97.56
310.03	98.56
310.26	91.56
310.49	97.56
310.72	91.56
310.949	98.56
311.179	95.56
311.409	77.56
311.639	92.56
311.868	99.56
312.098	91.56
312.328	99.56
312.557	104.56
312.787	104.56
313.017	89.56
313.246	101.56
313.476	83.56
313.706	102.56
313.935	114.56
314.165	97.56
314.394	95.56
314.624	91.56
314.853	91.56
315.083	89.56
315.312	83.56
315.542	83.56
315.771	71.56
316.001	84.56
316.23	99.56
316.46	75.56
316.689	100.56
316.919	73.56
317.148	87.56
317.377	82.56
317.607	99.56
317.836	111.56
318.065	93.56
318.295	84.56
318.524	84.56
318.753	95.56
318.983	91.56
319.212	92.56
319.441	106.56
319.67	91.56
319.9	88.56
320.129	87.56
320.358	90.56
320.587	101.56
320.816	95.56
321.046	87.56
321.275	93.56
321.504	92.56
321.733	87.56
321.962	80.56
322.191	98.56
322.42	102.56
322.649	102.56
322.878	102.56
323.108	107.56
323.337	106.56
323.566	118.56
323.795	135.56
324.024	180.56
324.253	351.56
324.482	676.56
324.71	1357.56
324.939	1788.56
325.168	654.56
325.397	214.56
325.626	133.56
325.855	116.56
326.084	114.56
326.313	119.56
326.542	148.56
326.77	210.56
326.999	366.56
327.228	778.56
327.457	1379.56
327.686	1069.56
327.914	321.56
328.143	184.56
328.372	167.56
328.6	138.56
328.829	131.56
329.058	115.56
329.287	117.56
329.515	108.56
329.744	110.56
329.972	141.56
330.201	195.56
330.43	246.56
330.658	169.56
330.887	130.56
331.115	95.56
331.344	95.56
331.572	100.56
331.801	97.56
332.03	105.56
332.258	87.56
332.486	93.56
332.715	89.56
332.943	91.56
333.172	93.56
333.4	88.56
333.629	100.56
333.857	108.56
334.085	136.56
334.314	165.56
334.542	268.56
334.771	264.56
334.999	137.56
335.227	110.56
335.455	88.56
335.684	77.56
335.912	90.56
336.14	102.56
336.369	106.56
336.597	82.56
336.825	95.56
337.053	90.56
337.281	76.56
337.51	84.56
337.738	98.56
337.966	82.56
338.194	85.56
338.422	105.56
338.65	86.56
338.878	89.56
339.106	96.56
339.334	98.56
339.562	93.56
339.79	95.56
340.018	93.56
340.246	88.56
340.474	100.56
340.702	85.56
340.93	80.56
341.158	94.56
341.386	98.56
341.614	89.56
341.842	90.56
342.07	102.56
342.298	89.56
342.526	86.56
342.754	90.56
342.981	88.56
343.209	86.56
343.437	96.56
343.665	95.56
343.893	79.56
344.12	113.56
344.348	81.56
344.576	83.56
344.804	89.56
345.031	85.56
345.259	92.56
345.487	95.56
345.714	84.56
345.942	80.56
346.17	91.56
346.397	88.56
346.625	89.56
346.853	81.56
347.08	86.56
347.308	100.56
347.535	101.56
347.763	122.56
347.99	84.56
348.218	120.56
348.445	104.56
348.673	83.56
348.9	81.56
349.128	88.56
349.355	92.56
349.583	84.56
349.81	90.56
350.037	96.56
350.265	100.56
350.492	92.56
350.72	90.56
350.947	90.56
351.174	110.56
351.402	99.56
351.629	81.56
351.856	95.56
352.083	105.56
352.311	105.56
352.538	101.56
352.765	103.56
352.992	91.56
353.22	96.56
353.447	103.56
353.674	111.56
353.901	101.56
354.128	94.56
354.355	108.56
354.583	99.56
354.81	98.56
355.037	103.56
355.264	70.56
355.491	79.56
355.718	88.56
355.945	80.56
356.172	94.56
356.399	80.56
356.626	83.56
356.853	79.56
357.08	89.56
357.307	89.56
357.534	97.56
357.761	76.56
357.988	90.56
358.215	104.56
358.441	93.56
358.668	99.56
358.895	80.56
359.122	92.56
359.349	96.56
359.576	93.56
359.802	87.56
360.029	109.56
360.256	83.56
360.483	74.56
360.709	83.56
360.936	94.56
361.163	70.56
361.39	80.56
361.616	98.56
361.843	94.56
362.07	86.56
362.296	84.56
362.523	68.56
362.749	83.56
362.976	84.56
363.203	92.56
363.429	90.56
363.656	84.56
363.882	89.56
364.109	91.56
364.335	86.56
364.562	85.56
364.788	100.56
365.015	90.56
365.241	89.56
365.468	82.56
365.694	93.56
365.92	95.56
366.147	79.56
366.373	93.56
366.599	87.56
366.826	93.56
367.052	92.56
367.278	93.56
367.505	81.56
367.731	92.56
367.957	95.56
368.184	90.56
368.41	98.56
368.636	103.56
368.862	102.56
369.089	112.56
369.315	103.56
369.541	91.56
369.767	86.56
369.993	86.56
370.219	79.56
370.445	86.56
370.672	88.56
370.898	101.56
371.124	78.56
371.35	91.56
371.576	86.56
371.802	74.56
372.028	94.56
372.254	85.56
372.48	90.56
372.706	83.56
372.932	106.56
373.158	81.56
373.384	83.56
373.61	96.56
373.835	81.56
374.061	78.56
374.287	92.56
374.513	99.56
374.739	95.56
374.965	83.56
375.191	83.56
375.416	90.56
375.642	89.56
375.868	98.56
376.094	83.56
376.319	82.56
376.545	81.56
376.771	89.56
376.997	87.56
377.222	90.56
377.448	90.56
377.674	86.56
377.899	91.56
378.125	86.56
378.35	72.56
378.576	97.56
378.802	78.56
379.027	88.56
379.253	90.56
379.478	85.56
379.704	97.56
379.929	93.56
380.155	76.56
380.38	84.56
380.606	86.56
380.831	76.56
381.057	96.56
381.282	77.56
381.507	79.56
381.733	86.56
381.958	99.56
382.184	85.56
382.409	92.56
382.634	98.56
382.86	92.56
383.085	97.56
383.31	98.56
383.535	90.56
383.761	99.56
383.986	94.56
384.211	84.56
384.436	102.56
384.662	86.56
384.887	102.56
385.112	109.56
385.337	101.56
385.562	98.56
385.787	105.56
386.013	101.56
386.238	101.56
386.463	112.56
386.688	102.56
386.913	91.56
387.138	108.56
387.363	106.56
387.588	103.56
387.813	95.56
388.038	99.56
388.263	115.56
388.488	108.56
388.713	91.56
388.938	110.56
389.163	110.56
389.387	93.56
389.612	105.56
389.837	95.56
390.062	90.56
390.287	81.56
390.512	103.56
390.736	88.56
390.961	90.56
391.186	104.56
391.411	88.56
391.636	93.56
391.86	86.56
392.085	78.56
392.31	85.56
392.534	89.56
392.759	83.56
392.984	79.56
393.208	87.56
393.433	95.56
393.658	98.56
393.882	74.56
394.107	91.56
394.331	99.56
394.556	101.56
394.78	103.56
395.005	86.56
395.229	86.56
395.454	94.56
395.678	67.56
395.903	79.56
396.127	87.56
396.352	83.56
396.576	82.56
396.801	91.56
397.025	97.56
397.249	95.56
397.474	86.56
397.698	80.56
397.922	92.56
398.147	84.56
398.371	79.56
398.595	77.56
398.82	83.56
399.044	86.56
399.268	84.56
399.492	79.56
399.717	89.56
399.941	93.56
400.165	95.56
400.389	85.56
400.613	87.56
400.837	86.56
401.062	79.56
401.286	99.56
401.51	92.56
401.734	79.56
401.958	98.56
402.182	126.56
402.406	134.56
402.63	100.56
402.854	72.56
403.078	93.56
403.302	88.56
403.526	85.56
403.75	84.56
403.974	100.56
404.198	85.56
404.422	88.56
404.645	96.56
404.869	89.56
405.093	76.56
405.317	107.56
405.541	107.56
405.765	86.56
405.988	87.56
406.212	143.56
406.436	200.56
406.66	124.56
406.883	83.56
407.107	92.56
407.331	97.56
407.555	97.56
407.778	99.56
408.002	97.56
408.226	92.56
408.449	90.56
408.673	98.56
408.896	87.56
409.12	77.56
409.344	88.56
409.567	99.56
409.791	109.56
410.014	109.56
410.238	96.56
410.461	85.56
410.685	85.56
410.908	89.56
411.132	100.56
411.355	91.56
411.578	90.56
411.802	85.56
412.025	85.56
412.249	84.56
412.472	65.56
412.695	95.56
412.919	100.56
413.142	93.56
413.365	96.56
413.589	101.56
413.812	88.56
414.035	84.56
414.258	77.56
414.482	77.56
414.705	92.56
414.928	93.56
415.151	91.56
415.374	95.56
415.597	80.56
415.821	86.56
416.044	78.56
416.267	77.56
416.49	84.56
416.713	94.56
416.936	103.56
417.159	74.56
417.382	89.56
417.605	94.56
417.828	100.56
418.051	95.56
418.274	95.56
418.497	88.56
418.72	79.56
418.943	76.56
419.166	84.56
419.389	93.56
419.611	101.56
419.834	77.56
420.057	90.56
420.28	84.56
420.503	88.56
420.726	86.56
420.948	80.56
421.171	89.56
421.394	87.56
421.617	101.56
421.839	88.56
422.062	73.56
422.285	89.56
422.507	90.56
422.73	85.56
422.953	95.56
423.175	93.56
423.398	79.56
423.621	97.56
423.843	94.56
424.066	80.56
424.288	83.56
424.511	86.56
424.733	87.56
424.956	101.56
425.178	102.56
425.401	96.56
425.623	105.56
425.846	74.56
426.068	82.56
426.291	95.56
426.513	77.56
426.735	90.56
426.958	84.56
427.18	109.56
427.402	121.56
427.625	143.56
427.847	135.56
428.069	119.56
428.292	96.56
428.514	87.56
428.736	84.56
428.958	85.56
429.181	97.56
429.403	79.56
429.625	80.56
429.847	94.56
430.069	83.56
430.292	86.56
430.514	84.56
430.736	96.56
430.958	92.56
431.18	81.56
431.402	82.56
431.624	82.56
431.846	104.56
432.068	80.56
432.29	78.56
432.512	88.56
432.734	68.56
432.956	76.56
433.178	97.56
433.4	102.56
433.622	84.56
433.844	87.56
434.066	91.56
434.287	78.56
434.509	88.56
434.731	81.56
434.953	72.56
435.175	84.56
435.397	77.56
435.618	81.56
435.84	97.56
436.062	108.56
436.284	111.56
436.505	80.56
436.727	99.56
436.949	88.56
437.17	75.56
437.392	85.56
437.614	95.56
437.835	102.56
438.057	100.56
438.278	99.56
438.5	90.56
438.721	121.56
438.943	99.56
439.165	94.56
439.386	85.56
439.608	79.56
439.829	99.56
440.05	124.56
440.272	125.56
440.493	85.56
440.715	91.56
440.936	78.56
441.158	86.56
441.379	79.56
441.6	102.56
441.822	93.56
442.043	92.56
442.264	104.56
442.486	75.56
442.707	97.56
442.928	100.56
443.149	101.56
443.371	105.56
443.592	90.56
443.813	89.56
444.034	97.56
444.255	87.56
444.476	90.56
444.698	92.56
444.919	83.56
445.14	121.56
445.361	110.56
445.582	111.56
445.803	115.56
446.024	116.56
446.245	135.56
446.466	95.56
446.687	94.56
446.908	89.56
447.129	78.56
447.35	88.56
447.571	104.56
447.792	91.56
448.013	95.56
448.234	102.56
448.455	102.56
448.675	111.56
448.896	105.56
449.117	107.56
449.338	106.56
449.559	112.56
449.779	111.56
450	88.56
450.221	82.56
450.442	87.56
450.662	78.56
450.883	87.56
451.104	95.56
451.324	79.56
451.545	88.56
451.766	99.56
451.986	88.56
452.207	102.56
452.428	91.56
452.648	101.56
452.869	103.56
453.089	106.56
453.31	102.56
453.53	96.56
453.751	94.56
453.971	104.56
454.192	85.56
454.412	90.56
454.633	82.56
454.853	79.56
455.073	86.56
455.294	93.56
455.514	93.56
455.734	88.56
455.955	91.56
456.175	83.56
456.395	88.56
456.616	86.56
456.836	84.56
457.056	91.56
457.276	82.56
457.497	86.56
457.717	87.56
457.937	85.56
458.157	72.56
458.377	96.56
458.598	85.56
458.818	132.56
459.038	141.56
459.258	100.56
459.478	91.56
459.698	83.56
459.918	82.56
460.138	74.56
460.358	79.56
460.578	69.56
460.798	86.56
461.018	84.56
461.238	103.56
461.458	81.56
461.678	90.56
461.898	98.56
462.118	71.56
462.338	78.56
462.558	80.56
462.777	91.56
462.997	87.56
463.217	88.56
463.437	100.56
463.657	90.56
463.876	88.56
464.096	85.56
464.316	92.56
464.536	91.56
464.755	90.56
464.975	105.56
465.195	161.56
465.414	144.56
465.634	92.56
465.854	83.56
466.073	64.56
466.293	77.56
466.512	79.56
466.732	70.56
466.951	97.56
467.171	102.56
467.391	90.56
467.61	77.56
467.829	110.56
468.049	122.56
468.268	154.56
468.488	82.56
468.707	75.56
468.927	82.56
469.146	86.56
469.365	97.56
469.585	82.56
469.804	84.56
470.023	108.56
470.243	87.56
470.462	95.56
470.681	100.56
470.901	88.56
471.12	92.56
471.339	86.56
471.558	85.56
471.777	100.56
471.997	103.56
472.216	211.56
472.435	343.56
472.654	150.56
472.873	79.56
473.092	77.56
473.311	92.56
473.53	91.56
473.749	88.56
473.968	80.56
474.187	97.56
474.406	85.56
474.625	89.56
474.844	99.56
475.063	86.56
475.282	84.56
475.501	80.56
475.72	86.56
475.939	84.56
476.158	84.56
476.377	92.56
476.596	91.56
476.814	78.56
477.033	98.56
477.252	79.56
477.471	91.56
477.69	96.56
477.908	78.56
478.127	75.56
478.346	76.56
478.564	83.56
478.783	95.56
479.002	94.56
479.22	91.56
479.439	80.56
479.658	103.56
479.876	93.56
480.095	93.56
480.313	78.56
480.532	97.56
480.751	116.56
480.969	206.56
481.188	551.56
481.406	346.56
481.624	106.56
481.843	87.56
482.061	84.56
482.28	88.56
482.498	75.56
482.717	87.56
482.935	92.56
483.153	78.56
483.372	82.56
483.59	87.56
483.808	80.56
484.027	84.56
484.245	86.56
484.463	84.56
484.681	80.56
484.9	99.56
485.118	88.56
485.336	88.56
485.554	89.56
485.772	89.56
485.99	96.56
486.209	89.56
486.427	102.56
486.645	108.56
486.863	99.56
487.081	95.56
487.299	82.56
487.517	86.56
487.735	97.56
487.953	90.56
488.171	71.56
488.389	96.56
488.607	98.56
488.825	87.56
489.043	87.56
489.261	89.56
489.479	90.56
489.696	86.56
489.914	79.56
490.132	104.56
490.35	81.56
490.568	79.56
490.786	70.56
491.003	76.56
491.221	79.56
491.439	83.56
491.657	78.56
491.874	91.56
492.092	71.56
492.31	92.56
492.527	94.56
492.745	92.56
492.963	85.56
493.18	88.56
493.398	108.56
493.615	93.56
493.833	94.56
494.05	84.56
494.268	104.56
494.485	81.56
494.703	80.56
494.92	80.56
495.138	84.56
495.355	81.56
495.573	91.56
495.79	84.56
496.008	73.56
496.225	99.56
496.442	96.56
496.66	86.56
496.877	91.56
497.094	82.56
497.312	85.56
497.529	99.56
497.746	77.56
497.963	84.56
498.181	89.56
498.398	88.56
498.615	114.56
498.832	99.56
499.049	83.56
499.267	87.56
499.484	95.56
499.701	92.56
499.918	93.56
500.135	85.56
500.352	85.56
500.569	80.56
500.786	85.56
501.003	76.56
501.22	79.56
501.437	77.56
501.654	83.56
501.871	106.56
502.088	77.56
502.305	78.56
502.522	80.56
502.739	104.56
502.956	79.56
503.172	91.56
503.389	84.56
503.606	87.56
503.823	84.56
504.04	84.56
504.256	99.56
504.473	101.56
504.69	93.56
504.907	93.56
505.123	75.56
505.34	88.56
505.557	100.56
505.773	100.56
505.99	74.56
506.207	79.56
506.423	84.56
506.64	88.56
506.856	87.56
507.073	76.56
507.289	92.56
507.506	99.56
507.722	105.56
507.939	108.56
508.155	89.56
508.372	93.56
508.588	103.56
508.805	99.56
509.021	95.56
509.238	109.56
509.454	107.56
509.67	108.56
509.887	103.56
510.103	126.56
510.319	202.56
510.536	626.56
510.752	1959.56
510.968	572.56
511.184	154.56
511.401	104.56
511.617	74.56
511.833	89.56
512.049	96.56
512.265	79.56
512.481	79.56
512.698	103.56
512.914	95.56
513.13	80.56
513.346	86.56
513.562	78.56
513.778	97.56
513.994	97.56
514.21	112.56
514.426	122.56
514.642	116.56
514.858	101.56
515.074	160.56
515.29	370.56
515.506	1212.56
515.721	464.56
515.937	145.56
516.153	98.56
516.369	85.56
516.585	85.56
