Data from Circ_2010_H10_HRD10591_00098.txt Node
Date: Wed Jan 03 10:10:00 EST 2024
User: Yrep
Spectrometer: HR+D1059
Trigger mode: 1
Integration Time (sec): 1.000000E-1
Scans to average: 1
Electric dark correction enabled: true
Nonlinearity correction enabled: false
Boxcar width: 0
XAxis mode: Wavelengths
Number of Pixels in Spectrum: 2048
>>>>>Begin Spectral Data<<<<<
223.165	-4.19
223.4	-4.19
223.635	-4.19
223.869	-23.19
224.104	-28.19
224.338	-5.19
224.573	-15.19
224.808	-17.19
225.042	-6.19
225.277	-0.19
225.511	-0.19
225.746	3.81
225.98	7.81
226.215	16.81
226.449	3.81
226.683	21.81
226.918	13.81
227.152	31.81
227.387	44.81
227.621	29.81
227.856	62.81
228.09	46.81
228.324	63.81
228.559	60.81
228.793	54.81
229.027	61.81
229.262	69.81
229.496	84.81
229.73	61.81
229.964	67.81
230.199	75.81
230.433	69.81
230.667	74.81
230.901	79.81
231.136	81.81
231.37	69.81
231.604	83.81
231.838	74.81
232.072	69.81
232.306	75.81
232.541	80.81
232.775	75.81
233.009	75.81
233.243	98.81
233.477	78.81
233.711	89.81
233.945	74.81
234.179	74.81
234.413	77.81
234.647	78.81
234.881	77.81
235.115	77.81
235.349	77.81
235.583	78.81
235.817	71.81
236.051	91.81
236.285	71.81
236.519	88.81
236.753	76.81
236.987	81.81
237.221	77.81
237.455	87.81
237.689	83.81
237.922	63.81
238.156	66.81
238.39	78.81
238.624	81.81
238.858	65.81
239.091	66.81
239.325	81.81
239.559	74.81
239.793	71.81
240.027	76.81
240.26	82.81
240.494	61.81
240.728	75.81
240.961	76.81
241.195	75.81
241.429	70.81
241.662	73.81
241.896	72.81
242.13	72.81
242.363	83.81
242.597	68.81
242.83	63.81
243.064	75.81
243.298	76.81
243.531	78.81
243.765	59.81
243.998	75.81
244.232	81.81
244.465	77.81
244.699	79.81
244.932	78.81
245.166	76.81
245.399	88.81
245.633	87.81
245.866	68.81
246.099	82.81
246.333	83.81
246.566	76.81
246.8	86.81
247.033	73.81
247.266	77.81
247.5	78.81
247.733	78.81
247.966	68.81
248.2	84.81
248.433	79.81
248.666	79.81
248.899	76.81
249.133	85.81
249.366	86.81
249.599	101.81
249.832	77.81
250.066	83.81
250.299	81.81
250.532	82.81
250.765	74.81
250.998	80.81
251.231	79.81
251.465	73.81
251.698	78.81
251.931	74.81
252.164	88.81
252.397	69.81
252.63	79.81
252.863	82.81
253.096	62.81
253.329	90.81
253.562	73.81
253.795	76.81
254.028	90.81
254.261	66.81
254.494	78.81
254.727	79.81
254.96	73.81
255.193	86.81
255.426	78.81
255.659	72.81
255.892	79.81
256.124	82.81
256.357	79.81
256.59	87.81
256.823	89.81
257.056	84.81
257.289	76.81
257.521	87.81
257.754	77.81
257.987	65.81
258.22	90.81
258.452	76.81
258.685	77.81
258.918	72.81
259.151	74.81
259.383	87.81
259.616	76.81
259.849	74.81
260.081	93.81
260.314	78.81
260.547	83.81
260.779	85.81
261.012	93.81
261.244	81.81
261.477	87.81
261.71	87.81
261.942	110.81
262.175	95.81
262.407	92.81
262.64	74.81
262.872	82.81
263.105	79.81
263.337	85.81
263.57	86.81
263.802	79.81
264.035	67.81
264.267	68.81
264.499	83.81
264.732	79.81
264.964	73.81
265.197	89.81
265.429	86.81
265.661	66.81
265.894	77.81
266.126	87.81
266.358	85.81
266.591	83.81
266.823	88.81
267.055	90.81
267.287	84.81
267.52	91.81
267.752	64.81
267.984	81.81
268.216	81.81
268.448	76.81
268.681	83.81
268.913	90.81
269.145	82.81
269.377	79.81
269.609	88.81
269.841	68.81
270.073	74.81
270.306	71.81
270.538	90.81
270.77	90.81
271.002	87.81
271.234	73.81
271.466	73.81
271.698	91.81
271.93	89.81
272.162	81.81
272.394	81.81
272.626	79.81
272.858	73.81
273.09	87.81
273.322	81.81
273.553	77.81
273.785	81.81
274.017	73.81
274.249	85.81
274.481	76.81
274.713	84.81
274.945	90.81
275.176	90.81
275.408	93.81
275.64	82.81
275.872	87.81
276.104	82.81
276.335	78.81
276.567	90.81
276.799	119.81
277.031	131.81
277.262	105.81
277.494	100.81
277.726	93.81
277.957	80.81
278.189	69.81
278.421	76.81
278.652	99.81
278.884	83.81
279.115	84.81
279.347	101.81
279.579	98.81
279.81	86.81
280.042	99.81
280.273	131.81
280.505	96.81
280.736	84.81
280.968	86.81
281.199	99.81
281.431	83.81
281.662	87.81
281.894	76.81
282.125	93.81
282.356	119.81
282.588	119.81
282.819	107.81
283.051	92.81
283.282	89.81
283.513	86.81
283.745	83.81
283.976	83.81
284.207	87.81
284.439	86.81
284.67	89.81
284.901	76.81
285.132	83.81
285.364	67.81
285.595	65.81
285.826	82.81
286.057	93.81
286.288	84.81
286.52	91.81
286.751	88.81
286.982	73.81
287.213	91.81
287.444	85.81
287.675	87.81
287.906	72.81
288.138	76.81
288.369	79.81
288.6	86.81
288.831	70.81
289.062	93.81
289.293	94.81
289.524	84.81
289.755	74.81
289.986	88.81
290.217	79.81
290.448	78.81
290.679	75.81
290.91	88.81
291.141	75.81
291.371	78.81
291.602	92.81
291.833	89.81
292.064	81.81
292.295	79.81
292.526	89.81
292.757	99.81
292.987	83.81
293.218	88.81
293.449	94.81
293.68	82.81
293.91	58.81
294.141	80.81
294.372	92.81
294.603	96.81
294.833	85.81
295.064	96.81
295.295	89.81
295.525	83.81
295.756	101.81
295.987	107.81
296.217	117.81
296.448	102.81
296.679	72.81
296.909	93.81
297.14	94.81
297.37	95.81
297.601	89.81
297.831	80.81
298.062	81.81
298.292	84.81
298.523	70.81
298.753	78.81
298.984	88.81
299.214	87.81
299.445	78.81
299.675	82.81
299.905	101.81
300.136	66.81
300.366	74.81
300.597	92.81
300.827	98.81
301.057	102.81
301.288	100.81
301.518	102.81
301.748	72.81
301.979	96.81
302.209	94.81
302.439	83.81
302.669	78.81
302.9	96.81
303.13	77.81
303.36	88.81
303.59	94.81
303.82	117.81
304.051	94.81
304.281	93.81
304.511	88.81
304.741	87.81
304.971	95.81
305.201	96.81
305.431	90.81
305.661	97.81
305.891	86.81
306.121	86.81
306.352	94.81
306.582	91.81
306.812	95.81
307.042	105.81
307.272	96.81
307.502	114.81
307.731	122.81
307.961	98.81
308.191	94.81
308.421	95.81
308.651	89.81
308.881	91.81
309.111	89.81
309.341	93.81
309.571	85.81
309.8	74.81
310.03	103.81
310.26	88.81
310.49	97.81
310.72	95.81
310.949	90.81
311.179	88.81
311.409	94.81
311.639	83.81
311.868	94.81
312.098	94.81
312.328	82.81
312.557	96.81
312.787	104.81
313.017	100.81
313.246	87.81
313.476	84.81
313.706	98.81
313.935	75.81
314.165	98.81
314.394	101.81
314.624	88.81
314.853	106.81
315.083	89.81
315.312	91.81
315.542	91.81
315.771	79.81
316.001	93.81
316.23	89.81
316.46	92.81
316.689	82.81
316.919	87.81
317.148	90.81
317.377	91.81
317.607	108.81
317.836	103.81
318.065	83.81
318.295	93.81
318.524	83.81
318.753	78.81
318.983	97.81
319.212	88.81
319.441	102.81
319.67	98.81
319.9	93.81
320.129	87.81
320.358	98.81
320.587	91.81
320.816	96.81
321.046	110.81
321.275	102.81
321.504	78.81
321.733	95.81
321.962	90.81
322.191	95.81
322.42	91.81
322.649	115.81
322.878	103.81
323.108	105.81
323.337	128.81
323.566	137.81
323.795	143.81
324.024	200.81
324.253	395.81
324.482	835.81
324.71	1640.81
324.939	2133.81
325.168	789.81
325.397	232.81
325.626	145.81
325.855	126.81
326.084	124.81
326.313	140.81
326.542	164.81
326.77	226.81
326.999	460.81
327.228	950.81
327.457	1707.81
327.686	1357.81
327.914	389.81
328.143	245.81
328.372	255.81
328.6	169.81
328.829	127.81
329.058	132.81
329.287	133.81
329.515	120.81
329.744	141.81
329.972	215.81
330.201	335.81
330.43	455.81
330.658	231.81
330.887	162.81
331.115	123.81
331.344	99.81
331.572	92.81
331.801	99.81
332.03	101.81
332.258	94.81
332.486	103.81
332.715	92.81
332.943	95.81
333.172	96.81
333.4	98.81
333.629	98.81
333.857	129.81
334.085	209.81
334.314	324.81
334.542	565.81
334.771	505.81
334.999	189.81
335.227	115.81
335.455	101.81
335.684	106.81
335.912	98.81
336.14	81.81
336.369	86.81
336.597	83.81
336.825	99.81
337.053	96.81
337.281	85.81
337.51	92.81
337.738	99.81
337.966	97.81
338.194	87.81
338.422	92.81
338.65	82.81
338.878	94.81
339.106	79.81
339.334	91.81
339.562	89.81
339.79	88.81
340.018	101.81
340.246	97.81
340.474	101.81
340.702	88.81
340.93	84.81
341.158	94.81
341.386	93.81
341.614	97.81
341.842	94.81
342.07	100.81
342.298	85.81
342.526	78.81
342.754	95.81
342.981	95.81
343.209	87.81
343.437	89.81
343.665	89.81
343.893	86.81
344.12	96.81
344.348	83.81
344.576	86.81
344.804	84.81
345.031	92.81
345.259	87.81
345.487	99.81
345.714	102.81
345.942	93.81
346.17	79.81
346.397	93.81
346.625	73.81
346.853	75.81
347.08	85.81
347.308	89.81
347.535	108.81
347.763	100.81
347.99	86.81
348.218	98.81
348.445	95.81
348.673	97.81
348.9	87.81
349.128	104.81
349.355	111.81
349.583	87.81
349.81	88.81
350.037	98.81
350.265	97.81
350.492	94.81
350.72	91.81
350.947	81.81
351.174	106.81
351.402	114.81
351.629	87.81
351.856	95.81
352.083	102.81
352.311	94.81
352.538	92.81
352.765	101.81
352.992	113.81
353.22	105.81
353.447	101.81
353.674	107.81
353.901	81.81
354.128	99.81
354.355	99.81
354.583	94.81
354.81	90.81
355.037	71.81
355.264	88.81
355.491	79.81
355.718	92.81
355.945	80.81
356.172	92.81
356.399	98.81
356.626	100.81
356.853	94.81
357.08	85.81
357.307	90.81
357.534	74.81
357.761	92.81
357.988	102.81
358.215	92.81
358.441	89.81
358.668	77.81
358.895	70.81
359.122	90.81
359.349	91.81
359.576	87.81
359.802	94.81
360.029	105.81
360.256	91.81
360.483	89.81
360.709	76.81
360.936	77.81
361.163	87.81
361.39	82.81
361.616	98.81
361.843	93.81
362.07	95.81
362.296	87.81
362.523	80.81
362.749	92.81
362.976	94.81
363.203	86.81
363.429	77.81
363.656	77.81
363.882	109.81
364.109	89.81
364.335	89.81
364.562	82.81
364.788	84.81
365.015	84.81
365.241	90.81
365.468	97.81
365.694	100.81
365.92	82.81
366.147	87.81
366.373	86.81
366.599	74.81
366.826	83.81
367.052	88.81
367.278	80.81
367.505	90.81
367.731	88.81
367.957	88.81
368.184	93.81
368.41	93.81
368.636	101.81
368.862	104.81
369.089	98.81
369.315	95.81
369.541	81.81
369.767	79.81
369.993	84.81
370.219	77.81
370.445	92.81
370.672	72.81
370.898	79.81
371.124	72.81
371.35	82.81
371.576	82.81
371.802	93.81
372.028	110.81
372.254	92.81
372.48	82.81
372.706	85.81
372.932	84.81
373.158	87.81
373.384	81.81
373.61	86.81
373.835	86.81
374.061	79.81
374.287	78.81
374.513	87.81
374.739	79.81
374.965	85.81
375.191	83.81
375.416	87.81
375.642	94.81
375.868	103.81
376.094	72.81
376.319	93.81
376.545	82.81
376.771	83.81
376.997	94.81
377.222	96.81
377.448	83.81
377.674	94.81
377.899	75.81
378.125	70.81
378.35	86.81
378.576	86.81
378.802	91.81
379.027	87.81
379.253	96.81
379.478	80.81
379.704	82.81
379.929	109.81
380.155	83.81
380.38	87.81
380.606	90.81
380.831	113.81
381.057	98.81
381.282	95.81
381.507	81.81
381.733	94.81
381.958	90.81
382.184	90.81
382.409	89.81
382.634	93.81
382.86	94.81
383.085	105.81
383.31	102.81
383.535	82.81
383.761	94.81
383.986	95.81
384.211	76.81
384.436	84.81
384.662	90.81
384.887	95.81
385.112	78.81
385.337	101.81
385.562	102.81
385.787	95.81
386.013	115.81
386.238	104.81
386.463	106.81
386.688	103.81
386.913	102.81
387.138	105.81
387.363	89.81
387.588	93.81
387.813	102.81
388.038	89.81
388.263	103.81
388.488	105.81
388.713	88.81
388.938	90.81
389.163	102.81
389.387	90.81
389.612	87.81
389.837	92.81
390.062	91.81
390.287	87.81
390.512	79.81
390.736	87.81
390.961	85.81
391.186	72.81
391.411	89.81
391.636	89.81
391.86	79.81
392.085	86.81
392.31	85.81
392.534	85.81
392.759	91.81
392.984	96.81
393.208	82.81
393.433	90.81
393.658	85.81
393.882	85.81
394.107	75.81
394.331	82.81
394.556	94.81
394.78	86.81
395.005	86.81
395.229	75.81
395.454	84.81
395.678	85.81
395.903	79.81
396.127	85.81
396.352	78.81
396.576	95.81
396.801	88.81
397.025	94.81
397.249	84.81
397.474	77.81
397.698	79.81
397.922	83.81
398.147	83.81
398.371	77.81
398.595	87.81
398.82	75.81
399.044	77.81
399.268	87.81
399.492	87.81
399.717	90.81
399.941	71.81
400.165	89.81
400.389	75.81
400.613	95.81
400.837	95.81
401.062	88.81
401.286	83.81
401.51	87.81
401.734	98.81
401.958	99.81
402.182	113.81
402.406	129.81
402.63	98.81
402.854	90.81
403.078	89.81
403.302	83.81
403.526	83.81
403.75	85.81
403.974	92.81
404.198	77.81
404.422	94.81
404.645	86.81
404.869	92.81
405.093	107.81
405.317	109.81
405.541	114.81
405.765	83.81
405.988	114.81
406.212	145.81
406.436	188.81
406.66	132.81
406.883	115.81
407.107	90.81
407.331	77.81
407.555	93.81
407.778	106.81
408.002	92.81
408.226	88.81
408.449	87.81
408.673	97.81
408.896	95.81
409.12	92.81
409.344	89.81
409.567	80.81
409.791	100.81
410.014	85.81
410.238	103.81
410.461	87.81
410.685	85.81
410.908	84.81
411.132	103.81
411.355	116.81
411.578	109.81
411.802	86.81
412.025	93.81
412.249	81.81
412.472	98.81
412.695	107.81
412.919	94.81
413.142	86.81
413.365	78.81
413.589	93.81
413.812	89.81
414.035	108.81
414.258	97.81
414.482	81.81
414.705	88.81
414.928	89.81
415.151	88.81
415.374	82.81
415.597	91.81
415.821	86.81
416.044	68.81
416.267	94.81
416.49	75.81
416.713	79.81
416.936	86.81
417.159	93.81
417.382	82.81
417.605	89.81
417.828	91.81
418.051	94.81
418.274	77.81
418.497	81.81
418.72	85.81
418.943	80.81
419.166	78.81
419.389	84.81
419.611	81.81
419.834	85.81
420.057	87.81
420.28	86.81
420.503	90.81
420.726	93.81
420.948	93.81
421.171	90.81
421.394	85.81
421.617	91.81
421.839	72.81
422.062	97.81
422.285	90.81
422.507	106.81
422.73	103.81
422.953	88.81
423.175	90.81
423.398	93.81
423.621	85.81
423.843	88.81
424.066	94.81
424.288	87.81
424.511	100.81
424.733	87.81
424.956	114.81
425.178	101.81
425.401	112.81
425.623	106.81
425.846	80.81
426.068	77.81
426.291	74.81
426.513	97.81
426.735	85.81
426.958	97.81
427.18	116.81
427.402	144.81
427.625	165.81
427.847	171.81
428.069	155.81
428.292	98.81
428.514	90.81
428.736	94.81
428.958	89.81
429.181	93.81
429.403	72.81
429.625	86.81
429.847	82.81
430.069	105.81
430.292	93.81
430.514	94.81
430.736	92.81
430.958	87.81
431.18	84.81
431.402	77.81
431.624	75.81
431.846	79.81
432.068	97.81
432.29	78.81
432.512	87.81
432.734	88.81
432.956	80.81
433.178	91.81
433.4	104.81
433.622	98.81
433.844	94.81
434.066	77.81
434.287	88.81
434.509	91.81
434.731	72.81
434.953	83.81
435.175	88.81
435.397	91.81
435.618	78.81
435.84	102.81
436.062	117.81
436.284	113.81
436.505	109.81
436.727	105.81
436.949	93.81
437.17	92.81
437.392	85.81
437.614	87.81
437.835	94.81
438.057	111.81
438.278	106.81
438.5	100.81
438.721	126.81
438.943	110.81
439.165	90.81
439.386	89.81
439.608	80.81
439.829	81.81
440.05	125.81
440.272	151.81
440.493	102.81
440.715	82.81
440.936	88.81
441.158	83.81
441.379	78.81
441.6	92.81
441.822	84.81
442.043	105.81
442.264	101.81
442.486	120.81
442.707	92.81
442.928	99.81
443.149	117.81
443.371	125.81
443.592	102.81
443.813	119.81
444.034	115.81
444.255	93.81
444.476	92.81
444.698	82.81
444.919	84.81
445.14	141.81
445.361	116.81
445.582	125.81
445.803	144.81
446.024	141.81
446.245	141.81
446.466	108.81
446.687	85.81
446.908	65.81
447.129	79.81
447.35	82.81
447.571	100.81
447.792	94.81
448.013	93.81
448.234	92.81
448.455	96.81
448.675	121.81
448.896	127.81
449.117	103.81
449.338	94.81
449.559	144.81
449.779	142.81
450	98.81
450.221	97.81
450.442	98.81
450.662	95.81
450.883	98.81
451.104	110.81
451.324	100.81
451.545	84.81
451.766	85.81
451.986	110.81
452.207	91.81
452.428	85.81
452.648	90.81
452.869	102.81
453.089	116.81
453.31	118.81
453.53	80.81
453.751	89.81
453.971	93.81
454.192	100.81
454.412	92.81
454.633	84.81
454.853	77.81
455.073	71.81
455.294	79.81
455.514	92.81
455.734	82.81
455.955	90.81
456.175	76.81
456.395	81.81
456.616	93.81
456.836	84.81
457.056	82.81
457.276	83.81
457.497	76.81
457.717	82.81
457.937	83.81
458.157	78.81
458.377	92.81
458.598	85.81
458.818	138.81
459.038	141.81
459.258	106.81
459.478	101.81
459.698	82.81
459.918	93.81
460.138	87.81
460.358	87.81
460.578	85.81
460.798	85.81
461.018	87.81
461.238	90.81
461.458	92.81
461.678	89.81
461.898	89.81
462.118	80.81
462.338	78.81
462.558	89.81
462.777	80.81
462.997	82.81
463.217	83.81
463.437	80.81
463.657	94.81
463.876	77.81
464.096	103.81
464.316	86.81
464.536	82.81
464.755	93.81
464.975	111.81
465.195	157.81
465.414	150.81
465.634	82.81
465.854	79.81
466.073	88.81
466.293	78.81
466.512	73.81
466.732	79.81
466.951	87.81
467.171	86.81
467.391	100.81
467.61	101.81
467.829	119.81
468.049	212.81
468.268	264.81
468.488	111.81
468.707	88.81
468.927	85.81
469.146	94.81
469.365	81.81
469.585	86.81
469.804	89.81
470.023	93.81
470.243	79.81
470.462	91.81
470.681	118.81
470.901	86.81
471.12	74.81
471.339	92.81
471.558	82.81
471.777	98.81
471.997	155.81
472.216	341.81
472.435	691.81
472.654	230.81
472.873	110.81
473.092	86.81
473.311	89.81
473.53	87.81
473.749	93.81
473.968	89.81
474.187	106.81
474.406	83.81
474.625	97.81
474.844	84.81
475.063	88.81
475.282	88.81
475.501	74.81
475.72	89.81
475.939	91.81
476.158	87.81
476.377	87.81
476.596	81.81
476.814	83.81
477.033	86.81
477.252	87.81
477.471	78.81
477.69	89.81
477.908	83.81
478.127	97.81
478.346	106.81
478.564	90.81
478.783	92.81
479.002	93.81
479.22	90.81
479.439	103.81
479.658	111.81
479.876	101.81
480.095	97.81
480.313	94.81
480.532	109.81
480.751	139.81
480.969	347.81
481.188	1211.81
481.406	745.81
481.624	167.81
481.843	100.81
482.061	91.81
482.28	88.81
482.498	90.81
482.717	85.81
482.935	86.81
483.153	80.81
483.372	84.81
483.59	88.81
483.808	86.81
484.027	96.81
484.245	103.81
484.463	86.81
484.681	98.81
484.9	99.81
485.118	94.81
485.336	87.81
485.554	101.81
485.772	88.81
485.99	87.81
486.209	111.81
486.427	99.81
486.645	104.81
486.863	115.81
487.081	97.81
487.299	96.81
487.517	101.81
487.735	84.81
487.953	101.81
488.171	103.81
488.389	87.81
488.607	85.81
488.825	88.81
489.043	90.81
489.261	83.81
489.479	67.81
489.696	84.81
489.914	80.81
490.132	88.81
490.35	98.81
490.568	94.81
490.786	77.81
491.003	85.81
491.221	83.81
491.439	74.81
491.657	85.81
491.874	81.81
492.092	68.81
492.31	92.81
492.527	87.81
492.745	97.81
492.963	83.81
493.18	74.81
493.398	101.81
493.615	96.81
493.833	102.81
494.05	88.81
494.268	99.81
494.485	77.81
494.703	90.81
494.92	102.81
495.138	84.81
495.355	92.81
495.573	82.81
495.79	96.81
496.008	89.81
496.225	82.81
496.442	85.81
496.66	91.81
496.877	97.81
497.094	98.81
497.312	86.81
497.529	85.81
497.746	86.81
497.963	83.81
498.181	98.81
498.398	89.81
498.615	113.81
498.832	103.81
499.049	97.81
499.267	78.81
499.484	97.81
499.701	93.81
499.918	93.81
500.135	101.81
500.352	78.81
500.569	85.81
500.786	82.81
501.003	87.81
501.22	94.81
501.437	87.81
501.654	86.81
501.871	100.81
502.088	92.81
502.305	100.81
502.522	84.81
502.739	95.81
502.956	98.81
503.172	86.81
503.389	88.81
503.606	115.81
503.823	81.81
504.04	79.81
504.256	83.81
504.473	87.81
504.69	87.81
504.907	83.81
505.123	81.81
505.34	82.81
505.557	84.81
505.773	78.81
505.99	83.81
506.207	74.81
506.423	93.81
506.64	74.81
506.856	104.81
507.073	95.81
507.289	103.81
507.506	83.81
507.722	91.81
507.939	102.81
508.155	89.81
508.372	86.81
508.588	89.81
508.805	88.81
509.021	94.81
509.238	98.81
509.454	97.81
509.67	95.81
509.887	105.81
510.103	118.81
510.319	174.81
510.536	551.81
510.752	1782.81
510.968	535.81
511.184	121.81
511.401	104.81
511.617	92.81
511.833	87.81
512.049	84.81
512.265	96.81
512.481	99.81
512.698	85.81
512.914	81.81
513.13	85.81
513.346	104.81
513.562	80.81
513.778	82.81
513.994	97.81
514.21	98.81
514.426	106.81
514.642	129.81
514.858	120.81
515.074	144.81
515.29	378.81
515.506	1227.81
515.721	467.81
515.937	142.81
516.153	115.81
516.369	96.81
