Data from Circ_2010_H10_HRD10591_00069.txt Node
Date: Wed Jan 03 10:09:55 EST 2024
User: Yrep
Spectrometer: HR+D1059
Trigger mode: 1
Integration Time (sec): 1.000000E-1
Scans to average: 1
Electric dark correction enabled: true
Nonlinearity correction enabled: false
Boxcar width: 0
XAxis mode: Wavelengths
Number of Pixels in Spectrum: 2048
>>>>>Begin Spectral Data<<<<<
223.165	-19.62
223.4	-19.62
223.635	-19.62
223.869	-1.62
224.104	-24.62
224.338	-4.62
224.573	-4.62
224.808	-19.62
225.042	1.38
225.277	-10.62
225.511	-2.62
225.746	8.38
225.98	-0.62
226.215	-6.62
226.449	4.38
226.683	5.38
226.918	35.38
227.152	40.38
227.387	49.38
227.621	34.38
227.856	46.38
228.09	41.38
228.324	47.38
228.559	80.38
228.793	48.38
229.027	58.38
229.262	76.38
229.496	69.38
229.73	81.38
229.964	99.38
230.199	75.38
230.433	88.38
230.667	73.38
230.901	85.38
231.136	77.38
231.37	89.38
231.604	80.38
231.838	79.38
232.072	90.38
232.306	77.38
232.541	60.38
232.775	75.38
233.009	73.38
233.243	89.38
233.477	77.38
233.711	73.38
233.945	94.38
234.179	79.38
234.413	82.38
234.647	90.38
234.881	85.38
235.115	80.38
235.349	75.38
235.583	65.38
235.817	86.38
236.051	61.38
236.285	64.38
236.519	84.38
236.753	73.38
236.987	71.38
237.221	81.38
237.455	80.38
237.689	86.38
237.922	73.38
238.156	88.38
238.39	62.38
238.624	76.38
238.858	67.38
239.091	77.38
239.325	93.38
239.559	85.38
239.793	87.38
240.027	87.38
240.26	86.38
240.494	81.38
240.728	81.38
240.961	75.38
241.195	69.38
241.429	67.38
241.662	80.38
241.896	75.38
242.13	70.38
242.363	83.38
242.597	75.38
242.83	85.38
243.064	78.38
243.298	83.38
243.531	69.38
243.765	73.38
243.998	85.38
244.232	82.38
244.465	87.38
244.699	81.38
244.932	79.38
245.166	101.38
245.399	78.38
245.633	84.38
245.866	69.38
246.099	83.38
246.333	83.38
246.566	71.38
246.8	87.38
247.033	66.38
247.266	84.38
247.5	73.38
247.733	78.38
247.966	65.38
248.2	77.38
248.433	82.38
248.666	81.38
248.899	92.38
249.133	87.38
249.366	121.38
249.599	107.38
249.832	68.38
250.066	96.38
250.299	94.38
250.532	95.38
250.765	79.38
250.998	94.38
251.231	89.38
251.465	92.38
251.698	86.38
251.931	85.38
252.164	79.38
252.397	81.38
252.63	72.38
252.863	89.38
253.096	82.38
253.329	89.38
253.562	89.38
253.795	74.38
254.028	74.38
254.261	77.38
254.494	82.38
254.727	90.38
254.96	90.38
255.193	83.38
255.426	90.38
255.659	92.38
255.892	89.38
256.124	88.38
256.357	93.38
256.59	98.38
256.823	89.38
257.056	81.38
257.289	81.38
257.521	85.38
257.754	85.38
257.987	74.38
258.22	77.38
258.452	80.38
258.685	99.38
258.918	100.38
259.151	82.38
259.383	82.38
259.616	86.38
259.849	89.38
260.081	95.38
260.314	93.38
260.547	77.38
260.779	83.38
261.012	89.38
261.244	88.38
261.477	98.38
261.71	86.38
261.942	105.38
262.175	107.38
262.407	88.38
262.64	91.38
262.872	93.38
263.105	87.38
263.337	87.38
263.57	76.38
263.802	80.38
264.035	84.38
264.267	72.38
264.499	81.38
264.732	80.38
264.964	72.38
265.197	76.38
265.429	88.38
265.661	66.38
265.894	83.38
266.126	86.38
266.358	82.38
266.591	93.38
266.823	79.38
267.055	84.38
267.287	87.38
267.52	95.38
267.752	92.38
267.984	94.38
268.216	94.38
268.448	101.38
268.681	96.38
268.913	85.38
269.145	88.38
269.377	79.38
269.609	86.38
269.841	81.38
270.073	96.38
270.306	80.38
270.538	78.38
270.77	88.38
271.002	102.38
271.234	97.38
271.466	88.38
271.698	96.38
271.93	91.38
272.162	78.38
272.394	91.38
272.626	73.38
272.858	85.38
273.09	78.38
273.322	102.38
273.553	85.38
273.785	82.38
274.017	87.38
274.249	89.38
274.481	97.38
274.713	86.38
274.945	91.38
275.176	88.38
275.408	82.38
275.64	92.38
275.872	83.38
276.104	95.38
276.335	106.38
276.567	90.38
276.799	123.38
277.031	93.38
277.262	99.38
277.494	96.38
277.726	80.38
277.957	83.38
278.189	78.38
278.421	64.38
278.652	91.38
278.884	89.38
279.115	94.38
279.347	79.38
279.579	97.38
279.81	95.38
280.042	106.38
280.273	121.38
280.505	112.38
280.736	79.38
280.968	87.38
281.199	88.38
281.431	85.38
281.662	96.38
281.894	97.38
282.125	86.38
282.356	109.38
282.588	118.38
282.819	105.38
283.051	88.38
283.282	95.38
283.513	79.38
283.745	89.38
283.976	92.38
284.207	90.38
284.439	97.38
284.67	73.38
284.901	78.38
285.132	91.38
285.364	85.38
285.595	88.38
285.826	94.38
286.057	88.38
286.288	90.38
286.52	88.38
286.751	93.38
286.982	83.38
287.213	86.38
287.444	82.38
287.675	71.38
287.906	86.38
288.138	96.38
288.369	79.38
288.6	85.38
288.831	97.38
289.062	83.38
289.293	80.38
289.524	91.38
289.755	80.38
289.986	73.38
290.217	87.38
290.448	90.38
290.679	82.38
290.91	87.38
291.141	94.38
291.371	86.38
291.602	89.38
291.833	92.38
292.064	70.38
292.295	82.38
292.526	86.38
292.757	98.38
292.987	99.38
293.218	83.38
293.449	75.38
293.68	103.38
293.91	89.38
294.141	93.38
294.372	89.38
294.603	94.38
294.833	85.38
295.064	87.38
295.295	81.38
295.525	82.38
295.756	95.38
295.987	115.38
296.217	128.38
296.448	113.38
296.679	89.38
296.909	98.38
297.14	83.38
297.37	80.38
297.601	97.38
297.831	101.38
298.062	94.38
298.292	95.38
298.523	105.38
298.753	86.38
298.984	103.38
299.214	93.38
299.445	92.38
299.675	73.38
299.905	110.38
300.136	87.38
300.366	80.38
300.597	87.38
300.827	92.38
301.057	95.38
301.288	101.38
301.518	99.38
301.748	96.38
301.979	70.38
302.209	91.38
302.439	78.38
302.669	86.38
302.9	92.38
303.13	92.38
303.36	96.38
303.59	109.38
303.82	112.38
304.051	98.38
304.281	92.38
304.511	92.38
304.741	85.38
304.971	79.38
305.201	89.38
305.431	84.38
305.661	89.38
305.891	94.38
306.121	101.38
306.352	103.38
306.582	111.38
306.812	108.38
307.042	106.38
307.272	119.38
307.502	99.38
307.731	102.38
307.961	90.38
308.191	90.38
308.421	92.38
308.651	95.38
308.881	85.38
309.111	95.38
309.341	102.38
309.571	101.38
309.8	85.38
310.03	82.38
310.26	104.38
310.49	107.38
310.72	99.38
310.949	111.38
311.179	114.38
311.409	97.38
311.639	102.38
311.868	87.38
312.098	87.38
312.328	88.38
312.557	112.38
312.787	99.38
313.017	108.38
313.246	93.38
313.476	83.38
313.706	97.38
313.935	90.38
314.165	94.38
314.394	98.38
314.624	91.38
314.853	96.38
315.083	104.38
315.312	83.38
315.542	101.38
315.771	88.38
316.001	95.38
316.23	88.38
316.46	78.38
316.689	97.38
316.919	94.38
317.148	97.38
317.377	104.38
317.607	108.38
317.836	106.38
318.065	94.38
318.295	94.38
318.524	93.38
318.753	104.38
318.983	85.38
319.212	105.38
319.441	98.38
319.67	116.38
319.9	105.38
320.129	95.38
320.358	99.38
320.587	100.38
320.816	96.38
321.046	91.38
321.275	105.38
321.504	90.38
321.733	102.38
321.962	101.38
322.191	98.38
322.42	104.38
322.649	109.38
322.878	102.38
323.108	90.38
323.337	122.38
323.566	148.38
323.795	147.38
324.024	204.38
324.253	395.38
324.482	821.38
324.71	1681.38
324.939	2226.38
325.168	833.38
325.397	241.38
325.626	157.38
325.855	131.38
326.084	133.38
326.313	140.38
326.542	163.38
326.77	233.38
326.999	457.38
327.228	970.38
327.457	1709.38
327.686	1344.38
327.914	391.38
328.143	235.38
328.372	245.38
328.6	171.38
328.829	148.38
329.058	141.38
329.287	153.38
329.515	124.38
329.744	130.38
329.972	181.38
330.201	292.38
330.43	409.38
330.658	239.38
330.887	159.38
331.115	139.38
331.344	95.38
331.572	99.38
331.801	113.38
332.03	121.38
332.258	104.38
332.486	106.38
332.715	111.38
332.943	84.38
333.172	106.38
333.4	112.38
333.629	115.38
333.857	141.38
334.085	194.38
334.314	303.38
334.542	529.38
334.771	487.38
334.999	178.38
335.227	111.38
335.455	107.38
335.684	91.38
335.912	103.38
336.14	99.38
336.369	97.38
336.597	106.38
336.825	102.38
337.053	92.38
337.281	87.38
337.51	89.38
337.738	83.38
337.966	107.38
338.194	107.38
338.422	106.38
338.65	115.38
338.878	112.38
339.106	96.38
339.334	82.38
339.562	96.38
339.79	85.38
340.018	92.38
340.246	99.38
340.474	101.38
340.702	91.38
340.93	102.38
341.158	106.38
341.386	88.38
341.614	100.38
341.842	90.38
342.07	89.38
342.298	97.38
342.526	81.38
342.754	94.38
342.981	82.38
343.209	91.38
343.437	107.38
343.665	96.38
343.893	100.38
344.12	99.38
344.348	92.38
344.576	89.38
344.804	98.38
345.031	97.38
345.259	109.38
345.487	89.38
345.714	101.38
345.942	91.38
346.17	98.38
346.397	115.38
346.625	96.38
346.853	84.38
347.08	83.38
347.308	94.38
347.535	84.38
347.763	93.38
347.99	96.38
348.218	110.38
348.445	115.38
348.673	109.38
348.9	101.38
349.128	88.38
349.355	95.38
349.583	107.38
349.81	113.38
350.037	104.38
350.265	93.38
350.492	104.38
350.72	101.38
350.947	113.38
351.174	102.38
351.402	110.38
351.629	92.38
351.856	110.38
352.083	105.38
352.311	105.38
352.538	113.38
352.765	126.38
352.992	112.38
353.22	108.38
353.447	89.38
353.674	97.38
353.901	93.38
354.128	82.38
354.355	86.38
354.583	108.38
354.81	97.38
355.037	95.38
355.264	91.38
355.491	93.38
355.718	109.38
355.945	98.38
356.172	105.38
356.399	103.38
356.626	102.38
356.853	84.38
357.08	95.38
357.307	90.38
357.534	89.38
357.761	107.38
357.988	102.38
358.215	96.38
358.441	87.38
358.668	98.38
358.895	101.38
359.122	91.38
359.349	85.38
359.576	93.38
359.802	108.38
360.029	120.38
360.256	117.38
360.483	104.38
360.709	88.38
360.936	101.38
361.163	87.38
361.39	106.38
361.616	99.38
361.843	94.38
362.07	92.38
362.296	97.38
362.523	99.38
362.749	95.38
362.976	90.38
363.203	81.38
363.429	81.38
363.656	99.38
363.882	98.38
364.109	101.38
364.335	96.38
364.562	82.38
364.788	99.38
365.015	94.38
365.241	88.38
365.468	101.38
365.694	106.38
365.92	95.38
366.147	96.38
366.373	88.38
366.599	101.38
366.826	100.38
367.052	97.38
367.278	90.38
367.505	101.38
367.731	102.38
367.957	93.38
368.184	104.38
368.41	98.38
368.636	104.38
368.862	115.38
369.089	112.38
369.315	101.38
369.541	110.38
369.767	97.38
369.993	101.38
370.219	100.38
370.445	94.38
370.672	83.38
370.898	75.38
371.124	90.38
371.35	93.38
371.576	94.38
371.802	88.38
372.028	88.38
372.254	97.38
372.48	86.38
372.706	82.38
372.932	86.38
373.158	97.38
373.384	94.38
373.61	89.38
373.835	108.38
374.061	86.38
374.287	95.38
374.513	75.38
374.739	89.38
374.965	78.38
375.191	91.38
375.416	98.38
375.642	87.38
375.868	106.38
376.094	93.38
376.319	103.38
376.545	99.38
376.771	97.38
376.997	97.38
377.222	82.38
377.448	89.38
377.674	88.38
377.899	92.38
378.125	102.38
378.35	91.38
378.576	92.38
378.802	98.38
379.027	91.38
379.253	96.38
379.478	93.38
379.704	89.38
379.929	89.38
380.155	97.38
380.38	99.38
380.606	77.38
380.831	82.38
381.057	80.38
381.282	90.38
381.507	95.38
381.733	102.38
381.958	97.38
382.184	90.38
382.409	98.38
382.634	97.38
382.86	90.38
383.085	101.38
383.31	95.38
383.535	105.38
383.761	105.38
383.986	87.38
384.211	93.38
384.436	98.38
384.662	88.38
384.887	93.38
385.112	102.38
385.337	108.38
385.562	113.38
385.787	106.38
386.013	118.38
386.238	111.38
386.463	107.38
386.688	108.38
386.913	90.38
387.138	97.38
387.363	95.38
387.588	98.38
387.813	102.38
388.038	102.38
388.263	102.38
388.488	96.38
388.713	105.38
388.938	86.38
389.163	109.38
389.387	102.38
389.612	110.38
389.837	105.38
390.062	89.38
390.287	93.38
390.512	93.38
390.736	93.38
390.961	90.38
391.186	97.38
391.411	83.38
391.636	84.38
391.86	96.38
392.085	93.38
392.31	90.38
392.534	102.38
392.759	89.38
392.984	78.38
393.208	115.38
393.433	106.38
393.658	106.38
393.882	82.38
394.107	82.38
394.331	103.38
394.556	85.38
394.78	78.38
395.005	75.38
395.229	88.38
395.454	96.38
395.678	83.38
395.903	89.38
396.127	101.38
396.352	93.38
396.576	89.38
396.801	99.38
397.025	85.38
397.249	91.38
397.474	87.38
397.698	92.38
397.922	89.38
398.147	95.38
398.371	87.38
398.595	112.38
398.82	105.38
399.044	96.38
399.268	88.38
399.492	78.38
399.717	90.38
399.941	100.38
400.165	82.38
400.389	86.38
400.613	77.38
400.837	92.38
401.062	87.38
401.286	94.38
401.51	90.38
401.734	75.38
401.958	112.38
402.182	125.38
402.406	149.38
402.63	114.38
402.854	95.38
403.078	83.38
403.302	92.38
403.526	102.38
403.75	101.38
403.974	96.38
404.198	88.38
404.422	89.38
404.645	90.38
404.869	95.38
405.093	119.38
405.317	113.38
405.541	112.38
405.765	90.38
405.988	94.38
406.212	153.38
406.436	219.38
406.66	144.38
406.883	96.38
407.107	103.38
407.331	98.38
407.555	114.38
407.778	94.38
408.002	95.38
408.226	96.38
408.449	85.38
408.673	97.38
408.896	101.38
409.12	105.38
409.344	92.38
409.567	88.38
409.791	95.38
410.014	86.38
410.238	93.38
410.461	82.38
410.685	95.38
410.908	97.38
411.132	103.38
411.355	105.38
411.578	104.38
411.802	80.38
412.025	89.38
412.249	90.38
412.472	91.38
412.695	103.38
412.919	108.38
413.142	99.38
413.365	100.38
413.589	91.38
413.812	78.38
414.035	105.38
414.258	101.38
414.482	100.38
414.705	86.38
414.928	92.38
415.151	93.38
415.374	88.38
415.597	90.38
415.821	75.38
416.044	91.38
416.267	89.38
416.49	103.38
416.713	102.38
416.936	85.38
417.159	88.38
417.382	93.38
417.605	110.38
417.828	96.38
418.051	99.38
418.274	102.38
418.497	93.38
418.72	97.38
418.943	98.38
419.166	85.38
419.389	92.38
419.611	87.38
419.834	88.38
420.057	88.38
420.28	76.38
420.503	94.38
420.726	82.38
420.948	93.38
421.171	79.38
421.394	91.38
421.617	89.38
421.839	89.38
422.062	99.38
422.285	96.38
422.507	89.38
422.73	105.38
422.953	84.38
423.175	89.38
423.398	88.38
423.621	88.38
423.843	105.38
424.066	73.38
424.288	81.38
424.511	87.38
424.733	105.38
424.956	96.38
425.178	114.38
425.401	116.38
425.623	103.38
425.846	86.38
426.068	93.38
426.291	96.38
426.513	111.38
426.735	94.38
426.958	81.38
427.18	98.38
427.402	147.38
427.625	197.38
427.847	168.38
428.069	155.38
428.292	106.38
428.514	87.38
428.736	87.38
428.958	91.38
429.181	82.38
429.403	97.38
429.625	85.38
429.847	62.38
430.069	102.38
430.292	97.38
430.514	101.38
430.736	88.38
430.958	88.38
431.18	95.38
431.402	87.38
431.624	79.38
431.846	94.38
432.068	93.38
432.29	85.38
432.512	90.38
432.734	91.38
432.956	102.38
433.178	98.38
433.4	111.38
433.622	100.38
433.844	85.38
434.066	86.38
434.287	87.38
434.509	84.38
434.731	80.38
434.953	84.38
435.175	84.38
435.397	76.38
435.618	93.38
435.84	118.38
436.062	132.38
436.284	115.38
436.505	111.38
436.727	97.38
436.949	97.38
437.17	75.38
437.392	84.38
437.614	101.38
437.835	107.38
438.057	110.38
438.278	113.38
438.5	101.38
438.721	118.38
438.943	98.38
439.165	87.38
439.386	104.38
439.608	85.38
439.829	98.38
440.05	131.38
440.272	153.38
440.493	109.38
440.715	98.38
440.936	85.38
441.158	95.38
441.379	89.38
441.6	84.38
441.822	89.38
442.043	100.38
442.264	131.38
442.486	107.38
442.707	92.38
442.928	106.38
443.149	131.38
443.371	135.38
443.592	120.38
443.813	126.38
444.034	111.38
444.255	96.38
444.476	88.38
444.698	88.38
444.919	86.38
445.14	140.38
445.361	143.38
445.582	125.38
445.803	144.38
446.024	127.38
446.245	145.38
446.466	117.38
446.687	84.38
446.908	91.38
447.129	101.38
447.35	90.38
447.571	87.38
447.792	94.38
448.013	98.38
448.234	99.38
448.455	106.38
448.675	102.38
448.896	96.38
449.117	105.38
449.338	105.38
449.559	131.38
449.779	131.38
450	106.38
450.221	100.38
450.442	91.38
450.662	96.38
450.883	109.38
451.104	110.38
451.324	98.38
451.545	80.38
451.766	94.38
451.986	94.38
452.207	101.38
452.428	102.38
452.648	98.38
452.869	111.38
453.089	120.38
453.31	111.38
453.53	98.38
453.751	94.38
453.971	115.38
454.192	102.38
454.412	86.38
454.633	102.38
454.853	94.38
455.073	92.38
455.294	87.38
455.514	100.38
455.734	87.38
455.955	98.38
456.175	94.38
456.395	95.38
456.616	81.38
456.836	104.38
457.056	85.38
457.276	95.38
457.497	82.38
457.717	91.38
457.937	75.38
458.157	91.38
458.377	103.38
458.598	107.38
458.818	166.38
459.038	182.38
459.258	107.38
459.478	88.38
459.698	78.38
459.918	81.38
460.138	87.38
460.358	87.38
460.578	90.38
460.798	91.38
461.018	93.38
461.238	90.38
461.458	92.38
461.678	81.38
461.898	89.38
462.118	98.38
462.338	81.38
462.558	95.38
462.777	83.38
462.997	98.38
463.217	93.38
463.437	93.38
463.657	96.38
463.876	95.38
464.096	78.38
464.316	83.38
464.536	93.38
464.755	104.38
464.975	107.38
465.195	172.38
465.414	161.38
465.634	107.38
465.854	91.38
466.073	97.38
466.293	90.38
466.512	81.38
466.732	90.38
466.951	97.38
467.171	94.38
467.391	99.38
467.61	109.38
467.829	115.38
468.049	186.38
468.268	245.38
468.488	117.38
468.707	85.38
468.927	95.38
469.146	90.38
469.365	93.38
469.585	92.38
469.804	112.38
470.023	104.38
470.243	93.38
470.462	103.38
470.681	122.38
470.901	100.38
471.12	95.38
471.339	102.38
471.558	104.38
471.777	101.38
471.997	136.38
472.216	336.38
472.435	671.38
472.654	211.38
472.873	95.38
473.092	78.38
473.311	90.38
473.53	104.38
473.749	90.38
473.968	94.38
474.187	98.38
474.406	93.38
474.625	82.38
474.844	95.38
475.063	96.38
475.282	85.38
475.501	91.38
475.72	90.38
475.939	84.38
476.158	97.38
476.377	86.38
476.596	94.38
476.814	101.38
477.033	98.38
477.252	87.38
477.471	87.38
477.69	86.38
477.908	87.38
478.127	83.38
478.346	93.38
478.564	85.38
478.783	89.38
479.002	95.38
479.22	95.38
479.439	114.38
479.658	115.38
479.876	96.38
480.095	92.38
480.313	83.38
480.532	94.38
480.751	135.38
480.969	331.38
481.188	1090.38
481.406	700.38
481.624	168.38
481.843	108.38
482.061	90.38
482.28	96.38
482.498	83.38
482.717	83.38
482.935	102.38
483.153	90.38
483.372	84.38
483.59	93.38
483.808	95.38
484.027	83.38
484.245	95.38
484.463	92.38
484.681	105.38
484.9	95.38
485.118	102.38
485.336	92.38
485.554	95.38
485.772	95.38
485.99	101.38
486.209	100.38
486.427	98.38
486.645	120.38
486.863	110.38
487.081	95.38
487.299	94.38
487.517	103.38
487.735	90.38
487.953	94.38
488.171	87.38
488.389	95.38
488.607	103.38
488.825	107.38
489.043	95.38
489.261	95.38
489.479	102.38
489.696	105.38
489.914	90.38
490.132	99.38
490.35	95.38
490.568	88.38
490.786	80.38
491.003	94.38
491.221	82.38
491.439	106.38
491.657	104.38
491.874	99.38
492.092	99.38
492.31	104.38
492.527	92.38
492.745	89.38
492.963	91.38
493.18	98.38
493.398	96.38
493.615	97.38
493.833	77.38
494.05	93.38
494.268	89.38
494.485	94.38
494.703	92.38
494.92	93.38
495.138	92.38
495.355	98.38
495.573	101.38
495.79	93.38
496.008	71.38
496.225	97.38
496.442	97.38
496.66	100.38
496.877	89.38
497.094	93.38
497.312	92.38
497.529	95.38
497.746	113.38
497.963	91.38
498.181	106.38
498.398	78.38
498.615	101.38
498.832	88.38
499.049	102.38
499.267	109.38
499.484	83.38
499.701	93.38
499.918	80.38
500.135	94.38
500.352	88.38
500.569	99.38
500.786	97.38
501.003	91.38
501.22	90.38
501.437	94.38
501.654	86.38
501.871	96.38
502.088	87.38
502.305	83.38
502.522	83.38
502.739	69.38
502.956	99.38
503.172	82.38
503.389	93.38
503.606	109.38
503.823	98.38
504.04	103.38
504.256	97.38
504.473	83.38
504.69	101.38
504.907	93.38
505.123	88.38
505.34	103.38
505.557	96.38
505.773	94.38
505.99	87.38
506.207	98.38
506.423	103.38
506.64	88.38
506.856	89.38
507.073	99.38
507.289	86.38
507.506	96.38
507.722	109.38
507.939	123.38
508.155	98.38
508.372	92.38
508.588	95.38
508.805	106.38
509.021	104.38
509.238	111.38
509.454	114.38
509.67	98.38
509.887	112.38
510.103	121.38
510.319	193.38
510.536	629.38
510.752	2014.38
510.968	598.38
511.184	142.38
511.401	110.38
511.617	109.38
511.833	101.38
512.049	91.38
512.265	107.38
512.481	91.38
512.698	92.38
512.914	96.38
513.13	90.38
513.346	101.38
513.562	91.38
513.778	98.38
513.994	96.38
514.21	115.38
514.426	112.38
514.642	134.38
