Data from Circ_2010_H10_HRD10591_00054.txt Node
Date: Wed Jan 03 10:09:52 EST 2024
User: Yrep
Spectrometer: HR+D1059
Trigger mode: 1
Integration Time (sec): 1.000000E-1
Scans to average: 1
Electric dark correction enabled: true
Nonlinearity correction enabled: false
Boxcar width: 0
XAxis mode: Wavelengths
Number of Pixels in Spectrum: 2048
>>>>>Begin Spectral Data<<<<<
223.165	-21.25
223.4	-21.25
223.635	-21.25
223.869	-16.25
224.104	-8.25
224.338	-21.25
224.573	-17.25
224.808	-20.25
225.042	-3.25
225.277	-9.25
225.511	-9.25
225.746	11.75
225.98	-3.25
226.215	7.75
226.449	23.75
226.683	33.75
226.918	21.75
227.152	30.75
227.387	34.75
227.621	34.75
227.856	46.75
228.09	51.75
228.324	50.75
228.559	30.75
228.793	51.75
229.027	46.75
229.262	58.75
229.496	60.75
229.73	87.75
229.964	88.75
230.199	66.75
230.433	68.75
230.667	77.75
230.901	57.75
231.136	84.75
231.37	70.75
231.604	87.75
231.838	67.75
232.072	70.75
232.306	90.75
232.541	72.75
232.775	87.75
233.009	75.75
233.243	84.75
233.477	84.75
233.711	91.75
233.945	81.75
234.179	75.75
234.413	74.75
234.647	84.75
234.881	71.75
235.115	79.75
235.349	93.75
235.583	75.75
235.817	79.75
236.051	85.75
236.285	75.75
236.519	73.75
236.753	83.75
236.987	73.75
237.221	85.75
237.455	70.75
237.689	79.75
237.922	69.75
238.156	72.75
238.39	67.75
238.624	68.75
238.858	74.75
239.091	72.75
239.325	68.75
239.559	66.75
239.793	83.75
240.027	81.75
240.26	74.75
240.494	71.75
240.728	98.75
240.961	71.75
241.195	78.75
241.429	76.75
241.662	67.75
241.896	64.75
242.13	86.75
242.363	82.75
242.597	73.75
242.83	70.75
243.064	60.75
243.298	75.75
243.531	85.75
243.765	92.75
243.998	90.75
244.232	82.75
244.465	73.75
244.699	86.75
244.932	63.75
245.166	72.75
245.399	70.75
245.633	77.75
245.866	66.75
246.099	82.75
246.333	66.75
246.566	80.75
246.8	75.75
247.033	78.75
247.266	78.75
247.5	83.75
247.733	84.75
247.966	84.75
248.2	72.75
248.433	78.75
248.666	85.75
248.899	74.75
249.133	70.75
249.366	85.75
249.599	90.75
249.832	77.75
250.066	77.75
250.299	86.75
250.532	87.75
250.765	88.75
250.998	73.75
251.231	74.75
251.465	68.75
251.698	86.75
251.931	78.75
252.164	89.75
252.397	66.75
252.63	89.75
252.863	84.75
253.096	81.75
253.329	76.75
253.562	87.75
253.795	81.75
254.028	84.75
254.261	79.75
254.494	78.75
254.727	84.75
254.96	74.75
255.193	76.75
255.426	70.75
255.659	84.75
255.892	83.75
256.124	78.75
256.357	99.75
256.59	79.75
256.823	74.75
257.056	72.75
257.289	72.75
257.521	87.75
257.754	95.75
257.987	77.75
258.22	80.75
258.452	83.75
258.685	86.75
258.918	82.75
259.151	82.75
259.383	83.75
259.616	75.75
259.849	85.75
260.081	62.75
260.314	87.75
260.547	73.75
260.779	80.75
261.012	79.75
261.244	79.75
261.477	82.75
261.71	85.75
261.942	79.75
262.175	93.75
262.407	76.75
262.64	82.75
262.872	88.75
263.105	78.75
263.337	86.75
263.57	79.75
263.802	89.75
264.035	71.75
264.267	67.75
264.499	88.75
264.732	83.75
264.964	92.75
265.197	78.75
265.429	74.75
265.661	86.75
265.894	94.75
266.126	83.75
266.358	87.75
266.591	75.75
266.823	80.75
267.055	84.75
267.287	83.75
267.52	88.75
267.752	86.75
267.984	85.75
268.216	84.75
268.448	78.75
268.681	79.75
268.913	90.75
269.145	69.75
269.377	78.75
269.609	90.75
269.841	79.75
270.073	77.75
270.306	88.75
270.538	77.75
270.77	70.75
271.002	74.75
271.234	86.75
271.466	87.75
271.698	78.75
271.93	67.75
272.162	79.75
272.394	77.75
272.626	79.75
272.858	102.75
273.09	74.75
273.322	78.75
273.553	83.75
273.785	82.75
274.017	78.75
274.249	89.75
274.481	84.75
274.713	79.75
274.945	58.75
275.176	85.75
275.408	73.75
275.64	83.75
275.872	95.75
276.104	74.75
276.335	85.75
276.567	90.75
276.799	92.75
277.031	90.75
277.262	91.75
277.494	102.75
277.726	88.75
277.957	77.75
278.189	70.75
278.421	95.75
278.652	68.75
278.884	66.75
279.115	73.75
279.347	71.75
279.579	83.75
279.81	84.75
280.042	90.75
280.273	111.75
280.505	93.75
280.736	89.75
280.968	89.75
281.199	72.75
281.431	90.75
281.662	78.75
281.894	87.75
282.125	104.75
282.356	101.75
282.588	123.75
282.819	95.75
283.051	95.75
283.282	89.75
283.513	82.75
283.745	75.75
283.976	87.75
284.207	80.75
284.439	75.75
284.67	98.75
284.901	86.75
285.132	87.75
285.364	80.75
285.595	90.75
285.826	85.75
286.057	87.75
286.288	79.75
286.52	85.75
286.751	77.75
286.982	95.75
287.213	93.75
287.444	81.75
287.675	89.75
287.906	92.75
288.138	82.75
288.369	89.75
288.6	84.75
288.831	83.75
289.062	79.75
289.293	82.75
289.524	91.75
289.755	92.75
289.986	83.75
290.217	91.75
290.448	103.75
290.679	91.75
290.91	92.75
291.141	88.75
291.371	94.75
291.602	86.75
291.833	103.75
292.064	85.75
292.295	90.75
292.526	86.75
292.757	86.75
292.987	77.75
293.218	63.75
293.449	79.75
293.68	69.75
293.91	79.75
294.141	85.75
294.372	79.75
294.603	83.75
294.833	92.75
295.064	88.75
295.295	80.75
295.525	103.75
295.756	94.75
295.987	105.75
296.217	128.75
296.448	101.75
296.679	79.75
296.909	90.75
297.14	84.75
297.37	92.75
297.601	99.75
297.831	77.75
298.062	78.75
298.292	72.75
298.523	88.75
298.753	90.75
298.984	93.75
299.214	86.75
299.445	90.75
299.675	88.75
299.905	96.75
300.136	84.75
300.366	95.75
300.597	63.75
300.827	95.75
301.057	87.75
301.288	89.75
301.518	93.75
301.748	70.75
301.979	94.75
302.209	92.75
302.439	91.75
302.669	90.75
302.9	88.75
303.13	78.75
303.36	94.75
303.59	95.75
303.82	98.75
304.051	91.75
304.281	87.75
304.511	95.75
304.741	93.75
304.971	104.75
305.201	83.75
305.431	83.75
305.661	77.75
305.891	77.75
306.121	76.75
306.352	92.75
306.582	101.75
306.812	102.75
307.042	100.75
307.272	100.75
307.502	96.75
307.731	107.75
307.961	96.75
308.191	98.75
308.421	78.75
308.651	95.75
308.881	107.75
309.111	94.75
309.341	94.75
309.571	90.75
309.8	96.75
310.03	86.75
310.26	80.75
310.49	91.75
310.72	98.75
310.949	103.75
311.179	93.75
311.409	85.75
311.639	95.75
311.868	101.75
312.098	104.75
312.328	86.75
312.557	90.75
312.787	109.75
313.017	101.75
313.246	80.75
313.476	94.75
313.706	85.75
313.935	89.75
314.165	79.75
314.394	93.75
314.624	94.75
314.853	100.75
315.083	86.75
315.312	105.75
315.542	73.75
315.771	103.75
316.001	100.75
316.23	82.75
316.46	92.75
316.689	95.75
316.919	90.75
317.148	116.75
317.377	97.75
317.607	101.75
317.836	91.75
318.065	94.75
318.295	72.75
318.524	82.75
318.753	91.75
318.983	100.75
319.212	83.75
319.441	109.75
319.67	109.75
319.9	80.75
320.129	100.75
320.358	98.75
320.587	83.75
320.816	111.75
321.046	88.75
321.275	81.75
321.504	95.75
321.733	99.75
321.962	103.75
322.191	85.75
322.42	91.75
322.649	102.75
322.878	115.75
323.108	106.75
323.337	115.75
323.566	125.75
323.795	144.75
324.024	164.75
324.253	318.75
324.482	644.75
324.71	1278.75
324.939	1678.75
325.168	643.75
325.397	196.75
325.626	146.75
325.855	117.75
326.084	116.75
326.313	109.75
326.542	124.75
326.77	200.75
326.999	378.75
327.228	746.75
327.457	1354.75
327.686	1054.75
327.914	320.75
328.143	178.75
328.372	172.75
328.6	139.75
328.829	108.75
329.058	126.75
329.287	116.75
329.515	111.75
329.744	128.75
329.972	133.75
330.201	180.75
330.43	230.75
330.658	167.75
330.887	115.75
331.115	116.75
331.344	90.75
331.572	95.75
331.801	94.75
332.03	94.75
332.258	92.75
332.486	80.75
332.715	91.75
332.943	87.75
333.172	118.75
333.4	100.75
333.629	116.75
333.857	105.75
334.085	131.75
334.314	183.75
334.542	262.75
334.771	254.75
334.999	115.75
335.227	87.75
335.455	99.75
335.684	92.75
335.912	99.75
336.14	88.75
336.369	87.75
336.597	93.75
336.825	100.75
337.053	101.75
337.281	88.75
337.51	85.75
337.738	68.75
337.966	87.75
338.194	89.75
338.422	84.75
338.65	93.75
338.878	92.75
339.106	81.75
339.334	91.75
339.562	101.75
339.79	87.75
340.018	92.75
340.246	99.75
340.474	93.75
340.702	92.75
340.93	86.75
341.158	86.75
341.386	75.75
341.614	90.75
341.842	95.75
342.07	99.75
342.298	96.75
342.526	98.75
342.754	71.75
342.981	91.75
343.209	94.75
343.437	110.75
343.665	98.75
343.893	86.75
344.12	87.75
344.348	89.75
344.576	71.75
344.804	109.75
345.031	94.75
345.259	86.75
345.487	92.75
345.714	86.75
345.942	83.75
346.17	94.75
346.397	87.75
346.625	111.75
346.853	101.75
347.08	84.75
347.308	94.75
347.535	83.75
347.763	81.75
347.99	70.75
348.218	111.75
348.445	87.75
348.673	84.75
348.9	92.75
349.128	77.75
349.355	86.75
349.583	89.75
349.81	107.75
350.037	91.75
350.265	92.75
350.492	82.75
350.72	101.75
350.947	90.75
351.174	102.75
351.402	103.75
351.629	94.75
351.856	97.75
352.083	91.75
352.311	95.75
352.538	114.75
352.765	102.75
352.992	112.75
353.22	95.75
353.447	100.75
353.674	94.75
353.901	91.75
354.128	96.75
354.355	104.75
354.583	91.75
354.81	112.75
355.037	101.75
355.264	93.75
355.491	109.75
355.718	90.75
355.945	85.75
356.172	93.75
356.399	107.75
356.626	99.75
356.853	99.75
357.08	93.75
357.307	86.75
357.534	83.75
357.761	95.75
357.988	91.75
358.215	97.75
358.441	94.75
358.668	95.75
358.895	91.75
359.122	84.75
359.349	77.75
359.576	88.75
359.802	105.75
360.029	112.75
360.256	90.75
360.483	108.75
360.709	89.75
360.936	84.75
361.163	93.75
361.39	86.75
361.616	86.75
361.843	100.75
362.07	100.75
362.296	100.75
362.523	89.75
362.749	97.75
362.976	94.75
363.203	78.75
363.429	99.75
363.656	68.75
363.882	75.75
364.109	89.75
364.335	101.75
364.562	89.75
364.788	84.75
365.015	98.75
365.241	96.75
365.468	109.75
365.694	101.75
365.92	85.75
366.147	95.75
366.373	87.75
366.599	91.75
366.826	90.75
367.052	93.75
367.278	98.75
367.505	85.75
367.731	90.75
367.957	89.75
368.184	102.75
368.41	98.75
368.636	110.75
368.862	110.75
369.089	89.75
369.315	90.75
369.541	91.75
369.767	92.75
369.993	94.75
370.219	99.75
370.445	92.75
370.672	87.75
370.898	74.75
371.124	78.75
371.35	74.75
371.576	89.75
371.802	91.75
372.028	83.75
372.254	77.75
372.48	82.75
372.706	77.75
372.932	88.75
373.158	96.75
373.384	81.75
373.61	91.75
373.835	97.75
374.061	91.75
374.287	87.75
374.513	98.75
374.739	78.75
374.965	93.75
375.191	90.75
375.416	85.75
375.642	92.75
375.868	115.75
376.094	75.75
376.319	84.75
376.545	89.75
376.771	92.75
376.997	83.75
377.222	80.75
377.448	86.75
377.674	91.75
377.899	90.75
378.125	100.75
378.35	88.75
378.576	85.75
378.802	74.75
379.027	92.75
379.253	95.75
379.478	88.75
379.704	89.75
379.929	93.75
380.155	101.75
380.38	75.75
380.606	79.75
380.831	91.75
381.057	101.75
381.282	94.75
381.507	94.75
381.733	94.75
381.958	84.75
382.184	96.75
382.409	109.75
382.634	97.75
382.86	84.75
383.085	95.75
383.31	107.75
383.535	100.75
383.761	94.75
383.986	98.75
384.211	80.75
384.436	81.75
384.662	105.75
384.887	98.75
385.112	100.75
385.337	83.75
385.562	103.75
385.787	101.75
386.013	107.75
386.238	90.75
386.463	108.75
386.688	101.75
386.913	96.75
387.138	97.75
387.363	99.75
387.588	97.75
387.813	99.75
388.038	91.75
388.263	104.75
388.488	103.75
388.713	96.75
388.938	93.75
389.163	83.75
389.387	89.75
389.612	98.75
389.837	90.75
390.062	97.75
390.287	87.75
390.512	86.75
390.736	82.75
390.961	75.75
391.186	80.75
391.411	80.75
391.636	94.75
391.86	98.75
392.085	86.75
392.31	86.75
392.534	83.75
392.759	90.75
392.984	86.75
393.208	83.75
393.433	103.75
393.658	98.75
393.882	90.75
394.107	93.75
394.331	79.75
394.556	103.75
394.78	90.75
395.005	90.75
395.229	98.75
395.454	98.75
395.678	85.75
395.903	91.75
396.127	71.75
396.352	71.75
396.576	94.75
396.801	87.75
397.025	100.75
397.249	98.75
397.474	76.75
397.698	73.75
397.922	97.75
398.147	87.75
398.371	81.75
398.595	86.75
398.82	78.75
399.044	97.75
399.268	87.75
399.492	89.75
399.717	76.75
399.941	90.75
400.165	88.75
400.389	85.75
400.613	80.75
400.837	86.75
401.062	78.75
401.286	80.75
401.51	86.75
401.734	69.75
401.958	103.75
402.182	104.75
402.406	137.75
402.63	112.75
402.854	77.75
403.078	80.75
403.302	95.75
403.526	89.75
403.75	91.75
403.974	93.75
404.198	91.75
404.422	77.75
404.645	93.75
404.869	108.75
405.093	97.75
405.317	101.75
405.541	95.75
405.765	80.75
405.988	103.75
406.212	147.75
406.436	186.75
406.66	127.75
406.883	84.75
407.107	84.75
407.331	108.75
407.555	107.75
407.778	85.75
408.002	84.75
408.226	100.75
408.449	83.75
408.673	76.75
408.896	99.75
409.12	100.75
409.344	91.75
409.567	91.75
409.791	92.75
410.014	98.75
410.238	92.75
410.461	101.75
410.685	93.75
410.908	106.75
411.132	104.75
411.355	99.75
411.578	83.75
411.802	93.75
412.025	87.75
412.249	90.75
412.472	91.75
412.695	102.75
412.919	98.75
413.142	89.75
413.365	72.75
413.589	90.75
413.812	83.75
414.035	90.75
414.258	93.75
414.482	96.75
414.705	83.75
414.928	99.75
415.151	95.75
415.374	80.75
415.597	79.75
415.821	79.75
416.044	72.75
416.267	91.75
416.49	75.75
416.713	82.75
416.936	85.75
417.159	76.75
417.382	95.75
417.605	86.75
417.828	90.75
418.051	99.75
418.274	84.75
418.497	75.75
418.72	99.75
418.943	83.75
419.166	75.75
419.389	79.75
419.611	72.75
419.834	90.75
420.057	82.75
420.28	85.75
420.503	74.75
420.726	82.75
420.948	81.75
421.171	81.75
421.394	90.75
421.617	88.75
421.839	84.75
422.062	85.75
422.285	95.75
422.507	99.75
422.73	115.75
422.953	96.75
423.175	98.75
423.398	88.75
423.621	77.75
423.843	87.75
424.066	90.75
424.288	82.75
424.511	86.75
424.733	98.75
424.956	93.75
425.178	86.75
425.401	92.75
425.623	98.75
425.846	99.75
426.068	85.75
426.291	82.75
426.513	91.75
426.735	98.75
426.958	87.75
427.18	103.75
427.402	122.75
427.625	134.75
427.847	112.75
428.069	133.75
428.292	101.75
428.514	83.75
428.736	87.75
428.958	92.75
429.181	85.75
429.403	73.75
429.625	79.75
429.847	92.75
430.069	83.75
430.292	100.75
430.514	103.75
430.736	77.75
430.958	91.75
431.18	80.75
431.402	87.75
431.624	72.75
431.846	78.75
432.068	99.75
432.29	90.75
432.512	79.75
432.734	77.75
432.956	74.75
433.178	105.75
433.4	86.75
433.622	72.75
433.844	81.75
434.066	99.75
434.287	95.75
434.509	92.75
434.731	79.75
434.953	91.75
435.175	81.75
435.397	93.75
435.618	98.75
435.84	106.75
436.062	92.75
436.284	102.75
436.505	104.75
436.727	93.75
436.949	82.75
437.17	65.75
437.392	85.75
437.614	84.75
437.835	100.75
438.057	99.75
438.278	87.75
438.5	97.75
438.721	110.75
438.943	102.75
439.165	80.75
439.386	75.75
439.608	92.75
439.829	95.75
440.05	126.75
440.272	124.75
440.493	90.75
440.715	86.75
440.936	91.75
441.158	79.75
441.379	93.75
441.6	96.75
441.822	93.75
442.043	89.75
442.264	93.75
442.486	103.75
442.707	86.75
442.928	107.75
443.149	115.75
443.371	118.75
443.592	109.75
443.813	102.75
444.034	96.75
444.255	71.75
444.476	79.75
444.698	90.75
444.919	98.75
445.14	123.75
445.361	127.75
445.582	110.75
445.803	125.75
446.024	111.75
446.245	116.75
446.466	109.75
446.687	86.75
446.908	88.75
447.129	83.75
447.35	97.75
447.571	89.75
447.792	71.75
448.013	95.75
448.234	108.75
448.455	87.75
448.675	94.75
448.896	107.75
449.117	92.75
449.338	103.75
449.559	121.75
449.779	106.75
450	87.75
450.221	78.75
450.442	77.75
450.662	100.75
450.883	90.75
451.104	98.75
451.324	80.75
451.545	72.75
451.766	88.75
451.986	77.75
452.207	87.75
452.428	85.75
452.648	106.75
452.869	99.75
453.089	110.75
453.31	108.75
453.53	94.75
453.751	86.75
453.971	102.75
454.192	93.75
454.412	92.75
454.633	81.75
454.853	89.75
455.073	82.75
455.294	88.75
455.514	91.75
455.734	92.75
455.955	90.75
456.175	84.75
456.395	87.75
456.616	77.75
456.836	93.75
457.056	80.75
457.276	82.75
457.497	74.75
457.717	79.75
457.937	89.75
458.157	73.75
458.377	84.75
458.598	112.75
458.818	123.75
459.038	144.75
459.258	111.75
459.478	91.75
459.698	83.75
459.918	95.75
460.138	89.75
460.358	87.75
460.578	76.75
460.798	94.75
461.018	91.75
461.238	89.75
461.458	80.75
461.678	84.75
461.898	77.75
462.118	75.75
462.338	97.75
462.558	92.75
462.777	84.75
462.997	87.75
463.217	93.75
463.437	80.75
463.657	82.75
463.876	84.75
464.096	85.75
464.316	86.75
464.536	89.75
464.755	86.75
464.975	92.75
465.195	141.75
465.414	153.75
465.634	98.75
465.854	82.75
466.073	90.75
466.293	72.75
466.512	86.75
466.732	80.75
466.951	96.75
467.171	95.75
467.391	91.75
467.61	98.75
467.829	95.75
468.049	141.75
468.268	167.75
468.488	92.75
468.707	67.75
468.927	96.75
469.146	83.75
469.365	82.75
469.585	80.75
469.804	97.75
470.023	84.75
470.243	99.75
470.462	94.75
470.681	92.75
470.901	87.75
471.12	95.75
471.339	97.75
471.558	100.75
471.777	96.75
471.997	107.75
472.216	199.75
472.435	334.75
472.654	138.75
472.873	94.75
473.092	89.75
473.311	89.75
473.53	84.75
473.749	87.75
473.968	84.75
474.187	94.75
474.406	106.75
474.625	95.75
474.844	88.75
475.063	84.75
475.282	83.75
475.501	84.75
475.72	88.75
475.939	93.75
476.158	90.75
476.377	85.75
476.596	68.75
476.814	89.75
477.033	98.75
477.252	87.75
477.471	100.75
477.69	86.75
477.908	76.75
478.127	103.75
478.346	88.75
478.564	80.75
478.783	91.75
479.002	96.75
479.22	84.75
479.439	94.75
479.658	106.75
479.876	96.75
480.095	95.75
480.313	101.75
480.532	94.75
480.751	113.75
480.969	198.75
481.188	549.75
481.406	371.75
481.624	119.75
481.843	84.75
482.061	84.75
482.28	83.75
482.498	85.75
482.717	81.75
482.935	109.75
483.153	80.75
483.372	83.75
483.59	99.75
483.808	75.75
484.027	71.75
484.245	82.75
484.463	101.75
484.681	100.75
484.9	81.75
485.118	107.75
485.336	95.75
485.554	92.75
485.772	108.75
485.99	94.75
486.209	101.75
486.427	98.75
486.645	101.75
486.863	111.75
487.081	106.75
487.299	95.75
487.517	82.75
487.735	68.75
487.953	86.75
488.171	91.75
488.389	99.75
488.607	102.75
488.825	94.75
489.043	96.75
489.261	89.75
489.479	87.75
489.696	98.75
489.914	91.75
490.132	78.75
490.35	96.75
490.568	91.75
490.786	91.75
491.003	72.75
491.221	88.75
491.439	79.75
491.657	82.75
491.874	89.75
492.092	84.75
492.31	88.75
492.527	83.75
492.745	108.75
492.963	88.75
493.18	99.75
493.398	80.75
493.615	77.75
493.833	96.75
494.05	84.75
494.268	93.75
494.485	114.75
494.703	91.75
494.92	85.75
495.138	82.75
495.355	92.75
495.573	95.75
495.79	105.75
496.008	107.75
496.225	94.75
496.442	100.75
496.66	79.75
496.877	90.75
497.094	92.75
497.312	87.75
497.529	98.75
497.746	85.75
497.963	88.75
498.181	88.75
498.398	107.75
498.615	94.75
498.832	108.75
499.049	93.75
499.267	85.75
499.484	87.75
499.701	100.75
499.918	92.75
500.135	81.75
500.352	79.75
500.569	94.75
500.786	77.75
501.003	85.75
501.22	94.75
501.437	85.75
501.654	93.75
501.871	94.75
502.088	66.75
502.305	92.75
502.522	80.75
502.739	102.75
502.956	86.75
503.172	95.75
503.389	86.75
503.606	99.75
503.823	89.75
504.04	84.75
504.256	95.75
504.473	86.75
504.69	93.75
504.907	94.75
505.123	84.75
505.34	81.75
505.557	90.75
505.773	80.75
505.99	96.75
506.207	83.75
506.423	83.75
506.64	102.75
506.856	86.75
507.073	95.75
507.289	96.75
507.506	87.75
507.722	99.75
507.939	110.75
508.155	95.75
508.372	94.75
508.588	89.75
508.805	90.75
509.021	93.75
509.238	91.75
509.454	88.75
509.67	95.75
509.887	97.75
510.103	122.75
510.319	180.75
510.536	553.75
510.752	1696.75
510.968	500.75
511.184	130.75
511.401	125.75
511.617	94.75
511.833	97.75
512.049	88.75
512.265	91.75
512.481	99.75
512.698	86.75
512.914	93.75
513.13	91.75
513.346	100.75
513.562	107.75
513.778	99.75
513.994	76.75
514.21	91.75
514.426	103.75
514.642	131.75
514.858	81.75
515.074	140.75
515.29	333.75
515.506	1044.75
515.721	418.75
515.937	141.75
516.153	97.75
516.369	88.75
