Data from Circ_2010_H10_HRD10591_00077.txt Node
Date: Wed Jan 03 10:09:56 EST 2024
User: Yrep
Spectrometer: HR+D1059
Trigger mode: 1
Integration Time (sec): 1.000000E-1
Scans to average: 1
Electric dark correction enabled: true
Nonlinearity correction enabled: false
Boxcar width: 0
XAxis mode: Wavelengths
Number of Pixels in Spectrum: 2048
>>>>>Begin Spectral Data<<<<<
223.165	-16.06
223.4	-16.06
223.635	-16.06
223.869	-27.06
224.104	-13.06
224.338	-16.06
224.573	-27.06
224.808	-19.06
225.042	-4.06
225.277	-3.06
225.511	-2.06
225.746	1.94
225.98	5.94
226.215	11.94
226.449	24.94
226.683	24.94
226.918	33.94
227.152	23.94
227.387	39.94
227.621	28.94
227.856	53.94
228.09	43.94
228.324	44.94
228.559	58.94
228.793	64.94
229.027	71.94
229.262	62.94
229.496	81.94
229.73	87.94
229.964	80.94
230.199	87.94
230.433	66.94
230.667	82.94
230.901	84.94
231.136	78.94
231.37	79.94
231.604	67.94
231.838	76.94
232.072	80.94
232.306	86.94
232.541	85.94
232.775	75.94
233.009	85.94
233.243	63.94
233.477	88.94
233.711	81.94
233.945	77.94
234.179	72.94
234.413	61.94
234.647	84.94
234.881	94.94
235.115	87.94
235.349	81.94
235.583	75.94
235.817	87.94
236.051	73.94
236.285	83.94
236.519	67.94
236.753	76.94
236.987	68.94
237.221	79.94
237.455	80.94
237.689	92.94
237.922	72.94
238.156	77.94
238.39	72.94
238.624	71.94
238.858	59.94
239.091	70.94
239.325	69.94
239.559	73.94
239.793	68.94
240.027	70.94
240.26	80.94
240.494	77.94
240.728	79.94
240.961	79.94
241.195	95.94
241.429	76.94
241.662	75.94
241.896	75.94
242.13	74.94
242.363	87.94
242.597	80.94
242.83	77.94
243.064	74.94
243.298	77.94
243.531	81.94
243.765	78.94
243.998	88.94
244.232	88.94
244.465	73.94
244.699	77.94
244.932	79.94
245.166	77.94
245.399	84.94
245.633	94.94
245.866	81.94
246.099	80.94
246.333	74.94
246.566	70.94
246.8	80.94
247.033	82.94
247.266	71.94
247.5	81.94
247.733	71.94
247.966	80.94
248.2	79.94
248.433	86.94
248.666	84.94
248.899	96.94
249.133	87.94
249.366	82.94
249.599	99.94
249.832	74.94
250.066	61.94
250.299	90.94
250.532	77.94
250.765	82.94
250.998	64.94
251.231	76.94
251.465	82.94
251.698	89.94
251.931	82.94
252.164	83.94
252.397	73.94
252.63	92.94
252.863	85.94
253.096	77.94
253.329	86.94
253.562	88.94
253.795	76.94
254.028	79.94
254.261	80.94
254.494	72.94
254.727	85.94
254.96	79.94
255.193	86.94
255.426	92.94
255.659	87.94
255.892	79.94
256.124	90.94
256.357	84.94
256.59	87.94
256.823	76.94
257.056	79.94
257.289	81.94
257.521	83.94
257.754	81.94
257.987	85.94
258.22	78.94
258.452	92.94
258.685	87.94
258.918	61.94
259.151	88.94
259.383	98.94
259.616	88.94
259.849	68.94
260.081	75.94
260.314	83.94
260.547	83.94
260.779	81.94
261.012	92.94
261.244	94.94
261.477	77.94
261.71	91.94
261.942	110.94
262.175	111.94
262.407	84.94
262.64	78.94
262.872	86.94
263.105	81.94
263.337	86.94
263.57	86.94
263.802	81.94
264.035	90.94
264.267	70.94
264.499	83.94
264.732	72.94
264.964	85.94
265.197	81.94
265.429	80.94
265.661	77.94
265.894	66.94
266.126	87.94
266.358	84.94
266.591	86.94
266.823	87.94
267.055	82.94
267.287	77.94
267.52	85.94
267.752	77.94
267.984	81.94
268.216	72.94
268.448	78.94
268.681	79.94
268.913	103.94
269.145	85.94
269.377	81.94
269.609	94.94
269.841	88.94
270.073	70.94
270.306	88.94
270.538	94.94
270.77	79.94
271.002	81.94
271.234	89.94
271.466	80.94
271.698	102.94
271.93	89.94
272.162	95.94
272.394	79.94
272.626	80.94
272.858	81.94
273.09	82.94
273.322	96.94
273.553	84.94
273.785	101.94
274.017	79.94
274.249	103.94
274.481	93.94
274.713	86.94
274.945	97.94
275.176	97.94
275.408	85.94
275.64	92.94
275.872	94.94
276.104	103.94
276.335	94.94
276.567	103.94
276.799	95.94
277.031	113.94
277.262	111.94
277.494	97.94
277.726	77.94
277.957	79.94
278.189	74.94
278.421	96.94
278.652	82.94
278.884	91.94
279.115	86.94
279.347	86.94
279.579	102.94
279.81	93.94
280.042	107.94
280.273	122.94
280.505	106.94
280.736	82.94
280.968	87.94
281.199	87.94
281.431	89.94
281.662	81.94
281.894	89.94
282.125	90.94
282.356	113.94
282.588	140.94
282.819	109.94
283.051	94.94
283.282	92.94
283.513	67.94
283.745	91.94
283.976	95.94
284.207	77.94
284.439	86.94
284.67	76.94
284.901	93.94
285.132	74.94
285.364	83.94
285.595	91.94
285.826	75.94
286.057	77.94
286.288	83.94
286.52	93.94
286.751	96.94
286.982	88.94
287.213	85.94
287.444	101.94
287.675	76.94
287.906	92.94
288.138	86.94
288.369	87.94
288.6	86.94
288.831	105.94
289.062	94.94
289.293	91.94
289.524	82.94
289.755	105.94
289.986	92.94
290.217	80.94
290.448	77.94
290.679	84.94
290.91	92.94
291.141	84.94
291.371	79.94
291.602	81.94
291.833	100.94
292.064	94.94
292.295	92.94
292.526	88.94
292.757	92.94
292.987	77.94
293.218	96.94
293.449	88.94
293.68	90.94
293.91	100.94
294.141	91.94
294.372	80.94
294.603	89.94
294.833	91.94
295.064	96.94
295.295	91.94
295.525	100.94
295.756	96.94
295.987	118.94
296.217	126.94
296.448	118.94
296.679	95.94
296.909	82.94
297.14	87.94
297.37	86.94
297.601	88.94
297.831	82.94
298.062	92.94
298.292	79.94
298.523	89.94
298.753	95.94
298.984	79.94
299.214	92.94
299.445	106.94
299.675	84.94
299.905	75.94
300.136	96.94
300.366	105.94
300.597	97.94
300.827	87.94
301.057	103.94
301.288	90.94
301.518	92.94
301.748	90.94
301.979	104.94
302.209	106.94
302.439	96.94
302.669	79.94
302.9	95.94
303.13	101.94
303.36	93.94
303.59	103.94
303.82	99.94
304.051	105.94
304.281	87.94
304.511	97.94
304.741	97.94
304.971	100.94
305.201	92.94
305.431	85.94
305.661	100.94
305.891	89.94
306.121	96.94
306.352	106.94
306.582	104.94
306.812	105.94
307.042	90.94
307.272	96.94
307.502	108.94
307.731	116.94
307.961	94.94
308.191	100.94
308.421	72.94
308.651	104.94
308.881	96.94
309.111	112.94
309.341	92.94
309.571	93.94
309.8	74.94
310.03	105.94
310.26	106.94
310.49	95.94
310.72	110.94
310.949	105.94
311.179	92.94
311.409	94.94
311.639	95.94
311.868	104.94
312.098	109.94
312.328	102.94
312.557	112.94
312.787	109.94
313.017	97.94
313.246	99.94
313.476	92.94
313.706	82.94
313.935	94.94
314.165	104.94
314.394	94.94
314.624	112.94
314.853	91.94
315.083	93.94
315.312	87.94
315.542	86.94
315.771	104.94
316.001	103.94
316.23	93.94
316.46	88.94
316.689	96.94
316.919	75.94
317.148	94.94
317.377	87.94
317.607	100.94
317.836	85.94
318.065	97.94
318.295	99.94
318.524	97.94
318.753	84.94
318.983	90.94
319.212	90.94
319.441	108.94
319.67	80.94
319.9	89.94
320.129	101.94
320.358	86.94
320.587	103.94
320.816	116.94
321.046	97.94
321.275	102.94
321.504	95.94
321.733	103.94
321.962	102.94
322.191	101.94
322.42	104.94
322.649	112.94
322.878	110.94
323.108	117.94
323.337	116.94
323.566	121.94
323.795	151.94
324.024	204.94
324.253	374.94
324.482	752.94
324.71	1540.94
324.939	2046.94
325.168	734.94
325.397	223.94
325.626	149.94
325.855	112.94
326.084	120.94
326.313	121.94
326.542	152.94
326.77	216.94
326.999	436.94
327.228	879.94
327.457	1580.94
327.686	1258.94
327.914	363.94
328.143	248.94
328.372	237.94
328.6	167.94
328.829	136.94
329.058	139.94
329.287	123.94
329.515	110.94
329.744	140.94
329.972	175.94
330.201	279.94
330.43	388.94
330.658	224.94
330.887	140.94
331.115	128.94
331.344	108.94
331.572	106.94
331.801	108.94
332.03	125.94
332.258	101.94
332.486	95.94
332.715	93.94
332.943	101.94
333.172	107.94
333.4	120.94
333.629	116.94
333.857	128.94
334.085	167.94
334.314	280.94
334.542	465.94
334.771	430.94
334.999	168.94
335.227	104.94
335.455	107.94
335.684	96.94
335.912	88.94
336.14	91.94
336.369	106.94
336.597	107.94
336.825	108.94
337.053	92.94
337.281	104.94
337.51	104.94
337.738	88.94
337.966	99.94
338.194	106.94
338.422	105.94
338.65	96.94
338.878	99.94
339.106	101.94
339.334	79.94
339.562	82.94
339.79	83.94
340.018	91.94
340.246	79.94
340.474	93.94
340.702	100.94
340.93	94.94
341.158	82.94
341.386	101.94
341.614	96.94
341.842	100.94
342.07	92.94
342.298	100.94
342.526	88.94
342.754	90.94
342.981	91.94
343.209	83.94
343.437	92.94
343.665	87.94
343.893	88.94
344.12	89.94
344.348	88.94
344.576	98.94
344.804	98.94
345.031	97.94
345.259	88.94
345.487	86.94
345.714	91.94
345.942	92.94
346.17	94.94
346.397	100.94
346.625	108.94
346.853	117.94
347.08	97.94
347.308	94.94
347.535	101.94
347.763	99.94
347.99	94.94
348.218	102.94
348.445	97.94
348.673	106.94
348.9	101.94
349.128	79.94
349.355	92.94
349.583	90.94
349.81	102.94
350.037	99.94
350.265	104.94
350.492	105.94
350.72	110.94
350.947	97.94
351.174	119.94
351.402	114.94
351.629	95.94
351.856	107.94
352.083	107.94
352.311	124.94
352.538	105.94
352.765	111.94
352.992	108.94
353.22	104.94
353.447	92.94
353.674	103.94
353.901	101.94
354.128	105.94
354.355	85.94
354.583	102.94
354.81	94.94
355.037	84.94
355.264	88.94
355.491	92.94
355.718	97.94
355.945	102.94
356.172	93.94
356.399	102.94
356.626	83.94
356.853	87.94
357.08	86.94
357.307	85.94
357.534	106.94
357.761	98.94
357.988	89.94
358.215	91.94
358.441	91.94
358.668	93.94
358.895	73.94
359.122	95.94
359.349	92.94
359.576	94.94
359.802	100.94
360.029	111.94
360.256	105.94
360.483	97.94
360.709	98.94
360.936	107.94
361.163	105.94
361.39	102.94
361.616	92.94
361.843	94.94
362.07	81.94
362.296	108.94
362.523	93.94
362.749	87.94
362.976	79.94
363.203	101.94
363.429	96.94
363.656	93.94
363.882	72.94
364.109	105.94
364.335	97.94
364.562	90.94
364.788	90.94
365.015	90.94
365.241	82.94
365.468	99.94
365.694	105.94
365.92	93.94
366.147	84.94
366.373	82.94
366.599	83.94
366.826	96.94
367.052	91.94
367.278	87.94
367.505	102.94
367.731	108.94
367.957	96.94
368.184	98.94
368.41	100.94
368.636	90.94
368.862	99.94
369.089	125.94
369.315	107.94
369.541	104.94
369.767	94.94
369.993	90.94
370.219	91.94
370.445	94.94
370.672	102.94
370.898	83.94
371.124	85.94
371.35	94.94
371.576	93.94
371.802	105.94
372.028	85.94
372.254	82.94
372.48	88.94
372.706	88.94
372.932	74.94
373.158	86.94
373.384	96.94
373.61	97.94
373.835	84.94
374.061	84.94
374.287	90.94
374.513	91.94
374.739	80.94
374.965	98.94
375.191	88.94
375.416	80.94
375.642	89.94
375.868	107.94
376.094	88.94
376.319	101.94
376.545	85.94
376.771	89.94
376.997	93.94
377.222	90.94
377.448	89.94
377.674	104.94
377.899	97.94
378.125	85.94
378.35	102.94
378.576	84.94
378.802	76.94
379.027	98.94
379.253	85.94
379.478	94.94
379.704	88.94
379.929	89.94
380.155	100.94
380.38	91.94
380.606	103.94
380.831	92.94
381.057	97.94
381.282	102.94
381.507	109.94
381.733	97.94
381.958	93.94
382.184	98.94
382.409	96.94
382.634	100.94
382.86	90.94
383.085	91.94
383.31	93.94
383.535	93.94
383.761	86.94
383.986	86.94
384.211	93.94
384.436	98.94
384.662	106.94
384.887	102.94
385.112	100.94
385.337	93.94
385.562	106.94
385.787	118.94
386.013	99.94
386.238	105.94
386.463	103.94
386.688	106.94
386.913	128.94
387.138	111.94
387.363	93.94
387.588	105.94
387.813	104.94
388.038	95.94
388.263	107.94
388.488	114.94
388.713	98.94
388.938	89.94
389.163	102.94
389.387	90.94
389.612	88.94
389.837	90.94
390.062	89.94
390.287	92.94
390.512	105.94
390.736	84.94
390.961	92.94
391.186	104.94
391.411	89.94
391.636	93.94
391.86	99.94
392.085	89.94
392.31	85.94
392.534	73.94
392.759	81.94
392.984	88.94
393.208	92.94
393.433	113.94
393.658	96.94
393.882	79.94
394.107	87.94
394.331	81.94
394.556	89.94
394.78	94.94
395.005	95.94
395.229	82.94
395.454	87.94
395.678	103.94
395.903	90.94
396.127	77.94
396.352	106.94
396.576	87.94
396.801	103.94
397.025	101.94
397.249	86.94
397.474	88.94
397.698	85.94
397.922	93.94
398.147	93.94
398.371	96.94
398.595	94.94
398.82	97.94
399.044	87.94
399.268	88.94
399.492	82.94
399.717	89.94
399.941	89.94
400.165	81.94
400.389	89.94
400.613	78.94
400.837	88.94
401.062	82.94
401.286	81.94
401.51	101.94
401.734	94.94
401.958	104.94
402.182	139.94
402.406	152.94
402.63	113.94
402.854	97.94
403.078	76.94
403.302	90.94
403.526	102.94
403.75	96.94
403.974	94.94
404.198	90.94
404.422	92.94
404.645	108.94
404.869	85.94
405.093	105.94
405.317	117.94
405.541	105.94
405.765	101.94
405.988	113.94
406.212	181.94
406.436	227.94
406.66	146.94
406.883	100.94
407.107	99.94
407.331	88.94
407.555	94.94
407.778	87.94
408.002	90.94
408.226	91.94
408.449	95.94
408.673	89.94
408.896	102.94
409.12	106.94
409.344	82.94
409.567	92.94
409.791	92.94
410.014	98.94
410.238	99.94
410.461	81.94
410.685	104.94
410.908	92.94
411.132	100.94
411.355	87.94
411.578	94.94
411.802	88.94
412.025	75.94
412.249	93.94
412.472	92.94
412.695	108.94
412.919	87.94
413.142	96.94
413.365	94.94
413.589	82.94
413.812	86.94
414.035	86.94
414.258	87.94
414.482	85.94
414.705	89.94
414.928	90.94
415.151	88.94
415.374	92.94
415.597	88.94
415.821	87.94
416.044	73.94
416.267	86.94
416.49	100.94
416.713	89.94
416.936	79.94
417.159	97.94
417.382	89.94
417.605	88.94
417.828	94.94
418.051	85.94
418.274	81.94
418.497	83.94
418.72	80.94
418.943	83.94
419.166	92.94
419.389	86.94
419.611	96.94
419.834	82.94
420.057	96.94
420.28	81.94
420.503	87.94
420.726	80.94
420.948	73.94
421.171	92.94
421.394	82.94
421.617	96.94
421.839	106.94
422.062	100.94
422.285	89.94
422.507	101.94
422.73	107.94
422.953	91.94
423.175	92.94
423.398	71.94
423.621	77.94
423.843	79.94
424.066	80.94
424.288	100.94
424.511	81.94
424.733	91.94
424.956	99.94
425.178	97.94
425.401	89.94
425.623	103.94
425.846	102.94
426.068	106.94
426.291	93.94
426.513	77.94
426.735	86.94
426.958	107.94
427.18	108.94
427.402	140.94
427.625	183.94
427.847	144.94
428.069	135.94
428.292	91.94
428.514	82.94
428.736	87.94
428.958	80.94
429.181	88.94
429.403	87.94
429.625	92.94
429.847	90.94
430.069	106.94
430.292	102.94
430.514	77.94
430.736	86.94
430.958	82.94
431.18	87.94
431.402	84.94
431.624	95.94
431.846	92.94
432.068	86.94
432.29	96.94
432.512	102.94
432.734	81.94
432.956	86.94
433.178	100.94
433.4	97.94
433.622	96.94
433.844	90.94
434.066	82.94
434.287	111.94
434.509	96.94
434.731	91.94
434.953	88.94
435.175	93.94
435.397	97.94
435.618	95.94
435.84	92.94
436.062	119.94
436.284	111.94
436.505	93.94
436.727	87.94
436.949	96.94
437.17	89.94
437.392	77.94
437.614	105.94
437.835	107.94
438.057	108.94
438.278	116.94
438.5	104.94
438.721	114.94
438.943	100.94
439.165	90.94
439.386	85.94
439.608	107.94
439.829	90.94
440.05	99.94
440.272	141.94
440.493	89.94
440.715	100.94
440.936	99.94
441.158	100.94
441.379	103.94
441.6	82.94
441.822	102.94
442.043	91.94
442.264	104.94
442.486	91.94
442.707	78.94
442.928	101.94
443.149	132.94
443.371	119.94
443.592	105.94
443.813	115.94
444.034	102.94
444.255	97.94
444.476	88.94
444.698	96.94
444.919	97.94
445.14	145.94
445.361	114.94
445.582	109.94
445.803	136.94
446.024	121.94
446.245	133.94
446.466	106.94
446.687	90.94
446.908	92.94
447.129	95.94
447.35	92.94
447.571	93.94
447.792	88.94
448.013	108.94
448.234	96.94
448.455	105.94
448.675	116.94
448.896	126.94
449.117	90.94
449.338	107.94
449.559	113.94
449.779	118.94
450	94.94
450.221	90.94
450.442	94.94
450.662	96.94
450.883	113.94
451.104	99.94
451.324	94.94
451.545	78.94
451.766	87.94
451.986	92.94
452.207	78.94
452.428	99.94
452.648	102.94
452.869	118.94
453.089	110.94
453.31	97.94
453.53	85.94
453.751	98.94
453.971	111.94
454.192	103.94
454.412	89.94
454.633	102.94
454.853	78.94
455.073	81.94
455.294	96.94
455.514	89.94
455.734	82.94
455.955	91.94
456.175	96.94
456.395	90.94
456.616	88.94
456.836	92.94
457.056	87.94
457.276	97.94
457.497	95.94
457.717	91.94
457.937	81.94
458.157	96.94
458.377	92.94
458.598	105.94
458.818	144.94
459.038	148.94
459.258	116.94
459.478	90.94
459.698	95.94
459.918	95.94
460.138	78.94
460.358	84.94
460.578	88.94
460.798	84.94
461.018	82.94
461.238	80.94
461.458	85.94
461.678	103.94
461.898	89.94
462.118	93.94
462.338	85.94
462.558	82.94
462.777	90.94
462.997	98.94
463.217	91.94
463.437	97.94
463.657	94.94
463.876	82.94
464.096	97.94
464.316	100.94
464.536	104.94
464.755	96.94
464.975	116.94
465.195	154.94
465.414	158.94
465.634	94.94
465.854	98.94
466.073	76.94
466.293	81.94
466.512	91.94
466.732	73.94
466.951	83.94
467.171	103.94
467.391	93.94
467.61	104.94
467.829	108.94
468.049	183.94
468.268	257.94
468.488	104.94
468.707	99.94
468.927	79.94
469.146	72.94
469.365	89.94
469.585	95.94
469.804	102.94
470.023	94.94
470.243	98.94
470.462	99.94
470.681	111.94
470.901	86.94
471.12	87.94
471.339	80.94
471.558	88.94
471.777	102.94
471.997	139.94
472.216	322.94
472.435	631.94
472.654	191.94
472.873	105.94
473.092	81.94
473.311	90.94
473.53	81.94
473.749	80.94
473.968	101.94
474.187	97.94
474.406	98.94
474.625	94.94
474.844	101.94
475.063	80.94
475.282	76.94
475.501	93.94
475.72	90.94
475.939	77.94
476.158	83.94
476.377	81.94
476.596	95.94
476.814	91.94
477.033	102.94
477.252	79.94
477.471	92.94
477.69	97.94
477.908	89.94
478.127	94.94
478.346	89.94
478.564	87.94
478.783	93.94
479.002	88.94
479.22	89.94
479.439	88.94
479.658	103.94
479.876	103.94
480.095	89.94
480.313	97.94
480.532	110.94
480.751	135.94
480.969	308.94
481.188	1044.94
481.406	656.94
481.624	156.94
481.843	103.94
482.061	90.94
482.28	94.94
482.498	91.94
482.717	91.94
482.935	95.94
483.153	92.94
483.372	75.94
483.59	87.94
483.808	94.94
484.027	86.94
484.245	84.94
484.463	77.94
484.681	90.94
484.9	103.94
485.118	102.94
485.336	93.94
485.554	95.94
485.772	92.94
485.99	106.94
486.209	107.94
486.427	96.94
486.645	101.94
486.863	108.94
487.081	98.94
487.299	70.94
487.517	89.94
487.735	101.94
487.953	95.94
488.171	93.94
488.389	88.94
488.607	106.94
488.825	91.94
489.043	91.94
489.261	86.94
489.479	86.94
489.696	105.94
489.914	77.94
490.132	91.94
490.35	83.94
490.568	81.94
490.786	90.94
491.003	96.94
491.221	97.94
491.439	90.94
491.657	85.94
491.874	91.94
492.092	83.94
492.31	94.94
492.527	95.94
492.745	83.94
492.963	86.94
493.18	96.94
493.398	95.94
493.615	88.94
493.833	96.94
494.05	77.94
494.268	94.94
494.485	88.94
494.703	99.94
494.92	93.94
495.138	79.94
495.355	86.94
495.573	90.94
495.79	89.94
496.008	112.94
496.225	96.94
496.442	77.94
496.66	97.94
496.877	85.94
497.094	72.94
497.312	94.94
497.529	92.94
497.746	91.94
497.963	94.94
498.181	96.94
498.398	111.94
498.615	92.94
498.832	92.94
499.049	107.94
499.267	90.94
499.484	88.94
499.701	89.94
499.918	96.94
500.135	82.94
500.352	81.94
500.569	78.94
500.786	101.94
501.003	90.94
501.22	96.94
501.437	89.94
501.654	95.94
501.871	91.94
502.088	92.94
502.305	89.94
502.522	84.94
502.739	90.94
502.956	85.94
503.172	97.94
503.389	103.94
503.606	92.94
503.823	92.94
504.04	95.94
504.256	84.94
504.473	92.94
504.69	94.94
504.907	113.94
505.123	88.94
505.34	72.94
505.557	86.94
505.773	91.94
505.99	87.94
506.207	91.94
506.423	96.94
506.64	99.94
506.856	109.94
507.073	80.94
507.289	78.94
507.506	76.94
507.722	109.94
507.939	114.94
508.155	100.94
508.372	108.94
508.588	91.94
508.805	105.94
509.021	91.94
509.238	92.94
509.454	90.94
509.67	89.94
509.887	110.94
510.103	138.94
510.319	178.94
510.536	674.94
510.752	2146.94
510.968	603.94
511.184	140.94
511.401	108.94
511.617	105.94
511.833	91.94
512.049	92.94
512.265	93.94
512.481	95.94
512.698	90.94
512.914	101.94
513.13	101.94
513.346	93.94
513.562	100.94
513.778	81.94
513.994	94.94
514.21	92.94
514.426	106.94
514.642	131.94
514.858	135.94
