Data from Circ_2010_H10_HRD10591_00084.txt Node
Date: Wed Jan 03 10:09:58 EST 2024
User: Yrep
Spectrometer: HR+D1059
Trigger mode: 1
Integration Time (sec): 1.000000E-1
Scans to average: 1
Electric dark correction enabled: true
Nonlinearity correction enabled: false
Boxcar width: 0
XAxis mode: Wavelengths
Number of Pixels in Spectrum: 2048
>>>>>Begin Spectral Data<<<<<
223.165	-19.38
223.4	-19.38
223.635	-19.38
223.869	-21.38
224.104	-17.38
224.338	-18.38
224.573	-7.38
224.808	-26.38
225.042	-10.38
225.277	3.62
225.511	-8.38
225.746	-3.38
225.98	4.62
226.215	14.62
226.449	30.62
226.683	14.62
226.918	31.62
227.152	32.62
227.387	33.62
227.621	37.62
227.856	47.62
228.09	44.62
228.324	45.62
228.559	51.62
228.793	68.62
229.027	73.62
229.262	59.62
229.496	58.62
229.73	89.62
229.964	81.62
230.199	78.62
230.433	81.62
230.667	71.62
230.901	72.62
231.136	76.62
231.37	82.62
231.604	71.62
231.838	89.62
232.072	80.62
232.306	78.62
232.541	88.62
232.775	81.62
233.009	84.62
233.243	76.62
233.477	75.62
233.711	81.62
233.945	80.62
234.179	89.62
234.413	80.62
234.647	70.62
234.881	80.62
235.115	87.62
235.349	84.62
235.583	88.62
235.817	71.62
236.051	72.62
236.285	74.62
236.519	70.62
236.753	85.62
236.987	69.62
237.221	83.62
237.455	88.62
237.689	76.62
237.922	71.62
238.156	86.62
238.39	79.62
238.624	83.62
238.858	81.62
239.091	79.62
239.325	78.62
239.559	101.62
239.793	85.62
240.027	58.62
240.26	77.62
240.494	67.62
240.728	79.62
240.961	97.62
241.195	91.62
241.429	89.62
241.662	75.62
241.896	81.62
242.13	71.62
242.363	75.62
242.597	80.62
242.83	78.62
243.064	78.62
243.298	75.62
243.531	76.62
243.765	67.62
243.998	84.62
244.232	85.62
244.465	86.62
244.699	86.62
244.932	67.62
245.166	75.62
245.399	71.62
245.633	91.62
245.866	78.62
246.099	70.62
246.333	98.62
246.566	78.62
246.8	75.62
247.033	80.62
247.266	76.62
247.5	85.62
247.733	68.62
247.966	74.62
248.2	76.62
248.433	80.62
248.666	81.62
248.899	75.62
249.133	113.62
249.366	99.62
249.599	87.62
249.832	81.62
250.066	95.62
250.299	73.62
250.532	80.62
250.765	71.62
250.998	77.62
251.231	78.62
251.465	80.62
251.698	88.62
251.931	91.62
252.164	81.62
252.397	79.62
252.63	95.62
252.863	80.62
253.096	59.62
253.329	95.62
253.562	90.62
253.795	78.62
254.028	77.62
254.261	92.62
254.494	85.62
254.727	79.62
254.96	77.62
255.193	77.62
255.426	86.62
255.659	78.62
255.892	72.62
256.124	82.62
256.357	75.62
256.59	84.62
256.823	71.62
257.056	84.62
257.289	68.62
257.521	77.62
257.754	91.62
257.987	94.62
258.22	81.62
258.452	90.62
258.685	64.62
258.918	81.62
259.151	74.62
259.383	79.62
259.616	85.62
259.849	85.62
260.081	84.62
260.314	89.62
260.547	96.62
260.779	76.62
261.012	92.62
261.244	92.62
261.477	80.62
261.71	98.62
261.942	109.62
262.175	108.62
262.407	85.62
262.64	88.62
262.872	75.62
263.105	85.62
263.337	81.62
263.57	80.62
263.802	90.62
264.035	94.62
264.267	76.62
264.499	76.62
264.732	89.62
264.964	86.62
265.197	83.62
265.429	81.62
265.661	80.62
265.894	76.62
266.126	88.62
266.358	83.62
266.591	90.62
266.823	90.62
267.055	99.62
267.287	93.62
267.52	81.62
267.752	83.62
267.984	76.62
268.216	95.62
268.448	87.62
268.681	100.62
268.913	77.62
269.145	82.62
269.377	79.62
269.609	89.62
269.841	88.62
270.073	85.62
270.306	75.62
270.538	83.62
270.77	67.62
271.002	86.62
271.234	104.62
271.466	92.62
271.698	81.62
271.93	88.62
272.162	90.62
272.394	95.62
272.626	91.62
272.858	93.62
273.09	78.62
273.322	87.62
273.553	85.62
273.785	103.62
274.017	89.62
274.249	80.62
274.481	78.62
274.713	84.62
274.945	85.62
275.176	89.62
275.408	87.62
275.64	87.62
275.872	78.62
276.104	85.62
276.335	88.62
276.567	91.62
276.799	116.62
277.031	88.62
277.262	104.62
277.494	83.62
277.726	91.62
277.957	88.62
278.189	79.62
278.421	92.62
278.652	102.62
278.884	93.62
279.115	96.62
279.347	92.62
279.579	101.62
279.81	91.62
280.042	92.62
280.273	111.62
280.505	90.62
280.736	93.62
280.968	86.62
281.199	83.62
281.431	87.62
281.662	72.62
281.894	102.62
282.125	91.62
282.356	110.62
282.588	122.62
282.819	97.62
283.051	92.62
283.282	89.62
283.513	82.62
283.745	89.62
283.976	81.62
284.207	81.62
284.439	81.62
284.67	89.62
284.901	88.62
285.132	94.62
285.364	78.62
285.595	84.62
285.826	72.62
286.057	85.62
286.288	80.62
286.52	93.62
286.751	87.62
286.982	89.62
287.213	78.62
287.444	85.62
287.675	87.62
287.906	104.62
288.138	100.62
288.369	87.62
288.6	89.62
288.831	83.62
289.062	91.62
289.293	92.62
289.524	73.62
289.755	81.62
289.986	92.62
290.217	89.62
290.448	89.62
290.679	78.62
290.91	83.62
291.141	86.62
291.371	101.62
291.602	74.62
291.833	96.62
292.064	87.62
292.295	78.62
292.526	80.62
292.757	84.62
292.987	83.62
293.218	89.62
293.449	71.62
293.68	89.62
293.91	91.62
294.141	87.62
294.372	88.62
294.603	94.62
294.833	86.62
295.064	77.62
295.295	79.62
295.525	93.62
295.756	91.62
295.987	111.62
296.217	115.62
296.448	109.62
296.679	101.62
296.909	96.62
297.14	89.62
297.37	89.62
297.601	92.62
297.831	81.62
298.062	94.62
298.292	95.62
298.523	89.62
298.753	88.62
298.984	93.62
299.214	83.62
299.445	79.62
299.675	108.62
299.905	101.62
300.136	95.62
300.366	97.62
300.597	99.62
300.827	81.62
301.057	94.62
301.288	92.62
301.518	87.62
301.748	91.62
301.979	82.62
302.209	99.62
302.439	102.62
302.669	100.62
302.9	79.62
303.13	96.62
303.36	101.62
303.59	108.62
303.82	99.62
304.051	95.62
304.281	91.62
304.511	84.62
304.741	105.62
304.971	102.62
305.201	88.62
305.431	87.62
305.661	96.62
305.891	87.62
306.121	91.62
306.352	101.62
306.582	103.62
306.812	101.62
307.042	90.62
307.272	98.62
307.502	108.62
307.731	96.62
307.961	83.62
308.191	96.62
308.421	91.62
308.651	84.62
308.881	102.62
309.111	95.62
309.341	89.62
309.571	99.62
309.8	105.62
310.03	87.62
310.26	97.62
310.49	98.62
310.72	103.62
310.949	97.62
311.179	89.62
311.409	110.62
311.639	90.62
311.868	70.62
312.098	100.62
312.328	99.62
312.557	99.62
312.787	99.62
313.017	96.62
313.246	96.62
313.476	114.62
313.706	88.62
313.935	75.62
314.165	103.62
314.394	89.62
314.624	91.62
314.853	89.62
315.083	86.62
315.312	92.62
315.542	91.62
315.771	93.62
316.001	92.62
316.23	90.62
316.46	103.62
316.689	84.62
316.919	91.62
317.148	98.62
317.377	100.62
317.607	102.62
317.836	99.62
318.065	93.62
318.295	94.62
318.524	92.62
318.753	95.62
318.983	102.62
319.212	97.62
319.441	105.62
319.67	85.62
319.9	102.62
320.129	100.62
320.358	101.62
320.587	101.62
320.816	89.62
321.046	89.62
321.275	72.62
321.504	85.62
321.733	81.62
321.962	103.62
322.191	98.62
322.42	110.62
322.649	100.62
322.878	113.62
323.108	103.62
323.337	106.62
323.566	136.62
323.795	145.62
324.024	183.62
324.253	331.62
324.482	643.62
324.71	1356.62
324.939	1715.62
325.168	647.62
325.397	209.62
325.626	144.62
325.855	113.62
326.084	125.62
326.313	123.62
326.542	149.62
326.77	192.62
326.999	391.62
327.228	777.62
327.457	1351.62
327.686	1102.62
327.914	319.62
328.143	201.62
328.372	203.62
328.6	127.62
328.829	111.62
329.058	119.62
329.287	127.62
329.515	108.62
329.744	115.62
329.972	153.62
330.201	237.62
330.43	277.62
330.658	180.62
330.887	135.62
331.115	108.62
331.344	98.62
331.572	99.62
331.801	111.62
332.03	94.62
332.258	110.62
332.486	92.62
332.715	96.62
332.943	86.62
333.172	102.62
333.4	99.62
333.629	117.62
333.857	115.62
334.085	154.62
334.314	220.62
334.542	350.62
334.771	319.62
334.999	131.62
335.227	95.62
335.455	101.62
335.684	103.62
335.912	100.62
336.14	103.62
336.369	100.62
336.597	100.62
336.825	90.62
337.053	94.62
337.281	96.62
337.51	95.62
337.738	91.62
337.966	99.62
338.194	81.62
338.422	91.62
338.65	80.62
338.878	109.62
339.106	94.62
339.334	78.62
339.562	88.62
339.79	92.62
340.018	95.62
340.246	90.62
340.474	81.62
340.702	84.62
340.93	78.62
341.158	80.62
341.386	96.62
341.614	87.62
341.842	91.62
342.07	93.62
342.298	91.62
342.526	100.62
342.754	77.62
342.981	93.62
343.209	93.62
343.437	112.62
343.665	94.62
343.893	101.62
344.12	93.62
344.348	86.62
344.576	118.62
344.804	107.62
345.031	88.62
345.259	90.62
345.487	96.62
345.714	104.62
345.942	81.62
346.17	87.62
346.397	96.62
346.625	87.62
346.853	73.62
347.08	92.62
347.308	87.62
347.535	104.62
347.763	101.62
347.99	109.62
348.218	98.62
348.445	99.62
348.673	85.62
348.9	90.62
349.128	92.62
349.355	94.62
349.583	91.62
349.81	101.62
350.037	87.62
350.265	103.62
350.492	86.62
350.72	86.62
350.947	96.62
351.174	92.62
351.402	106.62
351.629	97.62
351.856	89.62
352.083	94.62
352.311	108.62
352.538	100.62
352.765	111.62
352.992	111.62
353.22	116.62
353.447	107.62
353.674	99.62
353.901	80.62
354.128	91.62
354.355	88.62
354.583	86.62
354.81	103.62
355.037	95.62
355.264	88.62
355.491	104.62
355.718	95.62
355.945	98.62
356.172	103.62
356.399	102.62
356.626	87.62
356.853	92.62
357.08	90.62
357.307	97.62
357.534	82.62
357.761	87.62
357.988	92.62
358.215	95.62
358.441	90.62
358.668	88.62
358.895	79.62
359.122	81.62
359.349	88.62
359.576	81.62
359.802	101.62
360.029	84.62
360.256	102.62
360.483	74.62
360.709	97.62
360.936	85.62
361.163	94.62
361.39	90.62
361.616	79.62
361.843	110.62
362.07	99.62
362.296	111.62
362.523	97.62
362.749	85.62
362.976	85.62
363.203	108.62
363.429	86.62
363.656	86.62
363.882	91.62
364.109	80.62
364.335	86.62
364.562	97.62
364.788	99.62
365.015	106.62
365.241	96.62
365.468	109.62
365.694	110.62
365.92	96.62
366.147	87.62
366.373	86.62
366.599	83.62
366.826	89.62
367.052	92.62
367.278	100.62
367.505	102.62
367.731	93.62
367.957	85.62
368.184	78.62
368.41	107.62
368.636	105.62
368.862	109.62
369.089	100.62
369.315	87.62
369.541	83.62
369.767	87.62
369.993	85.62
370.219	102.62
370.445	85.62
370.672	90.62
370.898	91.62
371.124	77.62
371.35	86.62
371.576	110.62
371.802	92.62
372.028	101.62
372.254	89.62
372.48	92.62
372.706	82.62
372.932	89.62
373.158	77.62
373.384	100.62
373.61	95.62
373.835	93.62
374.061	83.62
374.287	86.62
374.513	90.62
374.739	88.62
374.965	88.62
375.191	79.62
375.416	84.62
375.642	83.62
375.868	95.62
376.094	92.62
376.319	92.62
376.545	100.62
376.771	81.62
376.997	84.62
377.222	85.62
377.448	101.62
377.674	97.62
377.899	87.62
378.125	88.62
378.35	84.62
378.576	92.62
378.802	91.62
379.027	81.62
379.253	84.62
379.478	100.62
379.704	91.62
379.929	86.62
380.155	82.62
380.38	91.62
380.606	73.62
380.831	91.62
381.057	103.62
381.282	106.62
381.507	93.62
381.733	99.62
381.958	100.62
382.184	100.62
382.409	78.62
382.634	88.62
382.86	87.62
383.085	106.62
383.31	114.62
383.535	104.62
383.761	96.62
383.986	94.62
384.211	94.62
384.436	82.62
384.662	103.62
384.887	107.62
385.112	95.62
385.337	96.62
385.562	109.62
385.787	111.62
386.013	91.62
386.238	92.62
386.463	105.62
386.688	111.62
386.913	96.62
387.138	96.62
387.363	90.62
387.588	88.62
387.813	105.62
388.038	103.62
388.263	115.62
388.488	100.62
388.713	99.62
388.938	99.62
389.163	102.62
389.387	97.62
389.612	80.62
389.837	83.62
390.062	88.62
390.287	88.62
390.512	95.62
390.736	89.62
390.961	85.62
391.186	76.62
391.411	96.62
391.636	105.62
391.86	74.62
392.085	80.62
392.31	74.62
392.534	82.62
392.759	93.62
392.984	98.62
393.208	77.62
393.433	100.62
393.658	103.62
393.882	83.62
394.107	81.62
394.331	93.62
394.556	82.62
394.78	96.62
395.005	83.62
395.229	74.62
395.454	96.62
395.678	70.62
395.903	78.62
396.127	82.62
396.352	71.62
396.576	82.62
396.801	103.62
397.025	102.62
397.249	88.62
397.474	97.62
397.698	84.62
397.922	83.62
398.147	99.62
398.371	77.62
398.595	78.62
398.82	86.62
399.044	79.62
399.268	78.62
399.492	87.62
399.717	96.62
399.941	86.62
400.165	104.62
400.389	97.62
400.613	101.62
400.837	91.62
401.062	99.62
401.286	84.62
401.51	93.62
401.734	87.62
401.958	96.62
402.182	113.62
402.406	137.62
402.63	121.62
402.854	95.62
403.078	70.62
403.302	87.62
403.526	79.62
403.75	101.62
403.974	79.62
404.198	89.62
404.422	77.62
404.645	89.62
404.869	95.62
405.093	102.62
405.317	81.62
405.541	105.62
405.765	92.62
405.988	135.62
406.212	156.62
406.436	175.62
406.66	115.62
406.883	98.62
407.107	99.62
407.331	93.62
407.555	97.62
407.778	102.62
408.002	95.62
408.226	80.62
408.449	73.62
408.673	99.62
408.896	72.62
409.12	92.62
409.344	88.62
409.567	91.62
409.791	99.62
410.014	94.62
410.238	92.62
410.461	91.62
410.685	85.62
410.908	102.62
411.132	101.62
411.355	100.62
411.578	107.62
411.802	78.62
412.025	79.62
412.249	96.62
412.472	88.62
412.695	100.62
412.919	82.62
413.142	101.62
413.365	91.62
413.589	89.62
413.812	89.62
414.035	87.62
414.258	82.62
414.482	94.62
414.705	84.62
414.928	88.62
415.151	88.62
415.374	92.62
415.597	81.62
415.821	89.62
416.044	85.62
416.267	82.62
416.49	76.62
416.713	88.62
416.936	84.62
417.159	77.62
417.382	80.62
417.605	88.62
417.828	108.62
418.051	96.62
418.274	84.62
418.497	79.62
418.72	77.62
418.943	84.62
419.166	77.62
419.389	84.62
419.611	96.62
419.834	97.62
420.057	92.62
420.28	85.62
420.503	70.62
420.726	88.62
420.948	90.62
421.171	92.62
421.394	78.62
421.617	97.62
421.839	99.62
422.062	90.62
422.285	83.62
422.507	102.62
422.73	109.62
422.953	86.62
423.175	81.62
423.398	89.62
423.621	100.62
423.843	86.62
424.066	90.62
424.288	88.62
424.511	91.62
424.733	95.62
424.956	99.62
425.178	91.62
425.401	103.62
425.623	105.62
425.846	91.62
426.068	88.62
426.291	80.62
426.513	95.62
426.735	88.62
426.958	109.62
427.18	104.62
427.402	120.62
427.625	165.62
427.847	117.62
428.069	124.62
428.292	99.62
428.514	89.62
428.736	81.62
428.958	93.62
429.181	91.62
429.403	69.62
429.625	95.62
429.847	85.62
430.069	80.62
430.292	85.62
430.514	82.62
430.736	85.62
430.958	85.62
431.18	84.62
431.402	80.62
431.624	81.62
431.846	77.62
432.068	64.62
432.29	88.62
432.512	100.62
432.734	88.62
432.956	91.62
433.178	91.62
433.4	91.62
433.622	71.62
433.844	80.62
434.066	89.62
434.287	91.62
434.509	95.62
434.731	82.62
434.953	75.62
435.175	85.62
435.397	88.62
435.618	86.62
435.84	106.62
436.062	112.62
436.284	104.62
436.505	104.62
436.727	88.62
436.949	96.62
437.17	81.62
437.392	84.62
437.614	73.62
437.835	81.62
438.057	121.62
438.278	87.62
438.5	103.62
438.721	97.62
438.943	92.62
439.165	85.62
439.386	82.62
439.608	82.62
439.829	97.62
440.05	104.62
440.272	129.62
440.493	87.62
440.715	88.62
440.936	78.62
441.158	89.62
441.379	108.62
441.6	86.62
441.822	88.62
442.043	102.62
442.264	91.62
442.486	94.62
442.707	91.62
442.928	110.62
443.149	120.62
443.371	122.62
443.592	96.62
443.813	95.62
444.034	94.62
444.255	86.62
444.476	87.62
444.698	84.62
444.919	92.62
445.14	137.62
445.361	112.62
445.582	109.62
445.803	122.62
446.024	127.62
446.245	120.62
446.466	109.62
446.687	92.62
446.908	91.62
447.129	79.62
447.35	97.62
447.571	81.62
447.792	93.62
448.013	101.62
448.234	105.62
448.455	92.62
448.675	117.62
448.896	108.62
449.117	87.62
449.338	103.62
449.559	127.62
449.779	117.62
450	81.62
450.221	77.62
450.442	86.62
450.662	98.62
450.883	91.62
451.104	101.62
451.324	86.62
451.545	86.62
451.766	88.62
451.986	85.62
452.207	73.62
452.428	95.62
452.648	85.62
452.869	99.62
453.089	110.62
453.31	102.62
453.53	96.62
453.751	86.62
453.971	91.62
454.192	94.62
454.412	81.62
454.633	90.62
454.853	88.62
455.073	84.62
455.294	90.62
455.514	105.62
455.734	85.62
455.955	91.62
456.175	85.62
456.395	92.62
456.616	81.62
456.836	78.62
457.056	88.62
457.276	85.62
457.497	85.62
457.717	94.62
457.937	85.62
458.157	79.62
458.377	91.62
458.598	86.62
458.818	117.62
459.038	128.62
459.258	93.62
459.478	74.62
459.698	80.62
459.918	88.62
460.138	85.62
460.358	85.62
460.578	79.62
460.798	87.62
461.018	84.62
461.238	87.62
461.458	80.62
461.678	78.62
461.898	91.62
462.118	85.62
462.338	77.62
462.558	85.62
462.777	87.62
462.997	96.62
463.217	92.62
463.437	76.62
463.657	94.62
463.876	81.62
464.096	85.62
464.316	100.62
464.536	89.62
464.755	87.62
464.975	117.62
465.195	149.62
465.414	136.62
465.634	111.62
465.854	82.62
466.073	81.62
466.293	95.62
466.512	100.62
466.732	94.62
466.951	95.62
467.171	89.62
467.391	80.62
467.61	95.62
467.829	119.62
468.049	158.62
468.268	185.62
468.488	103.62
468.707	100.62
468.927	96.62
469.146	80.62
469.365	102.62
469.585	87.62
469.804	90.62
470.023	85.62
470.243	101.62
470.462	95.62
470.681	111.62
470.901	93.62
471.12	94.62
471.339	93.62
471.558	83.62
471.777	97.62
471.997	115.62
472.216	240.62
472.435	457.62
472.654	165.62
472.873	103.62
473.092	93.62
473.311	80.62
473.53	84.62
473.749	89.62
473.968	94.62
474.187	87.62
474.406	80.62
474.625	82.62
474.844	94.62
475.063	76.62
475.282	79.62
475.501	83.62
475.72	87.62
475.939	90.62
476.158	77.62
476.377	81.62
476.596	91.62
476.814	87.62
477.033	97.62
477.252	92.62
477.471	89.62
477.69	93.62
477.908	93.62
478.127	89.62
478.346	90.62
478.564	99.62
478.783	103.62
479.002	97.62
479.22	92.62
479.439	97.62
479.658	109.62
479.876	78.62
480.095	93.62
480.313	109.62
480.532	110.62
480.751	120.62
480.969	243.62
481.188	756.62
481.406	479.62
481.624	139.62
481.843	85.62
482.061	85.62
482.28	97.62
482.498	87.62
482.717	80.62
482.935	78.62
483.153	92.62
483.372	86.62
483.59	71.62
483.808	89.62
484.027	87.62
484.245	86.62
484.463	99.62
484.681	107.62
484.9	78.62
485.118	93.62
485.336	82.62
485.554	96.62
485.772	111.62
485.99	108.62
486.209	106.62
486.427	116.62
486.645	90.62
486.863	95.62
487.081	95.62
487.299	100.62
487.517	94.62
487.735	96.62
487.953	78.62
488.171	84.62
488.389	79.62
488.607	87.62
488.825	86.62
489.043	77.62
489.261	103.62
489.479	78.62
489.696	87.62
489.914	73.62
490.132	104.62
490.35	82.62
490.568	87.62
490.786	92.62
491.003	95.62
491.221	92.62
491.439	96.62
491.657	90.62
491.874	95.62
492.092	91.62
492.31	91.62
492.527	76.62
492.745	86.62
492.963	87.62
493.18	86.62
493.398	87.62
493.615	80.62
493.833	98.62
494.05	101.62
494.268	69.62
494.485	93.62
494.703	71.62
494.92	85.62
495.138	85.62
495.355	86.62
495.573	86.62
495.79	78.62
496.008	104.62
496.225	96.62
496.442	91.62
496.66	97.62
496.877	89.62
497.094	80.62
497.312	100.62
497.529	105.62
497.746	83.62
497.963	93.62
498.181	81.62
498.398	89.62
498.615	94.62
498.832	80.62
499.049	84.62
499.267	95.62
499.484	99.62
499.701	87.62
499.918	99.62
500.135	91.62
500.352	89.62
500.569	84.62
500.786	79.62
501.003	74.62
501.22	88.62
501.437	74.62
501.654	95.62
501.871	97.62
502.088	99.62
502.305	89.62
502.522	93.62
502.739	86.62
502.956	93.62
503.172	101.62
503.389	89.62
503.606	94.62
503.823	94.62
504.04	87.62
504.256	91.62
504.473	97.62
504.69	84.62
504.907	111.62
505.123	85.62
505.34	83.62
505.557	100.62
505.773	93.62
505.99	95.62
506.207	90.62
506.423	99.62
506.64	96.62
506.856	100.62
507.073	96.62
507.289	99.62
507.506	81.62
507.722	106.62
507.939	99.62
508.155	104.62
508.372	85.62
508.588	87.62
508.805	92.62
509.021	91.62
509.238	82.62
509.454	101.62
509.67	95.62
509.887	108.62
510.103	118.62
510.319	192.62
510.536	604.62
510.752	1800.62
510.968	513.62
511.184	128.62
511.401	110.62
511.617	110.62
511.833	88.62
512.049	96.62
512.265	85.62
512.481	88.62
512.698	93.62
512.914	65.62
513.13	95.62
513.346	102.62
513.562	94.62
513.778	89.62
513.994	101.62
514.21	108.62
514.426	113.62
514.642	133.62
514.858	106.62
515.074	148.62
515.29	345.62
515.506	1102.62
515.721	429.62
