Data from Circ_2010_H10_HRD10591_00085.txt Node
Date: Wed Jan 03 10:09:58 EST 2024
User: Yrep
Spectrometer: HR+D1059
Trigger mode: 1
Integration Time (sec): 1.000000E-1
Scans to average: 1
Electric dark correction enabled: true
Nonlinearity correction enabled: false
Boxcar width: 0
XAxis mode: Wavelengths
Number of Pixels in Spectrum: 2048
>>>>>Begin Spectral Data<<<<<
223.165	-17.44
223.4	-17.44
223.635	-17.44
223.869	-17.44
224.104	-15.44
224.338	-18.44
224.573	-22.44
224.808	-4.44
225.042	-5.44
225.277	-1.44
225.511	-3.44
225.746	-5.44
225.98	2.56
226.215	11.56
226.449	8.56
226.683	16.56
226.918	31.56
227.152	40.56
227.387	44.56
227.621	21.56
227.856	50.56
228.09	63.56
228.324	54.56
228.559	32.56
228.793	62.56
229.027	64.56
229.262	81.56
229.496	69.56
229.73	80.56
229.964	61.56
230.199	76.56
230.433	81.56
230.667	80.56
230.901	68.56
231.136	82.56
231.37	83.56
231.604	83.56
231.838	78.56
232.072	69.56
232.306	71.56
232.541	76.56
232.775	71.56
233.009	90.56
233.243	81.56
233.477	84.56
233.711	90.56
233.945	76.56
234.179	70.56
234.413	79.56
234.647	82.56
234.881	80.56
235.115	83.56
235.349	89.56
235.583	93.56
235.817	80.56
236.051	71.56
236.285	74.56
236.519	77.56
236.753	79.56
236.987	91.56
237.221	74.56
237.455	94.56
237.689	86.56
237.922	77.56
238.156	98.56
238.39	76.56
238.624	82.56
238.858	72.56
239.091	78.56
239.325	82.56
239.559	88.56
239.793	81.56
240.027	75.56
240.26	76.56
240.494	87.56
240.728	82.56
240.961	78.56
241.195	81.56
241.429	83.56
241.662	84.56
241.896	74.56
242.13	62.56
242.363	87.56
242.597	75.56
242.83	94.56
243.064	68.56
243.298	72.56
243.531	70.56
243.765	91.56
243.998	94.56
244.232	88.56
244.465	76.56
244.699	85.56
244.932	81.56
245.166	78.56
245.399	82.56
245.633	84.56
245.866	75.56
246.099	96.56
246.333	73.56
246.566	70.56
246.8	85.56
247.033	82.56
247.266	76.56
247.5	84.56
247.733	86.56
247.966	84.56
248.2	93.56
248.433	82.56
248.666	74.56
248.899	89.56
249.133	94.56
249.366	110.56
249.599	99.56
249.832	72.56
250.066	82.56
250.299	74.56
250.532	82.56
250.765	83.56
250.998	69.56
251.231	95.56
251.465	88.56
251.698	78.56
251.931	93.56
252.164	74.56
252.397	75.56
252.63	83.56
252.863	63.56
253.096	97.56
253.329	91.56
253.562	87.56
253.795	83.56
254.028	94.56
254.261	85.56
254.494	79.56
254.727	90.56
254.96	84.56
255.193	88.56
255.426	108.56
255.659	81.56
255.892	74.56
256.124	78.56
256.357	99.56
256.59	92.56
256.823	84.56
257.056	89.56
257.289	81.56
257.521	81.56
257.754	83.56
257.987	82.56
258.22	75.56
258.452	87.56
258.685	89.56
258.918	95.56
259.151	84.56
259.383	93.56
259.616	72.56
259.849	91.56
260.081	82.56
260.314	79.56
260.547	79.56
260.779	95.56
261.012	87.56
261.244	84.56
261.477	97.56
261.71	98.56
261.942	99.56
262.175	116.56
262.407	81.56
262.64	97.56
262.872	77.56
263.105	75.56
263.337	84.56
263.57	94.56
263.802	84.56
264.035	85.56
264.267	89.56
264.499	78.56
264.732	87.56
264.964	87.56
265.197	84.56
265.429	82.56
265.661	84.56
265.894	82.56
266.126	81.56
266.358	98.56
266.591	86.56
266.823	91.56
267.055	98.56
267.287	86.56
267.52	77.56
267.752	84.56
267.984	92.56
268.216	70.56
268.448	89.56
268.681	82.56
268.913	95.56
269.145	86.56
269.377	78.56
269.609	80.56
269.841	84.56
270.073	83.56
270.306	99.56
270.538	83.56
270.77	81.56
271.002	79.56
271.234	89.56
271.466	93.56
271.698	84.56
271.93	82.56
272.162	88.56
272.394	84.56
272.626	73.56
272.858	84.56
273.09	75.56
273.322	83.56
273.553	75.56
273.785	79.56
274.017	81.56
274.249	98.56
274.481	94.56
274.713	80.56
274.945	98.56
275.176	90.56
275.408	95.56
275.64	87.56
275.872	103.56
276.104	89.56
276.335	91.56
276.567	104.56
276.799	95.56
277.031	101.56
277.262	91.56
277.494	105.56
277.726	89.56
277.957	84.56
278.189	71.56
278.421	84.56
278.652	82.56
278.884	92.56
279.115	94.56
279.347	70.56
279.579	87.56
279.81	91.56
280.042	112.56
280.273	113.56
280.505	103.56
280.736	93.56
280.968	84.56
281.199	100.56
281.431	90.56
281.662	86.56
281.894	87.56
282.125	98.56
282.356	113.56
282.588	132.56
282.819	111.56
283.051	96.56
283.282	102.56
283.513	93.56
283.745	97.56
283.976	90.56
284.207	95.56
284.439	98.56
284.67	90.56
284.901	91.56
285.132	87.56
285.364	98.56
285.595	90.56
285.826	66.56
286.057	88.56
286.288	99.56
286.52	78.56
286.751	95.56
286.982	89.56
287.213	80.56
287.444	93.56
287.675	95.56
287.906	83.56
288.138	99.56
288.369	105.56
288.6	87.56
288.831	90.56
289.062	92.56
289.293	97.56
289.524	70.56
289.755	91.56
289.986	74.56
290.217	98.56
290.448	83.56
290.679	95.56
290.91	101.56
291.141	103.56
291.371	91.56
291.602	96.56
291.833	87.56
292.064	94.56
292.295	94.56
292.526	90.56
292.757	99.56
292.987	98.56
293.218	89.56
293.449	102.56
293.68	85.56
293.91	76.56
294.141	90.56
294.372	82.56
294.603	86.56
294.833	93.56
295.064	82.56
295.295	96.56
295.525	89.56
295.756	100.56
295.987	115.56
296.217	109.56
296.448	120.56
296.679	87.56
296.909	99.56
297.14	87.56
297.37	87.56
297.601	93.56
297.831	91.56
298.062	89.56
298.292	77.56
298.523	97.56
298.753	97.56
298.984	85.56
299.214	88.56
299.445	96.56
299.675	97.56
299.905	93.56
300.136	88.56
300.366	101.56
300.597	95.56
300.827	99.56
301.057	97.56
301.288	85.56
301.518	97.56
301.748	93.56
301.979	92.56
302.209	86.56
302.439	90.56
302.669	88.56
302.9	94.56
303.13	93.56
303.36	95.56
303.59	103.56
303.82	119.56
304.051	89.56
304.281	83.56
304.511	100.56
304.741	104.56
304.971	92.56
305.201	106.56
305.431	89.56
305.661	107.56
305.891	105.56
306.121	107.56
306.352	91.56
306.582	102.56
306.812	84.56
307.042	100.56
307.272	104.56
307.502	112.56
307.731	111.56
307.961	99.56
308.191	88.56
308.421	88.56
308.651	92.56
308.881	80.56
309.111	100.56
309.341	84.56
309.571	90.56
309.8	90.56
310.03	110.56
310.26	96.56
310.49	100.56
310.72	102.56
310.949	111.56
311.179	89.56
311.409	98.56
311.639	101.56
311.868	81.56
312.098	94.56
312.328	85.56
312.557	90.56
312.787	106.56
313.017	85.56
313.246	103.56
313.476	102.56
313.706	96.56
313.935	102.56
314.165	88.56
314.394	84.56
314.624	99.56
314.853	93.56
315.083	90.56
315.312	94.56
315.542	81.56
315.771	96.56
316.001	91.56
316.23	99.56
316.46	88.56
316.689	95.56
316.919	90.56
317.148	85.56
317.377	96.56
317.607	97.56
317.836	89.56
318.065	103.56
318.295	93.56
318.524	97.56
318.753	99.56
318.983	106.56
319.212	110.56
319.441	104.56
319.67	90.56
319.9	93.56
320.129	86.56
320.358	90.56
320.587	91.56
320.816	96.56
321.046	80.56
321.275	104.56
321.504	106.56
321.733	92.56
321.962	92.56
322.191	88.56
322.42	112.56
322.649	119.56
322.878	96.56
323.108	128.56
323.337	123.56
323.566	139.56
323.795	147.56
324.024	201.56
324.253	359.56
324.482	724.56
324.71	1450.56
324.939	1940.56
325.168	705.56
325.397	215.56
325.626	145.56
325.855	132.56
326.084	120.56
326.313	125.56
326.542	157.56
326.77	212.56
326.999	403.56
327.228	824.56
327.457	1526.56
327.686	1210.56
327.914	348.56
328.143	227.56
328.372	226.56
328.6	149.56
328.829	113.56
329.058	138.56
329.287	144.56
329.515	111.56
329.744	132.56
329.972	175.56
330.201	275.56
330.43	371.56
330.658	216.56
330.887	152.56
331.115	127.56
331.344	107.56
331.572	104.56
331.801	84.56
332.03	114.56
332.258	109.56
332.486	94.56
332.715	121.56
332.943	89.56
333.172	76.56
333.4	100.56
333.629	120.56
333.857	133.56
334.085	177.56
334.314	275.56
334.542	450.56
334.771	450.56
334.999	185.56
335.227	103.56
335.455	107.56
335.684	95.56
335.912	91.56
336.14	106.56
336.369	106.56
336.597	109.56
336.825	107.56
337.053	83.56
337.281	91.56
337.51	95.56
337.738	98.56
337.966	103.56
338.194	91.56
338.422	104.56
338.65	93.56
338.878	115.56
339.106	91.56
339.334	93.56
339.562	95.56
339.79	94.56
340.018	93.56
340.246	89.56
340.474	95.56
340.702	84.56
340.93	87.56
341.158	88.56
341.386	96.56
341.614	80.56
341.842	100.56
342.07	107.56
342.298	86.56
342.526	90.56
342.754	87.56
342.981	89.56
343.209	84.56
343.437	102.56
343.665	98.56
343.893	92.56
344.12	101.56
344.348	95.56
344.576	103.56
344.804	99.56
345.031	85.56
345.259	103.56
345.487	96.56
345.714	88.56
345.942	96.56
346.17	89.56
346.397	88.56
346.625	90.56
346.853	95.56
347.08	92.56
347.308	87.56
347.535	97.56
347.763	95.56
347.99	98.56
348.218	100.56
348.445	100.56
348.673	103.56
348.9	105.56
349.128	104.56
349.355	82.56
349.583	88.56
349.81	94.56
350.037	106.56
350.265	90.56
350.492	94.56
350.72	83.56
350.947	94.56
351.174	93.56
351.402	101.56
351.629	98.56
351.856	87.56
352.083	102.56
352.311	99.56
352.538	110.56
352.765	96.56
352.992	120.56
353.22	100.56
353.447	97.56
353.674	100.56
353.901	100.56
354.128	102.56
354.355	106.56
354.583	98.56
354.81	86.56
355.037	91.56
355.264	80.56
355.491	96.56
355.718	94.56
355.945	92.56
356.172	94.56
356.399	93.56
356.626	86.56
356.853	98.56
357.08	92.56
357.307	88.56
357.534	94.56
357.761	93.56
357.988	87.56
358.215	93.56
358.441	103.56
358.668	98.56
358.895	75.56
359.122	88.56
359.349	99.56
359.576	94.56
359.802	95.56
360.029	108.56
360.256	110.56
360.483	94.56
360.709	102.56
360.936	103.56
361.163	99.56
361.39	94.56
361.616	106.56
361.843	90.56
362.07	95.56
362.296	92.56
362.523	87.56
362.749	98.56
362.976	90.56
363.203	88.56
363.429	98.56
363.656	98.56
363.882	106.56
364.109	86.56
364.335	100.56
364.562	92.56
364.788	96.56
365.015	84.56
365.241	104.56
365.468	105.56
365.694	93.56
365.92	94.56
366.147	88.56
366.373	83.56
366.599	80.56
366.826	73.56
367.052	91.56
367.278	79.56
367.505	79.56
367.731	96.56
367.957	103.56
368.184	88.56
368.41	83.56
368.636	110.56
368.862	111.56
369.089	112.56
369.315	91.56
369.541	99.56
369.767	95.56
369.993	90.56
370.219	82.56
370.445	83.56
370.672	82.56
370.898	86.56
371.124	92.56
371.35	86.56
371.576	94.56
371.802	89.56
372.028	100.56
372.254	96.56
372.48	95.56
372.706	77.56
372.932	105.56
373.158	78.56
373.384	99.56
373.61	98.56
373.835	83.56
374.061	86.56
374.287	94.56
374.513	92.56
374.739	92.56
374.965	90.56
375.191	92.56
375.416	81.56
375.642	99.56
375.868	94.56
376.094	99.56
376.319	87.56
376.545	104.56
376.771	80.56
376.997	72.56
377.222	92.56
377.448	95.56
377.674	89.56
377.899	93.56
378.125	91.56
378.35	81.56
378.576	102.56
378.802	92.56
379.027	90.56
379.253	92.56
379.478	89.56
379.704	106.56
379.929	92.56
380.155	102.56
380.38	95.56
380.606	86.56
380.831	93.56
381.057	109.56
381.282	92.56
381.507	102.56
381.733	91.56
381.958	80.56
382.184	87.56
382.409	105.56
382.634	103.56
382.86	102.56
383.085	111.56
383.31	109.56
383.535	99.56
383.761	85.56
383.986	103.56
384.211	102.56
384.436	107.56
384.662	102.56
384.887	106.56
385.112	112.56
385.337	94.56
385.562	106.56
385.787	107.56
386.013	121.56
386.238	119.56
386.463	113.56
386.688	106.56
386.913	94.56
387.138	100.56
387.363	95.56
387.588	100.56
387.813	95.56
388.038	95.56
388.263	93.56
388.488	120.56
388.713	108.56
388.938	91.56
389.163	121.56
389.387	108.56
389.612	86.56
389.837	91.56
390.062	98.56
390.287	95.56
390.512	91.56
390.736	82.56
390.961	87.56
391.186	111.56
391.411	126.56
391.636	104.56
391.86	89.56
392.085	90.56
392.31	88.56
392.534	81.56
392.759	92.56
392.984	84.56
393.208	89.56
393.433	111.56
393.658	97.56
393.882	84.56
394.107	106.56
394.331	107.56
394.556	85.56
394.78	98.56
395.005	90.56
395.229	77.56
395.454	90.56
395.678	87.56
395.903	106.56
396.127	106.56
396.352	97.56
396.576	98.56
396.801	91.56
397.025	94.56
397.249	92.56
397.474	105.56
397.698	88.56
397.922	79.56
398.147	99.56
398.371	94.56
398.595	97.56
398.82	94.56
399.044	91.56
399.268	81.56
399.492	99.56
399.717	99.56
399.941	103.56
400.165	93.56
400.389	89.56
400.613	85.56
400.837	106.56
401.062	87.56
401.286	82.56
401.51	94.56
401.734	99.56
401.958	93.56
402.182	107.56
402.406	137.56
402.63	109.56
402.854	96.56
403.078	96.56
403.302	79.56
403.526	82.56
403.75	84.56
403.974	79.56
404.198	88.56
404.422	89.56
404.645	102.56
404.869	96.56
405.093	112.56
405.317	133.56
405.541	99.56
405.765	103.56
405.988	97.56
406.212	155.56
406.436	194.56
406.66	152.56
406.883	99.56
407.107	103.56
407.331	91.56
407.555	106.56
407.778	96.56
408.002	96.56
408.226	90.56
408.449	97.56
408.673	99.56
408.896	104.56
409.12	96.56
409.344	90.56
409.567	94.56
409.791	94.56
410.014	95.56
410.238	95.56
410.461	98.56
410.685	104.56
410.908	92.56
411.132	109.56
411.355	96.56
411.578	87.56
411.802	97.56
412.025	89.56
412.249	108.56
412.472	108.56
412.695	104.56
412.919	97.56
413.142	103.56
413.365	82.56
413.589	98.56
413.812	92.56
414.035	95.56
414.258	96.56
414.482	104.56
414.705	87.56
414.928	93.56
415.151	103.56
415.374	96.56
415.597	77.56
415.821	78.56
416.044	94.56
416.267	100.56
416.49	94.56
416.713	108.56
416.936	80.56
417.159	83.56
417.382	91.56
417.605	90.56
417.828	106.56
418.051	106.56
418.274	84.56
418.497	92.56
418.72	89.56
418.943	82.56
419.166	88.56
419.389	107.56
419.611	104.56
419.834	95.56
420.057	87.56
420.28	94.56
420.503	94.56
420.726	89.56
420.948	86.56
421.171	95.56
421.394	94.56
421.617	80.56
421.839	87.56
422.062	79.56
422.285	93.56
422.507	89.56
422.73	102.56
422.953	97.56
423.175	96.56
423.398	96.56
423.621	101.56
423.843	98.56
424.066	85.56
424.288	102.56
424.511	94.56
424.733	96.56
424.956	98.56
425.178	107.56
425.401	106.56
425.623	98.56
425.846	91.56
426.068	88.56
426.291	90.56
426.513	80.56
426.735	94.56
426.958	88.56
427.18	104.56
427.402	139.56
427.625	178.56
427.847	159.56
428.069	162.56
428.292	111.56
428.514	91.56
428.736	90.56
428.958	89.56
429.181	85.56
429.403	79.56
429.625	99.56
429.847	91.56
430.069	98.56
430.292	92.56
430.514	97.56
430.736	91.56
430.958	82.56
431.18	91.56
431.402	89.56
431.624	91.56
431.846	83.56
432.068	85.56
432.29	89.56
432.512	84.56
432.734	83.56
432.956	100.56
433.178	100.56
433.4	95.56
433.622	102.56
433.844	84.56
434.066	91.56
434.287	94.56
434.509	99.56
434.731	82.56
434.953	97.56
435.175	96.56
435.397	102.56
435.618	100.56
435.84	94.56
436.062	99.56
436.284	116.56
436.505	107.56
436.727	91.56
436.949	97.56
437.17	87.56
437.392	95.56
437.614	88.56
437.835	104.56
438.057	117.56
438.278	104.56
438.5	97.56
438.721	125.56
438.943	124.56
439.165	91.56
439.386	96.56
439.608	94.56
439.829	118.56
440.05	109.56
440.272	126.56
440.493	108.56
440.715	90.56
440.936	84.56
441.158	89.56
441.379	83.56
441.6	90.56
441.822	107.56
442.043	94.56
442.264	101.56
442.486	106.56
442.707	98.56
442.928	110.56
443.149	124.56
443.371	131.56
443.592	119.56
443.813	108.56
444.034	105.56
444.255	101.56
444.476	102.56
444.698	93.56
444.919	101.56
445.14	146.56
445.361	130.56
445.582	103.56
445.803	148.56
446.024	140.56
446.245	145.56
446.466	113.56
446.687	88.56
446.908	99.56
447.129	89.56
447.35	103.56
447.571	102.56
447.792	92.56
448.013	98.56
448.234	104.56
448.455	89.56
448.675	114.56
448.896	121.56
449.117	87.56
449.338	98.56
449.559	134.56
449.779	137.56
450	94.56
450.221	89.56
450.442	88.56
450.662	96.56
450.883	90.56
451.104	98.56
451.324	88.56
451.545	81.56
451.766	84.56
451.986	89.56
452.207	96.56
452.428	95.56
452.648	113.56
452.869	119.56
453.089	105.56
453.31	102.56
453.53	85.56
453.751	89.56
453.971	118.56
454.192	109.56
454.412	95.56
454.633	107.56
454.853	88.56
455.073	89.56
455.294	98.56
455.514	95.56
455.734	86.56
455.955	89.56
456.175	92.56
456.395	91.56
456.616	88.56
456.836	98.56
457.056	91.56
457.276	90.56
457.497	81.56
457.717	89.56
457.937	86.56
458.157	93.56
458.377	69.56
458.598	120.56
458.818	134.56
459.038	151.56
459.258	116.56
459.478	94.56
459.698	95.56
459.918	81.56
460.138	90.56
460.358	72.56
460.578	89.56
460.798	88.56
461.018	89.56
461.238	85.56
461.458	88.56
461.678	80.56
461.898	82.56
462.118	81.56
462.338	86.56
462.558	80.56
462.777	78.56
462.997	95.56
463.217	86.56
463.437	96.56
463.657	96.56
463.876	100.56
464.096	95.56
464.316	79.56
464.536	93.56
464.755	88.56
464.975	95.56
465.195	141.56
465.414	150.56
465.634	93.56
465.854	92.56
466.073	102.56
466.293	95.56
466.512	92.56
466.732	99.56
466.951	91.56
467.171	86.56
467.391	87.56
467.61	101.56
467.829	120.56
468.049	184.56
468.268	220.56
468.488	105.56
468.707	102.56
468.927	94.56
469.146	84.56
469.365	97.56
469.585	96.56
469.804	85.56
470.023	92.56
470.243	95.56
470.462	99.56
470.681	114.56
470.901	86.56
471.12	93.56
471.339	94.56
471.558	95.56
471.777	116.56
471.997	121.56
472.216	313.56
472.435	572.56
472.654	194.56
472.873	103.56
473.092	102.56
473.311	93.56
473.53	95.56
473.749	100.56
473.968	109.56
474.187	113.56
474.406	108.56
474.625	84.56
474.844	87.56
475.063	93.56
475.282	95.56
475.501	87.56
475.72	97.56
475.939	94.56
476.158	88.56
476.377	98.56
476.596	88.56
476.814	103.56
477.033	91.56
477.252	85.56
477.471	99.56
477.69	102.56
477.908	84.56
478.127	100.56
478.346	86.56
478.564	83.56
478.783	104.56
479.002	87.56
479.22	95.56
479.439	104.56
479.658	101.56
479.876	105.56
480.095	105.56
480.313	98.56
480.532	118.56
480.751	134.56
480.969	301.56
481.188	972.56
481.406	614.56
481.624	169.56
481.843	89.56
482.061	95.56
482.28	90.56
482.498	90.56
482.717	100.56
482.935	80.56
483.153	88.56
483.372	77.56
483.59	90.56
483.808	84.56
484.027	92.56
484.245	98.56
484.463	89.56
484.681	90.56
484.9	92.56
485.118	100.56
485.336	104.56
485.554	94.56
485.772	105.56
485.99	108.56
486.209	98.56
486.427	99.56
486.645	124.56
486.863	102.56
487.081	107.56
487.299	96.56
487.517	95.56
487.735	94.56
487.953	94.56
488.171	93.56
488.389	101.56
488.607	98.56
488.825	91.56
489.043	94.56
489.261	91.56
489.479	86.56
489.696	97.56
489.914	95.56
490.132	93.56
490.35	87.56
490.568	90.56
490.786	82.56
491.003	95.56
491.221	106.56
491.439	99.56
491.657	97.56
491.874	97.56
492.092	88.56
492.31	93.56
492.527	92.56
492.745	88.56
492.963	84.56
493.18	88.56
493.398	95.56
493.615	89.56
493.833	95.56
494.05	88.56
494.268	94.56
494.485	87.56
494.703	100.56
494.92	87.56
495.138	97.56
495.355	95.56
495.573	73.56
495.79	88.56
496.008	88.56
496.225	87.56
496.442	89.56
496.66	96.56
496.877	95.56
497.094	89.56
497.312	97.56
497.529	88.56
497.746	96.56
497.963	91.56
498.181	98.56
498.398	108.56
498.615	106.56
498.832	95.56
499.049	93.56
499.267	88.56
499.484	96.56
499.701	99.56
499.918	98.56
500.135	75.56
500.352	93.56
500.569	102.56
500.786	91.56
501.003	102.56
501.22	84.56
501.437	90.56
501.654	107.56
501.871	98.56
502.088	87.56
502.305	101.56
502.522	82.56
502.739	101.56
502.956	91.56
503.172	103.56
503.389	93.56
503.606	108.56
503.823	91.56
504.04	91.56
504.256	82.56
504.473	91.56
504.69	86.56
504.907	94.56
505.123	79.56
505.34	93.56
505.557	92.56
505.773	92.56
505.99	87.56
506.207	91.56
506.423	93.56
506.64	105.56
506.856	80.56
507.073	107.56
507.289	83.56
507.506	90.56
507.722	102.56
507.939	111.56
508.155	92.56
508.372	112.56
508.588	96.56
508.805	92.56
509.021	98.56
509.238	96.56
509.454	90.56
509.67	91.56
509.887	95.56
510.103	108.56
510.319	175.56
510.536	526.56
510.752	1619.56
510.968	503.56
511.184	142.56
511.401	124.56
511.617	96.56
511.833	81.56
512.049	99.56
512.265	101.56
512.481	111.56
512.698	84.56
512.914	79.56
513.13	87.56
513.346	97.56
513.562	95.56
513.778	106.56
513.994	78.56
514.21	104.56
514.426	111.56
514.642	104.56
514.858	119.56
515.074	142.56
