Data from Circ_2010_H10_HRD10591_00047.txt Node
Date: Wed Jan 03 10:09:50 EST 2024
User: Yrep
Spectrometer: HR+D1059
Trigger mode: 1
Integration Time (sec): 1.000000E-1
Scans to average: 1
Electric dark correction enabled: true
Nonlinearity correction enabled: false
Boxcar width: 0
XAxis mode: Wavelengths
Number of Pixels in Spectrum: 2048
>>>>>Begin Spectral Data<<<<<
223.165	-9.31
223.4	-9.31
223.635	-9.31
223.869	-10.31
224.104	-3.31
224.338	-22.31
224.573	-17.31
224.808	-13.31
225.042	2.69
225.277	-15.31
225.511	-11.31
225.746	4.69
225.98	7.69
226.215	9.69
226.449	18.69
226.683	13.69
226.918	10.69
227.152	34.69
227.387	24.69
227.621	30.69
227.856	37.69
228.09	44.69
228.324	54.69
228.559	50.69
228.793	148.69
229.027	444.69
229.262	495.69
229.496	593.69
229.73	734.69
229.964	740.69
230.199	506.69
230.433	456.69
230.667	458.69
230.901	443.69
231.136	431.69
231.37	430.69
231.604	431.69
231.838	428.69
232.072	438.69
232.306	454.69
232.541	451.69
232.775	454.69
233.009	467.69
233.243	436.69
233.477	463.69
233.711	477.69
233.945	472.69
234.179	490.69
234.413	492.69
234.647	495.69
234.881	490.69
235.115	472.69
235.349	516.69
235.583	537.69
235.817	573.69
236.051	601.69
236.285	583.69
236.519	605.69
236.753	689.69
236.987	856.69
237.221	1278.69
237.455	1374.69
237.689	815.69
237.922	699.69
238.156	655.69
238.39	649.69
238.624	634.69
238.858	609.69
239.091	643.69
239.325	640.69
239.559	658.69
239.793	667.69
240.027	712.69
240.26	882.69
240.494	910.69
240.728	872.69
240.961	876.69
241.195	771.69
241.429	763.69
241.662	730.69
241.896	773.69
242.13	774.69
242.363	768.69
242.597	774.69
242.83	813.69
243.064	790.69
243.298	830.69
243.531	814.69
243.765	811.69
243.998	800.69
244.232	841.69
244.465	852.69
244.699	872.69
244.932	861.69
245.166	872.69
245.399	878.69
245.633	850.69
245.866	883.69
246.099	906.69
246.333	925.69
246.566	919.69
246.8	911.69
247.033	966.69
247.266	1021.69
247.5	1048.69
247.733	1106.69
247.966	1117.69
248.2	1121.69
248.433	1129.69
248.666	1159.69
248.899	1278.69
249.133	1406.69
249.366	1391.69
249.599	1279.69
249.832	1238.69
250.066	1308.69
250.299	1530.69
250.532	1837.69
250.765	1902.69
250.998	1850.69
251.231	1644.69
251.465	1469.69
251.698	1420.69
251.931	1369.69
252.164	1342.69
252.397	1325.69
252.63	1406.69
252.863	1481.69
253.096	1586.69
253.329	1608.69
253.562	1532.69
253.795	1517.69
254.028	1528.69
254.261	1594.69
254.494	1758.69
254.727	2046.69
254.96	2109.69
255.193	1902.69
255.426	1802.69
255.659	1928.69
255.892	2358.69
256.124	2859.69
256.357	2572.69
256.59	2038.69
256.823	1784.69
257.056	1642.69
257.289	1604.69
257.521	1576.69
257.754	1550.69
257.987	1526.69
258.22	1514.69
258.452	1523.69
258.685	1525.69
258.918	1553.69
259.151	1574.69
259.383	1632.69
259.616	1661.69
259.849	1668.69
260.081	1830.69
260.314	1970.69
260.547	1871.69
260.779	1732.69
261.012	1674.69
261.244	1637.69
261.477	1602.69
261.71	1627.69
261.942	1689.69
262.175	1700.69
262.407	1634.69
262.64	1582.69
262.872	1599.69
263.105	1586.69
263.337	1554.69
263.57	1587.69
263.802	1610.69
264.035	1551.69
264.267	1606.69
264.499	1605.69
264.732	1639.69
264.964	1658.69
265.197	1624.69
265.429	1664.69
265.661	1662.69
265.894	1648.69
266.126	1674.69
266.358	1667.69
266.591	1726.69
266.823	1772.69
267.055	1794.69
267.287	1790.69
267.52	1753.69
267.752	1787.69
267.984	1788.69
268.216	1827.69
268.448	1802.69
268.681	1923.69
268.913	2017.69
269.145	2199.69
269.377	2191.69
269.609	2121.69
269.841	2133.69
270.073	2248.69
270.306	2472.69
270.538	2617.69
270.77	2446.69
271.002	2316.69
271.234	2321.69
271.466	2477.69
271.698	2591.69
271.93	2580.69
272.162	2543.69
272.394	2499.69
272.626	2373.69
272.858	2246.69
273.09	2177.69
273.322	2171.69
273.553	2148.69
273.785	2131.69
274.017	2170.69
274.249	2177.69
274.481	2184.69
274.713	2187.69
274.945	2234.69
275.176	2238.69
275.408	2198.69
275.64	2237.69
275.872	2196.69
276.104	2281.69
276.335	2350.69
276.567	2356.69
276.799	2525.69
277.031	2742.69
277.262	2854.69
277.494	2670.69
277.726	2538.69
277.957	2452.69
278.189	2399.69
278.421	2339.69
278.652	2319.69
278.884	2346.69
279.115	2306.69
279.347	2347.69
279.579	2320.69
279.81	2390.69
280.042	2413.69
280.273	2498.69
280.505	2488.69
280.736	2448.69
280.968	2416.69
281.199	2394.69
281.431	2412.69
281.662	2403.69
281.894	2440.69
282.125	2468.69
282.356	2636.69
282.588	2755.69
282.819	2602.69
283.051	2520.69
283.282	2490.69
283.513	2500.69
283.745	2558.69
283.976	2552.69
284.207	2571.69
284.439	2556.69
284.67	2531.69
284.901	2533.69
285.132	2563.69
285.364	2544.69
285.595	2560.69
285.826	2575.69
286.057	2613.69
286.288	2601.69
286.52	2629.69
286.751	2623.69
286.982	2634.69
287.213	2678.69
287.444	2667.69
287.675	2731.69
287.906	2794.69
288.138	2896.69
288.369	2842.69
288.6	2778.69
288.831	2786.69
289.062	2745.69
289.293	2721.69
289.524	2716.69
289.755	2695.69
289.986	2770.69
290.217	2704.69
290.448	2745.69
290.679	2763.69
290.91	2710.69
291.141	2681.69
291.371	2703.69
291.602	2750.69
291.833	2702.69
292.064	2751.69
292.295	2703.69
292.526	2717.69
292.757	2716.69
292.987	2682.69
293.218	2675.69
293.449	2785.69
293.68	2735.69
293.91	2750.69
294.141	2726.69
294.372	2720.69
294.603	2776.69
294.833	2778.69
295.064	2812.69
295.295	2790.69
295.525	2773.69
295.756	2866.69
295.987	2953.69
296.217	3036.69
296.448	3013.69
296.679	2882.69
296.909	2851.69
297.14	2849.69
297.37	2873.69
297.601	2949.69
297.831	2946.69
298.062	2997.69
298.292	2976.69
298.523	3010.69
298.753	3016.69
298.984	2975.69
299.214	3005.69
299.445	2995.69
299.675	2999.69
299.905	3070.69
300.136	3041.69
300.366	3053.69
300.597	3107.69
300.827	3118.69
301.057	3229.69
301.288	3255.69
301.518	3230.69
301.748	3222.69
301.979	3320.69
302.209	3257.69
302.439	3271.69
302.669	3263.69
302.9	3184.69
303.13	3165.69
303.36	3259.69
303.59	3321.69
303.82	3318.69
304.051	3251.69
304.281	3246.69
304.511	3159.69
304.741	3166.69
304.971	3163.69
305.201	3177.69
305.431	3119.69
305.661	3111.69
305.891	3145.69
306.121	3190.69
306.352	3200.69
306.582	3196.69
306.812	3157.69
307.042	3215.69
307.272	3187.69
307.502	3207.69
307.731	3195.69
307.961	3184.69
308.191	3154.69
308.421	3182.69
308.651	3223.69
308.881	3214.69
309.111	3218.69
309.341	3261.69
309.571	3382.69
309.8	3416.69
310.03	3466.69
310.26	3472.69
310.49	3469.69
310.72	3628.69
310.949	3624.69
311.179	3624.69
311.409	3535.69
311.639	3505.69
311.868	3535.69
312.098	3581.69
312.328	3648.69
312.557	3756.69
312.787	3801.69
313.017	3691.69
313.246	3674.69
313.476	3613.69
313.706	3636.69
313.935	3742.69
314.165	3747.69
314.394	3828.69
314.624	3740.69
314.853	3673.69
315.083	3627.69
315.312	3585.69
315.542	3603.69
315.771	3556.69
316.001	3540.69
316.23	3584.69
316.46	3592.69
316.689	3603.69
316.919	3658.69
317.148	3706.69
317.377	3634.69
317.607	3629.69
317.836	3606.69
318.065	3606.69
318.295	3609.69
318.524	3576.69
318.753	3601.69
318.983	3566.69
319.212	3591.69
319.441	3658.69
319.67	3615.69
319.9	3635.69
320.129	3599.69
320.358	3641.69
320.587	3662.69
320.816	3737.69
321.046	3765.69
321.275	3678.69
321.504	3713.69
321.733	3809.69
321.962	3836.69
322.191	3876.69
322.42	3992.69
322.649	4092.69
322.878	4203.69
323.108	4311.69
323.337	4446.69
323.566	4630.69
323.795	4858.69
324.024	5513.69
324.253	7236.69
324.482	10877.69
324.71	15153.69
324.939	15600.69
325.168	12535.69
325.397	6336.69
325.626	5144.69
325.855	4796.69
326.084	4678.69
326.313	4710.69
326.542	4907.69
326.77	5551.69
326.999	7068.69
327.228	10264.69
327.457	14325.69
327.686	13403.69
327.914	7536.69
328.143	6442.69
328.372	6361.69
328.6	5752.69
328.829	5447.69
329.058	5652.69
329.287	5632.69
329.515	5422.69
329.744	5570.69
329.972	6199.69
330.201	7200.69
330.43	7847.69
330.658	6795.69
330.887	6386.69
331.115	5675.69
331.344	5200.69
331.572	5011.69
331.801	5130.69
332.03	5098.69
332.258	5109.69
332.486	5112.69
332.715	5191.69
332.943	5470.69
333.172	5589.69
333.4	5842.69
333.629	6192.69
333.857	6590.69
334.085	7300.69
334.314	8394.69
334.542	9734.69
334.771	9034.69
334.999	6629.69
335.227	5910.69
335.455	5554.69
335.684	5305.69
335.912	5136.69
336.14	5072.69
336.369	5002.69
336.597	5070.69
336.825	5020.69
337.053	4805.69
337.281	4758.69
337.51	4683.69
337.738	4667.69
337.966	4597.69
338.194	4596.69
338.422	4533.69
338.65	4428.69
338.878	4456.69
339.106	4440.69
339.334	4395.69
339.562	4411.69
339.79	4322.69
340.018	4319.69
340.246	4322.69
340.474	4279.69
340.702	4308.69
340.93	4253.69
341.158	4298.69
341.386	4245.69
341.614	4285.69
341.842	4216.69
342.07	4166.69
342.298	4164.69
342.526	4165.69
342.754	4175.69
342.981	4210.69
343.209	4270.69
343.437	4494.69
343.665	4770.69
343.893	5040.69
344.12	4968.69
344.348	4825.69
344.576	4644.69
344.804	4538.69
345.031	4510.69
345.259	4482.69
345.487	4349.69
345.714	4250.69
345.942	4141.69
346.17	4079.69
346.397	4098.69
346.625	4141.69
346.853	3995.69
347.08	4058.69
347.308	4045.69
347.535	4199.69
347.763	4230.69
347.99	4140.69
348.218	4202.69
348.445	4176.69
348.673	4133.69
348.9	4053.69
349.128	4012.69
349.355	3922.69
349.583	3902.69
349.81	3933.69
350.037	3913.69
350.265	3904.69
350.492	3938.69
350.72	4018.69
350.947	3936.69
351.174	4078.69
351.402	4062.69
351.629	4083.69
351.856	4088.69
352.083	4101.69
352.311	4148.69
352.538	4111.69
352.765	4120.69
352.992	4044.69
353.22	3987.69
353.447	3964.69
353.674	3932.69
353.901	3901.69
354.128	3869.69
354.355	3878.69
354.583	3881.69
354.81	3826.69
355.037	3819.69
355.264	3814.69
355.491	3819.69
355.718	3891.69
355.945	3837.69
356.172	3788.69
356.399	3876.69
356.626	3818.69
356.853	3801.69
357.08	3828.69
357.307	3844.69
357.534	3911.69
357.761	3876.69
357.988	3908.69
358.215	3870.69
358.441	3862.69
358.668	3891.69
358.895	3903.69
359.122	3941.69
359.349	3974.69
359.576	4144.69
359.802	4291.69
360.029	4497.69
360.256	4437.69
360.483	4290.69
360.709	4182.69
360.936	4066.69
361.163	4084.69
361.39	4093.69
361.616	4106.69
361.843	4006.69
362.07	4064.69
362.296	4063.69
362.523	4041.69
362.749	4043.69
362.976	3970.69
363.203	3964.69
363.429	3902.69
363.656	3996.69
363.882	3964.69
364.109	3858.69
364.335	3929.69
364.562	3868.69
364.788	3909.69
365.015	3927.69
365.241	3896.69
365.468	3936.69
365.694	3998.69
365.92	4035.69
366.147	3922.69
366.373	3913.69
366.599	3995.69
366.826	3898.69
367.052	3951.69
367.278	3949.69
367.505	3878.69
367.731	3988.69
367.957	3972.69
368.184	3965.69
368.41	4016.69
368.636	4136.69
368.862	4079.69
369.089	4067.69
369.315	4001.69
369.541	3983.69
369.767	4049.69
369.993	3986.69
370.219	4076.69
370.445	4064.69
370.672	4071.69
370.898	4113.69
371.124	4114.69
371.35	4260.69
371.576	4116.69
371.802	4168.69
372.028	4125.69
372.254	4176.69
372.48	4266.69
372.706	4272.69
372.932	4379.69
373.158	4264.69
373.384	4248.69
373.61	4238.69
373.835	4219.69
374.061	4255.69
374.287	4349.69
374.513	4429.69
374.739	4510.69
374.965	4582.69
375.191	4584.69
375.416	4540.69
375.642	4364.69
375.868	4381.69
376.094	4280.69
376.319	4218.69
376.545	4230.69
376.771	4225.69
376.997	4256.69
377.222	4195.69
377.448	4208.69
377.674	4152.69
377.899	4163.69
378.125	4104.69
378.35	4172.69
378.576	4139.69
378.802	4128.69
379.027	4146.69
379.253	4106.69
379.478	4141.69
379.704	4129.69
379.929	4166.69
380.155	4185.69
380.38	4145.69
380.606	4197.69
380.831	4183.69
381.057	4179.69
381.282	4148.69
381.507	4192.69
381.733	4262.69
381.958	4297.69
382.184	4388.69
382.409	4338.69
382.634	4374.69
382.86	4364.69
383.085	4440.69
383.31	4551.69
383.535	4653.69
383.761	4575.69
383.986	4722.69
384.211	4698.69
384.436	4854.69
384.662	4876.69
384.887	4990.69
385.112	4898.69
385.337	5006.69
385.562	4984.69
385.787	5057.69
386.013	5160.69
386.238	5113.69
386.463	5160.69
386.688	5087.69
386.913	4952.69
387.138	4947.69
387.363	4967.69
387.588	4866.69
387.813	4955.69
388.038	4935.69
388.263	4956.69
388.488	4982.69
388.713	4974.69
388.938	4932.69
389.163	4919.69
389.387	4968.69
389.612	4895.69
389.837	4934.69
390.062	4894.69
390.287	4918.69
390.512	4931.69
390.736	4994.69
390.961	5124.69
391.186	5119.69
391.411	5291.69
391.636	5443.69
391.86	5504.69
392.085	5539.69
392.31	5515.69
392.534	5401.69
392.759	5327.69
392.984	5210.69
393.208	5223.69
393.433	5175.69
393.658	5162.69
393.882	5165.69
394.107	5195.69
394.331	5245.69
394.556	5216.69
394.78	5315.69
395.005	5365.69
395.229	5341.69
395.454	5451.69
395.678	5624.69
395.903	5531.69
396.127	5591.69
396.352	5471.69
396.576	5270.69
396.801	5317.69
397.025	5340.69
397.249	5435.69
397.474	5586.69
397.698	5609.69
397.922	5771.69
398.147	5876.69
398.371	5976.69
398.595	6132.69
398.82	6383.69
399.044	6953.69
399.268	7717.69
399.492	8636.69
399.717	9242.69
399.941	9026.69
400.165	8358.69
400.389	7781.69
400.613	6966.69
400.837	6580.69
401.062	6389.69
401.286	6354.69
401.51	6291.69
401.734	6261.69
401.958	6422.69
402.182	6521.69
402.406	6608.69
402.63	6716.69
402.854	6796.69
403.078	6835.69
403.302	6965.69
403.526	7101.69
403.75	7108.69
403.974	7247.69
404.198	7187.69
404.422	7388.69
404.645	7378.69
404.869	7564.69
405.093	7956.69
405.317	8293.69
405.541	8326.69
405.765	7527.69
405.988	7251.69
406.212	7261.69
406.436	7473.69
406.66	7542.69
406.883	7470.69
407.107	8097.69
407.331	8503.69
407.555	9088.69
407.778	8653.69
408.002	8021.69
408.226	7664.69
408.449	7551.69
408.673	7408.69
408.896	7531.69
409.12	7638.69
409.344	7228.69
409.567	6899.69
409.791	6872.69
410.014	6831.69
410.238	6752.69
410.461	6824.69
410.685	6895.69
410.908	6909.69
411.132	7101.69
411.355	7105.69
411.578	6785.69
411.802	6601.69
412.025	6747.69
412.249	7157.69
412.472	7579.69
412.695	7974.69
412.919	7419.69
413.142	6917.69
413.365	6675.69
413.589	6555.69
413.812	6321.69
414.035	6233.69
414.258	6285.69
414.482	6348.69
414.705	6412.69
414.928	6257.69
415.151	6217.69
415.374	6218.69
415.597	6245.69
415.821	6170.69
416.044	6158.69
416.267	6046.69
416.49	6047.69
416.713	6030.69
416.936	6063.69
417.159	6207.69
417.382	6251.69
417.605	6288.69
417.828	6441.69
418.051	6507.69
418.274	6381.69
418.497	6147.69
418.72	6347.69
418.943	6374.69
419.166	6661.69
419.389	7201.69
419.611	6882.69
419.834	6860.69
420.057	6913.69
420.28	7030.69
420.503	6908.69
420.726	6650.69
420.948	6656.69
421.171	7022.69
421.394	6926.69
421.617	6413.69
421.839	6357.69
422.062	6472.69
422.285	6584.69
422.507	7180.69
422.73	7610.69
422.953	7046.69
423.175	6761.69
423.398	6740.69
423.621	6768.69
423.843	6939.69
424.066	6927.69
424.288	6818.69
424.511	6998.69
424.733	7594.69
424.956	7917.69
425.178	7425.69
425.401	7606.69
425.623	7394.69
425.846	6567.69
426.068	6429.69
426.291	6319.69
426.513	6285.69
426.735	6377.69
426.958	6831.69
427.18	7591.69
427.402	8677.69
427.625	8892.69
427.847	7981.69
428.069	7566.69
428.292	6560.69
428.514	5954.69
428.736	5823.69
428.958	5802.69
429.181	5608.69
429.403	5568.69
429.625	5829.69
429.847	6125.69
430.069	6524.69
430.292	6124.69
430.514	5632.69
430.736	5590.69
430.958	5573.69
431.18	5437.69
431.402	5496.69
431.624	5406.69
431.846	5499.69
432.068	5577.69
432.29	5608.69
432.512	5515.69
432.734	5665.69
432.956	5569.69
433.178	5625.69
433.4	5599.69
433.622	5558.69
433.844	5568.69
434.066	5565.69
434.287	5644.69
434.509	5836.69
434.731	6087.69
434.953	6282.69
435.175	6361.69
435.397	6461.69
435.618	6381.69
435.84	6782.69
436.062	7433.69
436.284	7398.69
436.505	6252.69
436.727	5993.69
436.949	5662.69
437.17	5591.69
437.392	5610.69
437.614	5804.69
437.835	6145.69
438.057	7010.69
438.278	7597.69
438.5	7570.69
438.721	8280.69
438.943	7244.69
439.165	6092.69
439.386	5901.69
439.608	6019.69
439.829	6141.69
440.05	6488.69
440.272	6815.69
440.493	6119.69
440.715	5950.69
440.936	5861.69
441.158	5910.69
441.379	6022.69
441.6	6293.69
441.822	6653.69
442.043	7023.69
442.264	7663.69
442.486	7340.69
442.707	6625.69
442.928	6492.69
443.149	6692.69
443.371	6906.69
443.592	7421.69
443.813	8260.69
444.034	8169.69
444.255	7226.69
444.476	7005.69
444.698	7155.69
444.919	7279.69
445.14	7166.69
445.361	7011.69
445.582	7126.69
445.803	7783.69
446.024	8244.69
446.245	7977.69
446.466	7135.69
446.687	6174.69
446.908	5892.69
447.129	5621.69
447.35	5450.69
447.571	5392.69
447.792	5316.69
448.013	5469.69
448.234	5619.69
448.455	6318.69
448.675	7414.69
448.896	7790.69
449.117	6466.69
449.338	6607.69
449.559	7910.69
449.779	8068.69
450	6178.69
450.221	5517.69
450.442	5304.69
450.662	5304.69
450.883	5383.69
451.104	5443.69
451.324	5275.69
451.545	5091.69
451.766	5051.69
451.986	4921.69
452.207	4853.69
452.428	4890.69
452.648	4838.69
452.869	4904.69
453.089	4956.69
453.31	5153.69
453.53	4895.69
453.751	4894.69
453.971	4888.69
454.192	5021.69
454.412	4741.69
454.633	4780.69
454.853	4708.69
455.073	4714.69
455.294	5147.69
455.514	5563.69
455.734	5162.69
455.955	4647.69
456.175	4593.69
456.395	4480.69
456.616	4469.69
456.836	4554.69
457.056	4542.69
457.276	4397.69
457.497	4621.69
457.717	4610.69
457.937	4698.69
458.157	4710.69
458.377	4800.69
458.598	5161.69
458.818	5912.69
459.038	6548.69
459.258	6349.69
459.478	5698.69
459.698	5646.69
459.918	5654.69
460.138	5833.69
460.358	6081.69
460.578	6116.69
460.798	6148.69
461.018	6198.69
461.238	6060.69
461.458	6027.69
461.678	5979.69
461.898	6147.69
462.118	6160.69
462.338	6509.69
462.558	6685.69
462.777	6858.69
462.997	7460.69
463.217	7832.69
463.437	7617.69
463.657	7122.69
463.876	6845.69
464.096	7007.69
464.316	6945.69
464.536	6957.69
464.755	6847.69
464.975	6623.69
465.195	6814.69
465.414	6918.69
465.634	6035.69
465.854	5673.69
466.073	5508.69
466.293	5303.69
466.512	5112.69
466.732	5073.69
466.951	5074.69
467.171	5061.69
467.391	5169.69
467.61	5257.69
467.829	5292.69
468.049	5417.69
468.268	5707.69
468.488	5193.69
468.707	5091.69
468.927	5022.69
469.146	4938.69
469.365	4967.69
469.585	5006.69
469.804	5190.69
470.023	5343.69
470.243	5303.69
470.462	5380.69
470.681	5469.69
470.901	5415.69
471.12	5300.69
471.339	5199.69
471.558	5213.69
471.777	5229.69
471.997	5264.69
472.216	5976.69
472.435	7441.69
472.654	6294.69
472.873	5427.69
473.092	5159.69
473.311	5073.69
473.53	5092.69
473.749	5171.69
473.968	5629.69
474.187	6586.69
474.406	6082.69
474.625	5184.69
474.844	4964.69
475.063	4900.69
475.282	4992.69
475.501	4997.69
475.72	5033.69
475.939	5039.69
476.158	5085.69
476.377	5138.69
476.596	5113.69
476.814	5231.69
477.033	5297.69
477.252	5337.69
477.471	5446.69
477.69	5560.69
477.908	5684.69
478.127	5804.69
478.346	5834.69
478.564	5972.69
478.783	6115.69
479.002	6168.69
479.22	6198.69
479.439	6337.69
479.658	6489.69
479.876	6477.69
480.095	6740.69
480.313	7105.69
480.532	7066.69
480.751	7204.69
480.969	7812.69
481.188	10602.69
481.406	10514.69
481.624	7964.69
481.843	6972.69
482.061	6595.69
482.28	6321.69
482.498	6087.69
482.717	6029.69
482.935	5989.69
483.153	5923.69
483.372	5837.69
483.59	5911.69
483.808	5868.69
484.027	5901.69
484.245	5902.69
484.463	6008.69
484.681	5980.69
484.9	6063.69
485.118	6072.69
485.336	6076.69
485.554	6159.69
485.772	6172.69
485.99	6253.69
486.209	6248.69
486.427	6252.69
486.645	6333.69
486.863	6448.69
487.081	6431.69
487.299	6285.69
487.517	6188.69
487.735	6219.69
487.953	6248.69
