Data from Circ_2010_H10_HRD10591_00043.txt Node
Date: Wed Jan 03 10:09:49 EST 2024
User: Yrep
Spectrometer: HR+D1059
Trigger mode: 1
Integration Time (sec): 1.000000E-1
Scans to average: 1
Electric dark correction enabled: true
Nonlinearity correction enabled: false
Boxcar width: 0
XAxis mode: Wavelengths
Number of Pixels in Spectrum: 2048
>>>>>Begin Spectral Data<<<<<
223.165	-12.81
223.4	-12.81
223.635	-12.81
223.869	-17.81
224.104	-3.81
224.338	-19.81
224.573	-18.81
224.808	-9.81
225.042	-8.81
225.277	-3.81
225.511	-9.81
225.746	3.19
225.98	1.19
226.215	6.19
226.449	11.19
226.683	27.19
226.918	28.19
227.152	28.19
227.387	47.19
227.621	31.19
227.856	46.19
228.09	55.19
228.324	72.19
228.559	55.19
228.793	57.19
229.027	73.19
229.262	68.19
229.496	78.19
229.73	73.19
229.964	94.19
230.199	84.19
230.433	75.19
230.667	78.19
230.901	84.19
231.136	72.19
231.37	76.19
231.604	89.19
231.838	91.19
232.072	81.19
232.306	72.19
232.541	88.19
232.775	84.19
233.009	80.19
233.243	81.19
233.477	79.19
233.711	81.19
233.945	86.19
234.179	83.19
234.413	100.19
234.647	81.19
234.881	75.19
235.115	74.19
235.349	72.19
235.583	79.19
235.817	86.19
236.051	84.19
236.285	81.19
236.519	80.19
236.753	86.19
236.987	87.19
237.221	80.19
237.455	81.19
237.689	70.19
237.922	79.19
238.156	82.19
238.39	76.19
238.624	79.19
238.858	71.19
239.091	79.19
239.325	86.19
239.559	84.19
239.793	82.19
240.027	91.19
240.26	77.19
240.494	92.19
240.728	78.19
240.961	68.19
241.195	72.19
241.429	80.19
241.662	80.19
241.896	82.19
242.13	82.19
242.363	72.19
242.597	74.19
242.83	70.19
243.064	81.19
243.298	87.19
243.531	87.19
243.765	83.19
243.998	72.19
244.232	73.19
244.465	90.19
244.699	86.19
244.932	72.19
245.166	61.19
245.399	76.19
245.633	73.19
245.866	97.19
246.099	79.19
246.333	70.19
246.566	81.19
246.8	89.19
247.033	76.19
247.266	76.19
247.5	75.19
247.733	79.19
247.966	81.19
248.2	71.19
248.433	65.19
248.666	78.19
248.899	94.19
249.133	86.19
249.366	88.19
249.599	99.19
249.832	82.19
250.066	77.19
250.299	88.19
250.532	87.19
250.765	84.19
250.998	85.19
251.231	70.19
251.465	77.19
251.698	91.19
251.931	80.19
252.164	81.19
252.397	80.19
252.63	88.19
252.863	88.19
253.096	84.19
253.329	88.19
253.562	80.19
253.795	78.19
254.028	95.19
254.261	88.19
254.494	82.19
254.727	84.19
254.96	85.19
255.193	82.19
255.426	65.19
255.659	76.19
255.892	89.19
256.124	92.19
256.357	81.19
256.59	76.19
256.823	83.19
257.056	94.19
257.289	76.19
257.521	80.19
257.754	76.19
257.987	79.19
258.22	71.19
258.452	91.19
258.685	80.19
258.918	79.19
259.151	75.19
259.383	77.19
259.616	84.19
259.849	88.19
260.081	75.19
260.314	88.19
260.547	74.19
260.779	83.19
261.012	90.19
261.244	87.19
261.477	105.19
261.71	92.19
261.942	124.19
262.175	105.19
262.407	94.19
262.64	83.19
262.872	83.19
263.105	88.19
263.337	88.19
263.57	87.19
263.802	83.19
264.035	95.19
264.267	82.19
264.499	93.19
264.732	79.19
264.964	74.19
265.197	81.19
265.429	91.19
265.661	86.19
265.894	83.19
266.126	86.19
266.358	88.19
266.591	81.19
266.823	86.19
267.055	95.19
267.287	94.19
267.52	95.19
267.752	99.19
267.984	80.19
268.216	85.19
268.448	83.19
268.681	87.19
268.913	87.19
269.145	91.19
269.377	89.19
269.609	86.19
269.841	102.19
270.073	88.19
270.306	82.19
270.538	81.19
270.77	79.19
271.002	76.19
271.234	79.19
271.466	83.19
271.698	98.19
271.93	82.19
272.162	86.19
272.394	87.19
272.626	90.19
272.858	83.19
273.09	81.19
273.322	94.19
273.553	78.19
273.785	84.19
274.017	89.19
274.249	106.19
274.481	84.19
274.713	102.19
274.945	105.19
275.176	93.19
275.408	85.19
275.64	78.19
275.872	94.19
276.104	91.19
276.335	99.19
276.567	88.19
276.799	107.19
277.031	89.19
277.262	86.19
277.494	88.19
277.726	76.19
277.957	91.19
278.189	83.19
278.421	93.19
278.652	81.19
278.884	94.19
279.115	73.19
279.347	86.19
279.579	85.19
279.81	89.19
280.042	108.19
280.273	86.19
280.505	92.19
280.736	98.19
280.968	88.19
281.199	74.19
281.431	99.19
281.662	92.19
281.894	85.19
282.125	106.19
282.356	107.19
282.588	131.19
282.819	100.19
283.051	89.19
283.282	101.19
283.513	100.19
283.745	99.19
283.976	89.19
284.207	97.19
284.439	70.19
284.67	92.19
284.901	74.19
285.132	89.19
285.364	98.19
285.595	101.19
285.826	93.19
286.057	92.19
286.288	91.19
286.52	85.19
286.751	94.19
286.982	82.19
287.213	82.19
287.444	99.19
287.675	89.19
287.906	95.19
288.138	99.19
288.369	91.19
288.6	87.19
288.831	95.19
289.062	75.19
289.293	105.19
289.524	91.19
289.755	82.19
289.986	95.19
290.217	102.19
290.448	90.19
290.679	82.19
290.91	102.19
291.141	82.19
291.371	73.19
291.602	87.19
291.833	98.19
292.064	90.19
292.295	79.19
292.526	84.19
292.757	85.19
292.987	81.19
293.218	83.19
293.449	89.19
293.68	95.19
293.91	90.19
294.141	103.19
294.372	90.19
294.603	103.19
294.833	96.19
295.064	83.19
295.295	91.19
295.525	93.19
295.756	90.19
295.987	115.19
296.217	122.19
296.448	105.19
296.679	98.19
296.909	86.19
297.14	85.19
297.37	88.19
297.601	87.19
297.831	87.19
298.062	103.19
298.292	103.19
298.523	107.19
298.753	75.19
298.984	94.19
299.214	87.19
299.445	77.19
299.675	90.19
299.905	88.19
300.136	99.19
300.366	106.19
300.597	101.19
300.827	87.19
301.057	94.19
301.288	95.19
301.518	107.19
301.748	84.19
301.979	102.19
302.209	93.19
302.439	80.19
302.669	81.19
302.9	103.19
303.13	89.19
303.36	94.19
303.59	101.19
303.82	112.19
304.051	102.19
304.281	88.19
304.511	92.19
304.741	98.19
304.971	76.19
305.201	105.19
305.431	88.19
305.661	80.19
305.891	91.19
306.121	119.19
306.352	100.19
306.582	104.19
306.812	96.19
307.042	93.19
307.272	98.19
307.502	106.19
307.731	111.19
307.961	95.19
308.191	93.19
308.421	88.19
308.651	82.19
308.881	95.19
309.111	94.19
309.341	112.19
309.571	93.19
309.8	105.19
310.03	110.19
310.26	101.19
310.49	84.19
310.72	90.19
310.949	102.19
311.179	113.19
311.409	98.19
311.639	99.19
311.868	113.19
312.098	105.19
312.328	98.19
312.557	104.19
312.787	102.19
313.017	113.19
313.246	91.19
313.476	99.19
313.706	89.19
313.935	90.19
314.165	105.19
314.394	106.19
314.624	90.19
314.853	103.19
315.083	95.19
315.312	77.19
315.542	92.19
315.771	102.19
316.001	93.19
316.23	92.19
316.46	97.19
316.689	83.19
316.919	96.19
317.148	89.19
317.377	106.19
317.607	87.19
317.836	91.19
318.065	96.19
318.295	103.19
318.524	80.19
318.753	94.19
318.983	105.19
319.212	95.19
319.441	93.19
319.67	108.19
319.9	96.19
320.129	96.19
320.358	102.19
320.587	84.19
320.816	100.19
321.046	100.19
321.275	102.19
321.504	95.19
321.733	98.19
321.962	98.19
322.191	101.19
322.42	95.19
322.649	106.19
322.878	107.19
323.108	107.19
323.337	111.19
323.566	127.19
323.795	138.19
324.024	175.19
324.253	328.19
324.482	659.19
324.71	1309.19
324.939	1658.19
325.168	630.19
325.397	205.19
325.626	143.19
325.855	128.19
326.084	108.19
326.313	130.19
326.542	140.19
326.77	188.19
326.999	385.19
327.228	753.19
327.457	1359.19
327.686	1070.19
327.914	328.19
328.143	191.19
328.372	173.19
328.6	138.19
328.829	126.19
329.058	111.19
329.287	121.19
329.515	111.19
329.744	126.19
329.972	120.19
330.201	178.19
330.43	188.19
330.658	157.19
330.887	114.19
331.115	127.19
331.344	95.19
331.572	111.19
331.801	110.19
332.03	99.19
332.258	91.19
332.486	80.19
332.715	106.19
332.943	99.19
333.172	107.19
333.4	92.19
333.629	112.19
333.857	125.19
334.085	118.19
334.314	159.19
334.542	221.19
334.771	219.19
334.999	113.19
335.227	101.19
335.455	94.19
335.684	99.19
335.912	95.19
336.14	104.19
336.369	111.19
336.597	108.19
336.825	97.19
337.053	94.19
337.281	85.19
337.51	83.19
337.738	101.19
337.966	98.19
338.194	85.19
338.422	105.19
338.65	105.19
338.878	102.19
339.106	91.19
339.334	91.19
339.562	88.19
339.79	94.19
340.018	88.19
340.246	86.19
340.474	129.19
340.702	88.19
340.93	83.19
341.158	104.19
341.386	105.19
341.614	79.19
341.842	105.19
342.07	87.19
342.298	103.19
342.526	96.19
342.754	89.19
342.981	89.19
343.209	89.19
343.437	94.19
343.665	94.19
343.893	84.19
344.12	88.19
344.348	92.19
344.576	85.19
344.804	83.19
345.031	90.19
345.259	99.19
345.487	92.19
345.714	88.19
345.942	103.19
346.17	104.19
346.397	81.19
346.625	101.19
346.853	92.19
347.08	86.19
347.308	100.19
347.535	97.19
347.763	96.19
347.99	103.19
348.218	110.19
348.445	104.19
348.673	90.19
348.9	94.19
349.128	101.19
349.355	90.19
349.583	103.19
349.81	98.19
350.037	97.19
350.265	100.19
350.492	91.19
350.72	87.19
350.947	92.19
351.174	108.19
351.402	107.19
351.629	97.19
351.856	87.19
352.083	95.19
352.311	97.19
352.538	104.19
352.765	114.19
352.992	119.19
353.22	120.19
353.447	95.19
353.674	113.19
353.901	98.19
354.128	87.19
354.355	95.19
354.583	100.19
354.81	109.19
355.037	96.19
355.264	95.19
355.491	103.19
355.718	94.19
355.945	97.19
356.172	92.19
356.399	106.19
356.626	119.19
356.853	88.19
357.08	99.19
357.307	95.19
357.534	101.19
357.761	96.19
357.988	110.19
358.215	90.19
358.441	98.19
358.668	94.19
358.895	91.19
359.122	89.19
359.349	82.19
359.576	88.19
359.802	87.19
360.029	129.19
360.256	104.19
360.483	87.19
360.709	84.19
360.936	92.19
361.163	86.19
361.39	94.19
361.616	89.19
361.843	90.19
362.07	92.19
362.296	87.19
362.523	89.19
362.749	104.19
362.976	98.19
363.203	88.19
363.429	88.19
363.656	95.19
363.882	89.19
364.109	82.19
364.335	84.19
364.562	95.19
364.788	93.19
365.015	104.19
365.241	103.19
365.468	90.19
365.694	99.19
365.92	97.19
366.147	108.19
366.373	103.19
366.599	90.19
366.826	82.19
367.052	99.19
367.278	101.19
367.505	105.19
367.731	103.19
367.957	97.19
368.184	94.19
368.41	115.19
368.636	103.19
368.862	109.19
369.089	96.19
369.315	79.19
369.541	93.19
369.767	89.19
369.993	90.19
370.219	99.19
370.445	88.19
370.672	96.19
370.898	88.19
371.124	97.19
371.35	85.19
371.576	83.19
371.802	97.19
372.028	97.19
372.254	92.19
372.48	97.19
372.706	100.19
372.932	93.19
373.158	99.19
373.384	97.19
373.61	90.19
373.835	86.19
374.061	95.19
374.287	70.19
374.513	75.19
374.739	84.19
374.965	98.19
375.191	90.19
375.416	89.19
375.642	95.19
375.868	100.19
376.094	87.19
376.319	94.19
376.545	88.19
376.771	95.19
376.997	98.19
377.222	90.19
377.448	95.19
377.674	93.19
377.899	92.19
378.125	99.19
378.35	100.19
378.576	100.19
378.802	91.19
379.027	99.19
379.253	94.19
379.478	97.19
379.704	95.19
379.929	96.19
380.155	80.19
380.38	95.19
380.606	95.19
380.831	103.19
381.057	101.19
381.282	87.19
381.507	100.19
381.733	95.19
381.958	92.19
382.184	110.19
382.409	102.19
382.634	103.19
382.86	92.19
383.085	101.19
383.31	107.19
383.535	97.19
383.761	94.19
383.986	105.19
384.211	90.19
384.436	94.19
384.662	92.19
384.887	102.19
385.112	103.19
385.337	107.19
385.562	87.19
385.787	111.19
386.013	101.19
386.238	107.19
386.463	92.19
386.688	106.19
386.913	108.19
387.138	121.19
387.363	104.19
387.588	107.19
387.813	114.19
388.038	119.19
388.263	127.19
388.488	95.19
388.713	88.19
388.938	84.19
389.163	96.19
389.387	105.19
389.612	97.19
389.837	82.19
390.062	89.19
390.287	84.19
390.512	84.19
390.736	104.19
390.961	97.19
391.186	94.19
391.411	95.19
391.636	98.19
391.86	90.19
392.085	91.19
392.31	85.19
392.534	91.19
392.759	94.19
392.984	83.19
393.208	95.19
393.433	110.19
393.658	107.19
393.882	91.19
394.107	89.19
394.331	89.19
394.556	79.19
394.78	96.19
395.005	87.19
395.229	89.19
395.454	98.19
395.678	79.19
395.903	75.19
396.127	103.19
396.352	99.19
396.576	86.19
396.801	95.19
397.025	95.19
397.249	97.19
397.474	86.19
397.698	90.19
397.922	90.19
398.147	99.19
398.371	68.19
398.595	91.19
398.82	80.19
399.044	90.19
399.268	86.19
399.492	79.19
399.717	96.19
399.941	92.19
400.165	97.19
400.389	98.19
400.613	89.19
400.837	77.19
401.062	82.19
401.286	87.19
401.51	84.19
401.734	95.19
401.958	90.19
402.182	127.19
402.406	142.19
402.63	108.19
402.854	91.19
403.078	101.19
403.302	81.19
403.526	89.19
403.75	86.19
403.974	81.19
404.198	93.19
404.422	93.19
404.645	91.19
404.869	89.19
405.093	107.19
405.317	99.19
405.541	85.19
405.765	95.19
405.988	101.19
406.212	140.19
406.436	165.19
406.66	135.19
406.883	101.19
407.107	102.19
407.331	85.19
407.555	95.19
407.778	99.19
408.002	92.19
408.226	91.19
408.449	100.19
408.673	80.19
408.896	98.19
409.12	100.19
409.344	94.19
409.567	104.19
409.791	105.19
410.014	95.19
410.238	94.19
410.461	110.19
410.685	107.19
410.908	108.19
411.132	106.19
411.355	99.19
411.578	103.19
411.802	88.19
412.025	89.19
412.249	105.19
412.472	90.19
412.695	79.19
412.919	106.19
413.142	87.19
413.365	89.19
413.589	85.19
413.812	92.19
414.035	104.19
414.258	100.19
414.482	84.19
414.705	98.19
414.928	94.19
415.151	86.19
415.374	99.19
415.597	82.19
415.821	83.19
416.044	83.19
416.267	93.19
416.49	93.19
416.713	97.19
416.936	96.19
417.159	108.19
417.382	104.19
417.605	89.19
417.828	112.19
418.051	107.19
418.274	97.19
418.497	100.19
418.72	100.19
418.943	87.19
419.166	92.19
419.389	94.19
419.611	90.19
419.834	84.19
420.057	77.19
420.28	85.19
420.503	67.19
420.726	86.19
420.948	92.19
421.171	85.19
421.394	83.19
421.617	81.19
421.839	67.19
422.062	84.19
422.285	89.19
422.507	105.19
422.73	104.19
422.953	112.19
423.175	98.19
423.398	74.19
423.621	96.19
423.843	80.19
424.066	89.19
424.288	89.19
424.511	97.19
424.733	96.19
424.956	103.19
425.178	96.19
425.401	96.19
425.623	110.19
425.846	103.19
426.068	79.19
426.291	97.19
426.513	86.19
426.735	96.19
426.958	102.19
427.18	115.19
427.402	125.19
427.625	156.19
427.847	130.19
428.069	106.19
428.292	102.19
428.514	95.19
428.736	75.19
428.958	97.19
429.181	101.19
429.403	97.19
429.625	104.19
429.847	88.19
430.069	98.19
430.292	110.19
430.514	97.19
430.736	101.19
430.958	84.19
431.18	87.19
431.402	74.19
431.624	76.19
431.846	96.19
432.068	92.19
432.29	89.19
432.512	85.19
432.734	88.19
432.956	73.19
433.178	97.19
433.4	95.19
433.622	101.19
433.844	88.19
434.066	92.19
434.287	106.19
434.509	104.19
434.731	85.19
434.953	96.19
435.175	89.19
435.397	90.19
435.618	95.19
435.84	99.19
436.062	119.19
436.284	112.19
436.505	90.19
436.727	102.19
436.949	86.19
437.17	83.19
437.392	88.19
437.614	90.19
437.835	95.19
438.057	115.19
438.278	93.19
438.5	122.19
438.721	129.19
438.943	106.19
439.165	87.19
439.386	92.19
439.608	93.19
439.829	97.19
440.05	107.19
440.272	124.19
440.493	102.19
440.715	91.19
440.936	84.19
441.158	80.19
441.379	79.19
441.6	72.19
441.822	85.19
442.043	101.19
442.264	111.19
442.486	90.19
442.707	110.19
442.928	90.19
443.149	105.19
443.371	120.19
443.592	103.19
443.813	86.19
444.034	114.19
444.255	106.19
444.476	100.19
444.698	93.19
444.919	86.19
445.14	138.19
445.361	123.19
445.582	114.19
445.803	124.19
446.024	131.19
446.245	124.19
446.466	100.19
446.687	102.19
446.908	86.19
447.129	95.19
447.35	96.19
447.571	107.19
447.792	95.19
448.013	84.19
448.234	104.19
448.455	98.19
448.675	107.19
448.896	94.19
449.117	92.19
449.338	100.19
449.559	125.19
449.779	120.19
450	86.19
450.221	89.19
450.442	82.19
450.662	96.19
450.883	103.19
451.104	110.19
451.324	98.19
451.545	96.19
451.766	96.19
451.986	105.19
452.207	100.19
452.428	82.19
452.648	87.19
452.869	88.19
453.089	98.19
453.31	104.19
453.53	88.19
453.751	90.19
453.971	96.19
454.192	86.19
454.412	76.19
454.633	89.19
454.853	88.19
455.073	77.19
455.294	88.19
455.514	108.19
455.734	78.19
455.955	87.19
456.175	90.19
456.395	78.19
456.616	89.19
456.836	100.19
457.056	65.19
457.276	83.19
457.497	91.19
457.717	94.19
457.937	95.19
458.157	89.19
458.377	100.19
458.598	104.19
458.818	136.19
459.038	137.19
459.258	123.19
459.478	95.19
459.698	78.19
459.918	80.19
460.138	83.19
460.358	78.19
460.578	92.19
460.798	103.19
461.018	95.19
461.238	93.19
461.458	84.19
461.678	86.19
461.898	91.19
462.118	99.19
462.338	89.19
462.558	86.19
462.777	83.19
462.997	100.19
463.217	84.19
463.437	90.19
463.657	86.19
463.876	90.19
464.096	92.19
464.316	86.19
464.536	102.19
464.755	101.19
464.975	100.19
465.195	132.19
465.414	136.19
465.634	97.19
465.854	88.19
466.073	91.19
466.293	93.19
466.512	94.19
466.732	94.19
466.951	102.19
467.171	87.19
467.391	87.19
467.61	129.19
467.829	102.19
468.049	121.19
468.268	135.19
468.488	110.19
468.707	88.19
468.927	89.19
469.146	90.19
469.365	88.19
469.585	86.19
469.804	89.19
470.023	88.19
470.243	93.19
470.462	102.19
470.681	99.19
470.901	88.19
471.12	87.19
471.339	91.19
471.558	92.19
471.777	89.19
471.997	85.19
472.216	181.19
472.435	290.19
472.654	122.19
472.873	99.19
473.092	80.19
473.311	105.19
473.53	92.19
473.749	111.19
473.968	101.19
474.187	105.19
474.406	108.19
474.625	92.19
474.844	100.19
475.063	83.19
475.282	97.19
475.501	84.19
475.72	94.19
475.939	92.19
476.158	98.19
476.377	84.19
476.596	95.19
476.814	79.19
477.033	85.19
477.252	96.19
477.471	98.19
477.69	87.19
477.908	98.19
478.127	88.19
478.346	99.19
478.564	94.19
478.783	88.19
479.002	91.19
479.22	98.19
479.439	119.19
479.658	99.19
479.876	95.19
480.095	98.19
480.313	99.19
480.532	92.19
480.751	107.19
480.969	183.19
481.188	452.19
481.406	294.19
481.624	118.19
481.843	97.19
482.061	105.19
482.28	85.19
482.498	103.19
482.717	89.19
482.935	102.19
483.153	95.19
483.372	78.19
483.59	83.19
483.808	93.19
484.027	84.19
484.245	80.19
484.463	95.19
484.681	106.19
484.9	103.19
485.118	107.19
485.336	108.19
485.554	87.19
485.772	105.19
485.99	111.19
486.209	84.19
486.427	104.19
486.645	101.19
486.863	118.19
487.081	104.19
487.299	103.19
487.517	112.19
487.735	103.19
487.953	105.19
488.171	91.19
488.389	95.19
488.607	94.19
488.825	92.19
489.043	90.19
489.261	99.19
489.479	97.19
489.696	85.19
489.914	99.19
490.132	84.19
490.35	89.19
490.568	85.19
490.786	100.19
491.003	94.19
491.221	86.19
491.439	91.19
491.657	97.19
491.874	90.19
492.092	89.19
492.31	81.19
492.527	110.19
492.745	90.19
492.963	98.19
493.18	99.19
493.398	81.19
493.615	85.19
493.833	103.19
494.05	92.19
494.268	102.19
494.485	81.19
494.703	98.19
494.92	100.19
495.138	89.19
495.355	80.19
495.573	92.19
495.79	99.19
496.008	95.19
496.225	86.19
496.442	89.19
496.66	107.19
496.877	87.19
497.094	93.19
497.312	93.19
497.529	85.19
497.746	103.19
497.963	90.19
498.181	96.19
498.398	98.19
498.615	125.19
498.832	93.19
499.049	90.19
499.267	94.19
499.484	101.19
499.701	89.19
499.918	97.19
500.135	105.19
500.352	94.19
500.569	105.19
500.786	104.19
501.003	89.19
501.22	106.19
501.437	97.19
501.654	92.19
501.871	107.19
502.088	91.19
502.305	83.19
502.522	109.19
502.739	99.19
502.956	87.19
503.172	79.19
503.389	99.19
503.606	104.19
503.823	88.19
504.04	97.19
504.256	82.19
504.473	84.19
504.69	80.19
504.907	89.19
505.123	90.19
505.34	98.19
505.557	94.19
505.773	87.19
505.99	90.19
506.207	100.19
506.423	103.19
506.64	99.19
506.856	89.19
507.073	94.19
507.289	96.19
507.506	100.19
507.722	100.19
507.939	98.19
508.155	87.19
508.372	98.19
508.588	78.19
508.805	109.19
509.021	101.19
509.238	95.19
509.454	106.19
509.67	94.19
509.887	87.19
510.103	123.19
510.319	162.19
510.536	538.19
510.752	1603.19
510.968	500.19
511.184	146.19
511.401	92.19
511.617	89.19
511.833	92.19
512.049	84.19
512.265	98.19
512.481	105.19
512.698	100.19
512.914	118.19
513.13	86.19
513.346	88.19
513.562	79.19
513.778	97.19
513.994	94.19
514.21	97.19
514.426	102.19
514.642	117.19
514.858	120.19
