Data from Circ_2010_H10_HRD10591_00030.txt Node
Date: Wed Jan 03 10:09:47 EST 2024
User: Yrep
Spectrometer: HR+D1059
Trigger mode: 1
Integration Time (sec): 1.000000E-1
Scans to average: 1
Electric dark correction enabled: true
Nonlinearity correction enabled: false
Boxcar width: 0
XAxis mode: Wavelengths
Number of Pixels in Spectrum: 2048
>>>>>Begin Spectral Data<<<<<
223.165	-15.06
223.4	-15.06
223.635	-15.06
223.869	-12.06
224.104	-22.06
224.338	-14.06
224.573	-22.06
224.808	-3.06
225.042	-11.06
225.277	-3.06
225.511	-3.06
225.746	10.94
225.98	4.94
226.215	10.94
226.449	17.94
226.683	22.94
226.918	17.94
227.152	19.94
227.387	23.94
227.621	32.94
227.856	39.94
228.09	45.94
228.324	58.94
228.559	57.94
228.793	66.94
229.027	58.94
229.262	61.94
229.496	71.94
229.73	82.94
229.964	71.94
230.199	87.94
230.433	72.94
230.667	69.94
230.901	69.94
231.136	58.94
231.37	74.94
231.604	67.94
231.838	81.94
232.072	70.94
232.306	64.94
232.541	92.94
232.775	85.94
233.009	89.94
233.243	92.94
233.477	81.94
233.711	73.94
233.945	66.94
234.179	86.94
234.413	70.94
234.647	77.94
234.881	73.94
235.115	72.94
235.349	72.94
235.583	72.94
235.817	78.94
236.051	53.94
236.285	88.94
236.519	64.94
236.753	69.94
236.987	76.94
237.221	81.94
237.455	66.94
237.689	64.94
237.922	69.94
238.156	70.94
238.39	59.94
238.624	79.94
238.858	70.94
239.091	73.94
239.325	83.94
239.559	78.94
239.793	72.94
240.027	73.94
240.26	73.94
240.494	74.94
240.728	84.94
240.961	63.94
241.195	65.94
241.429	72.94
241.662	58.94
241.896	70.94
242.13	76.94
242.363	74.94
242.597	69.94
242.83	59.94
243.064	52.94
243.298	77.94
243.531	67.94
243.765	70.94
243.998	73.94
244.232	72.94
244.465	76.94
244.699	87.94
244.932	80.94
245.166	65.94
245.399	71.94
245.633	77.94
245.866	68.94
246.099	78.94
246.333	74.94
246.566	76.94
246.8	66.94
247.033	68.94
247.266	83.94
247.5	79.94
247.733	76.94
247.966	82.94
248.2	75.94
248.433	82.94
248.666	61.94
248.899	77.94
249.133	66.94
249.366	93.94
249.599	95.94
249.832	70.94
250.066	71.94
250.299	78.94
250.532	95.94
250.765	74.94
250.998	71.94
251.231	83.94
251.465	80.94
251.698	69.94
251.931	78.94
252.164	78.94
252.397	75.94
252.63	97.94
252.863	91.94
253.096	72.94
253.329	82.94
253.562	84.94
253.795	71.94
254.028	73.94
254.261	88.94
254.494	84.94
254.727	75.94
254.96	78.94
255.193	72.94
255.426	77.94
255.659	83.94
255.892	67.94
256.124	78.94
256.357	76.94
256.59	87.94
256.823	82.94
257.056	65.94
257.289	67.94
257.521	80.94
257.754	87.94
257.987	85.94
258.22	83.94
258.452	80.94
258.685	76.94
258.918	76.94
259.151	82.94
259.383	82.94
259.616	85.94
259.849	87.94
260.081	78.94
260.314	77.94
260.547	78.94
260.779	76.94
261.012	89.94
261.244	87.94
261.477	89.94
261.71	95.94
261.942	108.94
262.175	117.94
262.407	93.94
262.64	70.94
262.872	89.94
263.105	73.94
263.337	72.94
263.57	77.94
263.802	87.94
264.035	79.94
264.267	91.94
264.499	75.94
264.732	85.94
264.964	71.94
265.197	80.94
265.429	65.94
265.661	66.94
265.894	74.94
266.126	83.94
266.358	76.94
266.591	93.94
266.823	85.94
267.055	81.94
267.287	74.94
267.52	70.94
267.752	74.94
267.984	78.94
268.216	69.94
268.448	75.94
268.681	96.94
268.913	84.94
269.145	64.94
269.377	84.94
269.609	82.94
269.841	75.94
270.073	84.94
270.306	77.94
270.538	89.94
270.77	80.94
271.002	86.94
271.234	74.94
271.466	83.94
271.698	82.94
271.93	87.94
272.162	72.94
272.394	91.94
272.626	84.94
272.858	82.94
273.09	71.94
273.322	70.94
273.553	75.94
273.785	94.94
274.017	84.94
274.249	86.94
274.481	86.94
274.713	68.94
274.945	83.94
275.176	72.94
275.408	85.94
275.64	85.94
275.872	86.94
276.104	86.94
276.335	94.94
276.567	80.94
276.799	95.94
277.031	97.94
277.262	93.94
277.494	80.94
277.726	80.94
277.957	81.94
278.189	102.94
278.421	70.94
278.652	82.94
278.884	85.94
279.115	77.94
279.347	86.94
279.579	79.94
279.81	91.94
280.042	88.94
280.273	90.94
280.505	88.94
280.736	90.94
280.968	73.94
281.199	84.94
281.431	75.94
281.662	89.94
281.894	75.94
282.125	97.94
282.356	115.94
282.588	132.94
282.819	98.94
283.051	73.94
283.282	75.94
283.513	81.94
283.745	85.94
283.976	84.94
284.207	84.94
284.439	83.94
284.67	84.94
284.901	82.94
285.132	94.94
285.364	81.94
285.595	83.94
285.826	82.94
286.057	79.94
286.288	77.94
286.52	83.94
286.751	82.94
286.982	79.94
287.213	81.94
287.444	95.94
287.675	88.94
287.906	77.94
288.138	76.94
288.369	83.94
288.6	74.94
288.831	97.94
289.062	101.94
289.293	83.94
289.524	82.94
289.755	73.94
289.986	73.94
290.217	82.94
290.448	83.94
290.679	84.94
290.91	73.94
291.141	83.94
291.371	93.94
291.602	86.94
291.833	94.94
292.064	68.94
292.295	74.94
292.526	82.94
292.757	65.94
292.987	64.94
293.218	89.94
293.449	77.94
293.68	85.94
293.91	95.94
294.141	95.94
294.372	80.94
294.603	83.94
294.833	82.94
295.064	86.94
295.295	93.94
295.525	97.94
295.756	95.94
295.987	99.94
296.217	125.94
296.448	109.94
296.679	82.94
296.909	91.94
297.14	73.94
297.37	84.94
297.601	88.94
297.831	93.94
298.062	78.94
298.292	92.94
298.523	83.94
298.753	75.94
298.984	92.94
299.214	100.94
299.445	90.94
299.675	84.94
299.905	84.94
300.136	94.94
300.366	73.94
300.597	95.94
300.827	93.94
301.057	85.94
301.288	105.94
301.518	86.94
301.748	88.94
301.979	104.94
302.209	84.94
302.439	93.94
302.669	89.94
302.9	87.94
303.13	85.94
303.36	95.94
303.59	86.94
303.82	90.94
304.051	91.94
304.281	79.94
304.511	90.94
304.741	87.94
304.971	89.94
305.201	84.94
305.431	79.94
305.661	83.94
305.891	81.94
306.121	97.94
306.352	94.94
306.582	98.94
306.812	91.94
307.042	96.94
307.272	97.94
307.502	102.94
307.731	85.94
307.961	85.94
308.191	87.94
308.421	74.94
308.651	77.94
308.881	93.94
309.111	104.94
309.341	88.94
309.571	91.94
309.8	88.94
310.03	92.94
310.26	99.94
310.49	94.94
310.72	94.94
310.949	96.94
311.179	96.94
311.409	88.94
311.639	81.94
311.868	86.94
312.098	91.94
312.328	87.94
312.557	101.94
312.787	105.94
313.017	86.94
313.246	85.94
313.476	100.94
313.706	94.94
313.935	102.94
314.165	90.94
314.394	94.94
314.624	84.94
314.853	86.94
315.083	84.94
315.312	98.94
315.542	89.94
315.771	88.94
316.001	105.94
316.23	110.94
316.46	89.94
316.689	91.94
316.919	83.94
317.148	76.94
317.377	88.94
317.607	83.94
317.836	91.94
318.065	91.94
318.295	94.94
318.524	77.94
318.753	88.94
318.983	85.94
319.212	92.94
319.441	95.94
319.67	108.94
319.9	85.94
320.129	90.94
320.358	98.94
320.587	82.94
320.816	101.94
321.046	109.94
321.275	89.94
321.504	88.94
321.733	89.94
321.962	88.94
322.191	92.94
322.42	93.94
322.649	96.94
322.878	113.94
323.108	107.94
323.337	107.94
323.566	119.94
323.795	136.94
324.024	197.94
324.253	340.94
324.482	740.94
324.71	1502.94
324.939	1897.94
325.168	696.94
325.397	216.94
325.626	146.94
325.855	117.94
326.084	112.94
326.313	108.94
326.542	128.94
326.77	218.94
326.999	430.94
327.228	842.94
327.457	1514.94
327.686	1141.94
327.914	329.94
328.143	184.94
328.372	171.94
328.6	130.94
328.829	109.94
329.058	116.94
329.287	118.94
329.515	100.94
329.744	120.94
329.972	125.94
330.201	157.94
330.43	190.94
330.658	155.94
330.887	126.94
331.115	89.94
331.344	107.94
331.572	104.94
331.801	94.94
332.03	119.94
332.258	94.94
332.486	95.94
332.715	95.94
332.943	84.94
333.172	90.94
333.4	87.94
333.629	88.94
333.857	104.94
334.085	130.94
334.314	167.94
334.542	231.94
334.771	206.94
334.999	137.94
335.227	97.94
335.455	97.94
335.684	92.94
335.912	104.94
336.14	105.94
336.369	101.94
336.597	92.94
336.825	97.94
337.053	94.94
337.281	96.94
337.51	91.94
337.738	102.94
337.966	97.94
338.194	85.94
338.422	99.94
338.65	88.94
338.878	90.94
339.106	95.94
339.334	86.94
339.562	94.94
339.79	87.94
340.018	101.94
340.246	96.94
340.474	97.94
340.702	93.94
340.93	98.94
341.158	97.94
341.386	86.94
341.614	66.94
341.842	93.94
342.07	97.94
342.298	88.94
342.526	85.94
342.754	87.94
342.981	63.94
343.209	79.94
343.437	115.94
343.665	94.94
343.893	89.94
344.12	81.94
344.348	97.94
344.576	91.94
344.804	91.94
345.031	76.94
345.259	93.94
345.487	91.94
345.714	96.94
345.942	93.94
346.17	92.94
346.397	94.94
346.625	78.94
346.853	83.94
347.08	85.94
347.308	86.94
347.535	96.94
347.763	90.94
347.99	100.94
348.218	115.94
348.445	98.94
348.673	90.94
348.9	99.94
349.128	96.94
349.355	97.94
349.583	99.94
349.81	87.94
350.037	104.94
350.265	90.94
350.492	90.94
350.72	91.94
350.947	89.94
351.174	92.94
351.402	108.94
351.629	101.94
351.856	90.94
352.083	88.94
352.311	92.94
352.538	106.94
352.765	85.94
352.992	97.94
353.22	98.94
353.447	118.94
353.674	99.94
353.901	98.94
354.128	86.94
354.355	113.94
354.583	100.94
354.81	92.94
355.037	99.94
355.264	108.94
355.491	98.94
355.718	97.94
355.945	89.94
356.172	93.94
356.399	99.94
356.626	83.94
356.853	87.94
357.08	94.94
357.307	92.94
357.534	89.94
357.761	86.94
357.988	92.94
358.215	90.94
358.441	92.94
358.668	85.94
358.895	93.94
359.122	84.94
359.349	86.94
359.576	91.94
359.802	100.94
360.029	104.94
360.256	99.94
360.483	85.94
360.709	87.94
360.936	69.94
361.163	92.94
361.39	81.94
361.616	90.94
361.843	81.94
362.07	95.94
362.296	97.94
362.523	82.94
362.749	89.94
362.976	82.94
363.203	77.94
363.429	85.94
363.656	73.94
363.882	77.94
364.109	104.94
364.335	91.94
364.562	100.94
364.788	88.94
365.015	86.94
365.241	98.94
365.468	88.94
365.694	96.94
365.92	90.94
366.147	96.94
366.373	101.94
366.599	80.94
366.826	96.94
367.052	88.94
367.278	93.94
367.505	94.94
367.731	73.94
367.957	86.94
368.184	96.94
368.41	97.94
368.636	102.94
368.862	110.94
369.089	104.94
369.315	78.94
369.541	91.94
369.767	104.94
369.993	89.94
370.219	82.94
370.445	99.94
370.672	82.94
370.898	84.94
371.124	76.94
371.35	82.94
371.576	78.94
371.802	74.94
372.028	91.94
372.254	73.94
372.48	93.94
372.706	89.94
372.932	82.94
373.158	101.94
373.384	90.94
373.61	93.94
373.835	97.94
374.061	97.94
374.287	98.94
374.513	86.94
374.739	101.94
374.965	100.94
375.191	82.94
375.416	81.94
375.642	96.94
375.868	103.94
376.094	75.94
376.319	81.94
376.545	87.94
376.771	78.94
376.997	73.94
377.222	78.94
377.448	84.94
377.674	84.94
377.899	84.94
378.125	105.94
378.35	99.94
378.576	70.94
378.802	87.94
379.027	90.94
379.253	84.94
379.478	92.94
379.704	91.94
379.929	98.94
380.155	92.94
380.38	86.94
380.606	85.94
380.831	90.94
381.057	96.94
381.282	72.94
381.507	88.94
381.733	75.94
381.958	92.94
382.184	94.94
382.409	97.94
382.634	95.94
382.86	101.94
383.085	94.94
383.31	104.94
383.535	102.94
383.761	104.94
383.986	91.94
384.211	82.94
384.436	96.94
384.662	99.94
384.887	104.94
385.112	95.94
385.337	96.94
385.562	99.94
385.787	84.94
386.013	104.94
386.238	119.94
386.463	104.94
386.688	108.94
386.913	97.94
387.138	94.94
387.363	84.94
387.588	82.94
387.813	101.94
388.038	105.94
388.263	106.94
388.488	105.94
388.713	104.94
388.938	96.94
389.163	109.94
389.387	92.94
389.612	97.94
389.837	90.94
390.062	100.94
390.287	79.94
390.512	82.94
390.736	85.94
390.961	78.94
391.186	98.94
391.411	93.94
391.636	97.94
391.86	86.94
392.085	93.94
392.31	80.94
392.534	83.94
392.759	88.94
392.984	83.94
393.208	92.94
393.433	100.94
393.658	101.94
393.882	86.94
394.107	87.94
394.331	96.94
394.556	85.94
394.78	84.94
395.005	75.94
395.229	81.94
395.454	76.94
395.678	100.94
395.903	83.94
396.127	89.94
396.352	85.94
396.576	84.94
396.801	87.94
397.025	97.94
397.249	84.94
397.474	89.94
397.698	81.94
397.922	85.94
398.147	90.94
398.371	83.94
398.595	78.94
398.82	85.94
399.044	90.94
399.268	78.94
399.492	82.94
399.717	92.94
399.941	77.94
400.165	85.94
400.389	84.94
400.613	82.94
400.837	72.94
401.062	83.94
401.286	96.94
401.51	91.94
401.734	96.94
401.958	84.94
402.182	112.94
402.406	153.94
402.63	122.94
402.854	93.94
403.078	78.94
403.302	87.94
403.526	89.94
403.75	85.94
403.974	99.94
404.198	76.94
404.422	82.94
404.645	90.94
404.869	89.94
405.093	87.94
405.317	94.94
405.541	94.94
405.765	97.94
405.988	104.94
406.212	144.94
406.436	195.94
406.66	133.94
406.883	91.94
407.107	99.94
407.331	82.94
407.555	96.94
407.778	93.94
408.002	91.94
408.226	94.94
408.449	95.94
408.673	83.94
408.896	93.94
409.12	106.94
409.344	91.94
409.567	96.94
409.791	82.94
410.014	84.94
410.238	96.94
410.461	99.94
410.685	104.94
410.908	86.94
411.132	94.94
411.355	107.94
411.578	75.94
411.802	76.94
412.025	98.94
412.249	88.94
412.472	88.94
412.695	86.94
412.919	95.94
413.142	81.94
413.365	86.94
413.589	78.94
413.812	88.94
414.035	92.94
414.258	82.94
414.482	83.94
414.705	93.94
414.928	75.94
415.151	101.94
415.374	89.94
415.597	82.94
415.821	90.94
416.044	104.94
416.267	81.94
416.49	79.94
416.713	77.94
416.936	76.94
417.159	83.94
417.382	97.94
417.605	86.94
417.828	95.94
418.051	80.94
418.274	73.94
418.497	90.94
418.72	94.94
418.943	79.94
419.166	86.94
419.389	87.94
419.611	85.94
419.834	71.94
420.057	86.94
420.28	91.94
420.503	92.94
420.726	83.94
420.948	90.94
421.171	78.94
421.394	93.94
421.617	79.94
421.839	85.94
422.062	77.94
422.285	85.94
422.507	85.94
422.73	99.94
422.953	100.94
423.175	91.94
423.398	93.94
423.621	87.94
423.843	82.94
424.066	87.94
424.288	80.94
424.511	97.94
424.733	94.94
424.956	102.94
425.178	94.94
425.401	96.94
425.623	94.94
425.846	95.94
426.068	97.94
426.291	90.94
426.513	83.94
426.735	84.94
426.958	94.94
427.18	119.94
427.402	114.94
427.625	161.94
427.847	140.94
428.069	105.94
428.292	87.94
428.514	88.94
428.736	92.94
428.958	88.94
429.181	83.94
429.403	79.94
429.625	95.94
429.847	84.94
430.069	79.94
430.292	84.94
430.514	81.94
430.736	96.94
430.958	75.94
431.18	89.94
431.402	80.94
431.624	88.94
431.846	86.94
432.068	82.94
432.29	101.94
432.512	98.94
432.734	82.94
432.956	82.94
433.178	82.94
433.4	91.94
433.622	87.94
433.844	82.94
434.066	83.94
434.287	96.94
434.509	77.94
434.731	96.94
434.953	96.94
435.175	88.94
435.397	84.94
435.618	88.94
435.84	105.94
436.062	104.94
436.284	100.94
436.505	89.94
436.727	90.94
436.949	90.94
437.17	73.94
437.392	67.94
437.614	84.94
437.835	93.94
438.057	101.94
438.278	113.94
438.5	109.94
438.721	112.94
438.943	79.94
439.165	79.94
439.386	76.94
439.608	91.94
439.829	104.94
440.05	105.94
440.272	118.94
440.493	96.94
440.715	87.94
440.936	74.94
441.158	90.94
441.379	82.94
441.6	93.94
441.822	93.94
442.043	88.94
442.264	98.94
442.486	97.94
442.707	98.94
442.928	105.94
443.149	128.94
443.371	131.94
443.592	102.94
443.813	114.94
444.034	101.94
444.255	87.94
444.476	78.94
444.698	89.94
444.919	69.94
445.14	120.94
445.361	114.94
445.582	105.94
445.803	106.94
446.024	129.94
446.245	119.94
446.466	109.94
446.687	79.94
446.908	67.94
447.129	86.94
447.35	77.94
447.571	85.94
447.792	86.94
448.013	92.94
448.234	98.94
448.455	83.94
448.675	105.94
448.896	102.94
449.117	97.94
449.338	96.94
449.559	108.94
449.779	125.94
450	91.94
450.221	89.94
450.442	73.94
450.662	84.94
450.883	98.94
451.104	106.94
451.324	88.94
451.545	88.94
451.766	78.94
451.986	82.94
452.207	96.94
452.428	94.94
452.648	94.94
452.869	93.94
453.089	101.94
453.31	99.94
453.53	84.94
453.751	92.94
453.971	80.94
454.192	89.94
454.412	80.94
454.633	68.94
454.853	88.94
455.073	88.94
455.294	89.94
455.514	89.94
455.734	80.94
455.955	80.94
456.175	85.94
456.395	71.94
456.616	72.94
456.836	83.94
457.056	78.94
457.276	78.94
457.497	80.94
457.717	86.94
457.937	75.94
458.157	80.94
458.377	97.94
458.598	103.94
458.818	113.94
459.038	138.94
459.258	98.94
459.478	84.94
459.698	94.94
459.918	87.94
460.138	90.94
460.358	87.94
460.578	82.94
460.798	93.94
461.018	92.94
461.238	88.94
461.458	85.94
461.678	77.94
461.898	78.94
462.118	85.94
462.338	85.94
462.558	81.94
462.777	91.94
462.997	82.94
463.217	90.94
463.437	82.94
463.657	74.94
463.876	65.94
464.096	84.94
464.316	84.94
464.536	78.94
464.755	96.94
464.975	94.94
465.195	146.94
465.414	136.94
465.634	89.94
465.854	94.94
466.073	93.94
466.293	86.94
466.512	91.94
466.732	79.94
466.951	81.94
467.171	89.94
467.391	89.94
467.61	88.94
467.829	76.94
468.049	114.94
468.268	129.94
468.488	89.94
468.707	68.94
468.927	84.94
469.146	81.94
469.365	89.94
469.585	89.94
469.804	100.94
470.023	93.94
470.243	89.94
470.462	87.94
470.681	93.94
470.901	83.94
471.12	87.94
471.339	89.94
471.558	76.94
471.777	94.94
471.997	103.94
472.216	154.94
472.435	262.94
472.654	132.94
472.873	91.94
473.092	98.94
473.311	75.94
473.53	68.94
473.749	76.94
473.968	100.94
474.187	106.94
474.406	79.94
474.625	66.94
474.844	85.94
475.063	76.94
475.282	88.94
475.501	79.94
475.72	85.94
475.939	78.94
476.158	89.94
476.377	75.94
476.596	94.94
476.814	79.94
477.033	109.94
477.252	98.94
477.471	88.94
477.69	83.94
477.908	85.94
478.127	84.94
478.346	82.94
478.564	75.94
478.783	91.94
479.002	87.94
479.22	90.94
479.439	92.94
479.658	97.94
479.876	92.94
480.095	79.94
480.313	106.94
480.532	104.94
480.751	110.94
480.969	170.94
481.188	407.94
481.406	280.94
481.624	118.94
481.843	99.94
482.061	92.94
482.28	79.94
482.498	84.94
482.717	61.94
482.935	88.94
483.153	85.94
483.372	73.94
483.59	86.94
483.808	84.94
484.027	85.94
484.245	83.94
484.463	73.94
484.681	86.94
484.9	91.94
485.118	91.94
485.336	96.94
485.554	96.94
485.772	98.94
485.99	94.94
486.209	95.94
486.427	95.94
486.645	104.94
486.863	109.94
487.081	93.94
487.299	103.94
487.517	86.94
487.735	73.94
487.953	79.94
488.171	81.94
488.389	83.94
488.607	94.94
488.825	87.94
489.043	66.94
489.261	81.94
489.479	64.94
489.696	91.94
489.914	95.94
490.132	89.94
490.35	76.94
490.568	82.94
490.786	80.94
491.003	77.94
491.221	81.94
491.439	78.94
491.657	87.94
491.874	78.94
492.092	87.94
492.31	93.94
492.527	81.94
492.745	80.94
492.963	76.94
493.18	64.94
493.398	87.94
493.615	96.94
493.833	80.94
494.05	70.94
494.268	72.94
494.485	93.94
494.703	94.94
494.92	76.94
495.138	89.94
495.355	77.94
495.573	73.94
495.79	69.94
496.008	92.94
496.225	78.94
496.442	85.94
496.66	86.94
496.877	84.94
497.094	79.94
497.312	81.94
497.529	82.94
497.746	91.94
497.963	85.94
498.181	70.94
498.398	77.94
498.615	101.94
498.832	97.94
499.049	88.94
499.267	93.94
499.484	79.94
499.701	77.94
499.918	88.94
500.135	73.94
500.352	101.94
500.569	89.94
500.786	97.94
501.003	84.94
501.22	75.94
501.437	93.94
501.654	87.94
501.871	106.94
502.088	86.94
502.305	82.94
502.522	93.94
502.739	90.94
502.956	65.94
503.172	84.94
503.389	84.94
503.606	98.94
503.823	84.94
504.04	79.94
504.256	85.94
504.473	77.94
504.69	70.94
504.907	87.94
505.123	83.94
505.34	93.94
505.557	84.94
505.773	85.94
505.99	92.94
506.207	84.94
506.423	75.94
506.64	88.94
506.856	90.94
507.073	81.94
507.289	81.94
507.506	82.94
507.722	97.94
507.939	95.94
508.155	102.94
508.372	92.94
508.588	80.94
508.805	94.94
509.021	79.94
509.238	91.94
509.454	86.94
509.67	89.94
509.887	90.94
510.103	112.94
510.319	182.94
510.536	652.94
510.752	2017.94
510.968	587.94
511.184	142.94
511.401	112.94
511.617	87.94
511.833	90.94
512.049	75.94
512.265	79.94
512.481	89.94
512.698	82.94
512.914	90.94
513.13	81.94
513.346	92.94
513.562	86.94
513.778	101.94
513.994	101.94
514.21	89.94
514.426	101.94
514.642	126.94
514.858	108.94
515.074	144.94
515.29	388.94
515.506	1218.94
515.721	463.94
515.937	138.94
516.153	94.94
516.369	90.94
516.585	87.94
516.801	95.94
517.016	89.94
