Data from Circ_2010_H10_HRD10591_00093.txt Node
Date: Wed Jan 03 10:09:59 EST 2024
User: Yrep
Spectrometer: HR+D1059
Trigger mode: 1
Integration Time (sec): 1.000000E-1
Scans to average: 1
Electric dark correction enabled: true
Nonlinearity correction enabled: false
Boxcar width: 0
XAxis mode: Wavelengths
Number of Pixels in Spectrum: 2048
>>>>>Begin Spectral Data<<<<<
223.165	-7.69
223.4	-7.69
223.635	-7.69
223.869	-4.69
224.104	-14.69
224.338	-11.69
224.573	-13.69
224.808	-3.69
225.042	-8.69
225.277	-10.69
225.511	-6.69
225.746	-1.69
225.98	14.31
226.215	-4.69
226.449	8.31
226.683	22.31
226.918	27.31
227.152	16.31
227.387	20.31
227.621	15.31
227.856	34.31
228.09	57.31
228.324	52.31
228.559	62.31
228.793	43.31
229.027	64.31
229.262	61.31
229.496	72.31
229.73	72.31
229.964	80.31
230.199	76.31
230.433	63.31
230.667	65.31
230.901	77.31
231.136	73.31
231.37	70.31
231.604	79.31
231.838	79.31
232.072	81.31
232.306	99.31
232.541	90.31
232.775	84.31
233.009	76.31
233.243	69.31
233.477	79.31
233.711	70.31
233.945	85.31
234.179	88.31
234.413	77.31
234.647	74.31
234.881	77.31
235.115	83.31
235.349	74.31
235.583	77.31
235.817	88.31
236.051	64.31
236.285	83.31
236.519	75.31
236.753	76.31
236.987	78.31
237.221	79.31
237.455	90.31
237.689	71.31
237.922	74.31
238.156	77.31
238.39	77.31
238.624	76.31
238.858	58.31
239.091	69.31
239.325	74.31
239.559	80.31
239.793	77.31
240.027	82.31
240.26	74.31
240.494	65.31
240.728	60.31
240.961	70.31
241.195	70.31
241.429	76.31
241.662	81.31
241.896	78.31
242.13	77.31
242.363	76.31
242.597	70.31
242.83	68.31
243.064	71.31
243.298	72.31
243.531	80.31
243.765	97.31
243.998	75.31
244.232	84.31
244.465	66.31
244.699	60.31
244.932	86.31
245.166	78.31
245.399	93.31
245.633	87.31
245.866	69.31
246.099	74.31
246.333	65.31
246.566	66.31
246.8	71.31
247.033	70.31
247.266	73.31
247.5	84.31
247.733	77.31
247.966	75.31
248.2	81.31
248.433	84.31
248.666	82.31
248.899	77.31
249.133	69.31
249.366	91.31
249.599	110.31
249.832	90.31
250.066	84.31
250.299	84.31
250.532	83.31
250.765	70.31
250.998	75.31
251.231	90.31
251.465	60.31
251.698	77.31
251.931	83.31
252.164	77.31
252.397	78.31
252.63	75.31
252.863	75.31
253.096	81.31
253.329	71.31
253.562	74.31
253.795	76.31
254.028	74.31
254.261	76.31
254.494	88.31
254.727	83.31
254.96	78.31
255.193	80.31
255.426	86.31
255.659	70.31
255.892	69.31
256.124	82.31
256.357	56.31
256.59	74.31
256.823	61.31
257.056	64.31
257.289	83.31
257.521	69.31
257.754	73.31
257.987	80.31
258.22	91.31
258.452	74.31
258.685	90.31
258.918	77.31
259.151	83.31
259.383	75.31
259.616	89.31
259.849	80.31
260.081	77.31
260.314	77.31
260.547	83.31
260.779	77.31
261.012	84.31
261.244	71.31
261.477	85.31
261.71	98.31
261.942	107.31
262.175	109.31
262.407	81.31
262.64	93.31
262.872	76.31
263.105	93.31
263.337	90.31
263.57	71.31
263.802	69.31
264.035	78.31
264.267	77.31
264.499	88.31
264.732	75.31
264.964	79.31
265.197	78.31
265.429	82.31
265.661	74.31
265.894	86.31
266.126	81.31
266.358	87.31
266.591	77.31
266.823	74.31
267.055	75.31
267.287	87.31
267.52	92.31
267.752	82.31
267.984	77.31
268.216	87.31
268.448	87.31
268.681	78.31
268.913	93.31
269.145	80.31
269.377	76.31
269.609	85.31
269.841	74.31
270.073	73.31
270.306	83.31
270.538	79.31
270.77	67.31
271.002	79.31
271.234	74.31
271.466	84.31
271.698	91.31
271.93	88.31
272.162	84.31
272.394	96.31
272.626	93.31
272.858	82.31
273.09	80.31
273.322	86.31
273.553	88.31
273.785	80.31
274.017	86.31
274.249	90.31
274.481	89.31
274.713	94.31
274.945	70.31
275.176	86.31
275.408	76.31
275.64	90.31
275.872	84.31
276.104	73.31
276.335	86.31
276.567	93.31
276.799	106.31
277.031	101.31
277.262	102.31
277.494	95.31
277.726	96.31
277.957	70.31
278.189	77.31
278.421	75.31
278.652	81.31
278.884	77.31
279.115	76.31
279.347	75.31
279.579	105.31
279.81	86.31
280.042	112.31
280.273	121.31
280.505	109.31
280.736	84.31
280.968	83.31
281.199	73.31
281.431	96.31
281.662	87.31
281.894	102.31
282.125	103.31
282.356	125.31
282.588	144.31
282.819	107.31
283.051	93.31
283.282	95.31
283.513	89.31
283.745	91.31
283.976	86.31
284.207	91.31
284.439	82.31
284.67	70.31
284.901	76.31
285.132	78.31
285.364	85.31
285.595	77.31
285.826	84.31
286.057	97.31
286.288	74.31
286.52	73.31
286.751	81.31
286.982	76.31
287.213	77.31
287.444	78.31
287.675	93.31
287.906	88.31
288.138	99.31
288.369	85.31
288.6	79.31
288.831	75.31
289.062	75.31
289.293	82.31
289.524	84.31
289.755	82.31
289.986	88.31
290.217	86.31
290.448	96.31
290.679	73.31
290.91	93.31
291.141	78.31
291.371	91.31
291.602	85.31
291.833	84.31
292.064	88.31
292.295	71.31
292.526	85.31
292.757	76.31
292.987	85.31
293.218	74.31
293.449	80.31
293.68	84.31
293.91	91.31
294.141	72.31
294.372	99.31
294.603	82.31
294.833	89.31
295.064	76.31
295.295	82.31
295.525	76.31
295.756	107.31
295.987	102.31
296.217	142.31
296.448	125.31
296.679	93.31
296.909	79.31
297.14	66.31
297.37	101.31
297.601	90.31
297.831	80.31
298.062	69.31
298.292	93.31
298.523	91.31
298.753	89.31
298.984	85.31
299.214	85.31
299.445	96.31
299.675	84.31
299.905	102.31
300.136	73.31
300.366	75.31
300.597	78.31
300.827	76.31
301.057	81.31
301.288	104.31
301.518	90.31
301.748	87.31
301.979	93.31
302.209	81.31
302.439	87.31
302.669	91.31
302.9	85.31
303.13	98.31
303.36	82.31
303.59	98.31
303.82	108.31
304.051	88.31
304.281	97.31
304.511	75.31
304.741	81.31
304.971	75.31
305.201	77.31
305.431	90.31
305.661	86.31
305.891	90.31
306.121	86.31
306.352	98.31
306.582	108.31
306.812	82.31
307.042	87.31
307.272	100.31
307.502	103.31
307.731	101.31
307.961	96.31
308.191	97.31
308.421	77.31
308.651	78.31
308.881	93.31
309.111	87.31
309.341	104.31
309.571	90.31
309.8	95.31
310.03	79.31
310.26	99.31
310.49	82.31
310.72	98.31
310.949	95.31
311.179	104.31
311.409	89.31
311.639	96.31
311.868	90.31
312.098	93.31
312.328	93.31
312.557	108.31
312.787	112.31
313.017	100.31
313.246	86.31
313.476	86.31
313.706	93.31
313.935	87.31
314.165	94.31
314.394	100.31
314.624	88.31
314.853	90.31
315.083	89.31
315.312	83.31
315.542	75.31
315.771	95.31
316.001	90.31
316.23	86.31
316.46	104.31
316.689	86.31
316.919	96.31
317.148	103.31
317.377	92.31
317.607	93.31
317.836	90.31
318.065	82.31
318.295	77.31
318.524	81.31
318.753	82.31
318.983	93.31
319.212	97.31
319.441	113.31
319.67	97.31
319.9	105.31
320.129	95.31
320.358	92.31
320.587	89.31
320.816	86.31
321.046	104.31
321.275	97.31
321.504	89.31
321.733	88.31
321.962	87.31
322.191	105.31
322.42	115.31
322.649	110.31
322.878	108.31
323.108	117.31
323.337	126.31
323.566	137.31
323.795	158.31
324.024	208.31
324.253	438.31
324.482	941.31
324.71	1956.31
324.939	2485.31
325.168	894.31
325.397	261.31
325.626	160.31
325.855	134.31
326.084	137.31
326.313	136.31
326.542	156.31
326.77	249.31
326.999	515.31
327.228	1083.31
327.457	1952.31
327.686	1518.31
327.914	437.31
328.143	277.31
328.372	252.31
328.6	180.31
328.829	140.31
329.058	159.31
329.287	141.31
329.515	112.31
329.744	140.31
329.972	204.31
330.201	337.31
330.43	425.31
330.658	230.31
330.887	162.31
331.115	132.31
331.344	102.31
331.572	107.31
331.801	105.31
332.03	110.31
332.258	96.31
332.486	93.31
332.715	91.31
332.943	95.31
333.172	97.31
333.4	110.31
333.629	111.31
333.857	133.31
334.085	193.31
334.314	316.31
334.542	530.31
334.771	478.31
334.999	169.31
335.227	114.31
335.455	94.31
335.684	99.31
335.912	97.31
336.14	105.31
336.369	93.31
336.597	88.31
336.825	86.31
337.053	93.31
337.281	89.31
337.51	89.31
337.738	94.31
337.966	89.31
338.194	99.31
338.422	97.31
338.65	98.31
338.878	92.31
339.106	87.31
339.334	77.31
339.562	86.31
339.79	84.31
340.018	91.31
340.246	84.31
340.474	86.31
340.702	99.31
340.93	96.31
341.158	89.31
341.386	87.31
341.614	86.31
341.842	92.31
342.07	78.31
342.298	76.31
342.526	90.31
342.754	92.31
342.981	94.31
343.209	106.31
343.437	92.31
343.665	67.31
343.893	84.31
344.12	85.31
344.348	78.31
344.576	85.31
344.804	89.31
345.031	96.31
345.259	101.31
345.487	87.31
345.714	80.31
345.942	98.31
346.17	93.31
346.397	98.31
346.625	93.31
346.853	93.31
347.08	89.31
347.308	81.31
347.535	103.31
347.763	103.31
347.99	117.31
348.218	99.31
348.445	93.31
348.673	104.31
348.9	86.31
349.128	85.31
349.355	100.31
349.583	92.31
349.81	82.31
350.037	106.31
350.265	91.31
350.492	98.31
350.72	101.31
350.947	94.31
351.174	118.31
351.402	107.31
351.629	102.31
351.856	99.31
352.083	90.31
352.311	90.31
352.538	92.31
352.765	101.31
352.992	99.31
353.22	116.31
353.447	116.31
353.674	87.31
353.901	97.31
354.128	95.31
354.355	85.31
354.583	100.31
354.81	97.31
355.037	87.31
355.264	82.31
355.491	91.31
355.718	87.31
355.945	97.31
356.172	90.31
356.399	95.31
356.626	89.31
356.853	93.31
357.08	101.31
357.307	88.31
357.534	87.31
357.761	97.31
357.988	81.31
358.215	86.31
358.441	77.31
358.668	96.31
358.895	82.31
359.122	88.31
359.349	79.31
359.576	75.31
359.802	96.31
360.029	112.31
360.256	107.31
360.483	112.31
360.709	89.31
360.936	90.31
361.163	94.31
361.39	103.31
361.616	90.31
361.843	81.31
362.07	92.31
362.296	93.31
362.523	96.31
362.749	78.31
362.976	94.31
363.203	96.31
363.429	102.31
363.656	89.31
363.882	101.31
364.109	83.31
364.335	93.31
364.562	90.31
364.788	91.31
365.015	89.31
365.241	97.31
365.468	97.31
365.694	87.31
365.92	108.31
366.147	103.31
366.373	96.31
366.599	80.31
366.826	95.31
367.052	84.31
367.278	86.31
367.505	83.31
367.731	97.31
367.957	83.31
368.184	87.31
368.41	90.31
368.636	107.31
368.862	116.31
369.089	111.31
369.315	82.31
369.541	88.31
369.767	89.31
369.993	97.31
370.219	99.31
370.445	91.31
370.672	79.31
370.898	98.31
371.124	89.31
371.35	82.31
371.576	91.31
371.802	90.31
372.028	81.31
372.254	84.31
372.48	88.31
372.706	70.31
372.932	82.31
373.158	93.31
373.384	94.31
373.61	94.31
373.835	84.31
374.061	95.31
374.287	86.31
374.513	84.31
374.739	75.31
374.965	71.31
375.191	79.31
375.416	67.31
375.642	83.31
375.868	93.31
376.094	78.31
376.319	85.31
376.545	89.31
376.771	80.31
376.997	86.31
377.222	91.31
377.448	91.31
377.674	75.31
377.899	97.31
378.125	100.31
378.35	84.31
378.576	94.31
378.802	84.31
379.027	77.31
379.253	88.31
379.478	90.31
379.704	82.31
379.929	77.31
380.155	96.31
380.38	89.31
380.606	95.31
380.831	91.31
381.057	88.31
381.282	88.31
381.507	89.31
381.733	91.31
381.958	83.31
382.184	94.31
382.409	82.31
382.634	99.31
382.86	103.31
383.085	95.31
383.31	86.31
383.535	95.31
383.761	93.31
383.986	101.31
384.211	102.31
384.436	101.31
384.662	92.31
384.887	89.31
385.112	91.31
385.337	92.31
385.562	100.31
385.787	89.31
386.013	98.31
386.238	116.31
386.463	102.31
386.688	98.31
386.913	93.31
387.138	96.31
387.363	100.31
387.588	103.31
387.813	97.31
388.038	115.31
388.263	103.31
388.488	113.31
388.713	85.31
388.938	92.31
389.163	92.31
389.387	88.31
389.612	90.31
389.837	100.31
390.062	79.31
390.287	87.31
390.512	87.31
390.736	87.31
390.961	76.31
391.186	89.31
391.411	99.31
391.636	81.31
391.86	93.31
392.085	96.31
392.31	85.31
392.534	75.31
392.759	89.31
392.984	87.31
393.208	81.31
393.433	90.31
393.658	107.31
393.882	85.31
394.107	89.31
394.331	88.31
394.556	62.31
394.78	76.31
395.005	72.31
395.229	86.31
395.454	89.31
395.678	84.31
395.903	78.31
396.127	90.31
396.352	81.31
396.576	75.31
396.801	83.31
397.025	98.31
397.249	89.31
397.474	103.31
397.698	76.31
397.922	87.31
398.147	87.31
398.371	81.31
398.595	85.31
398.82	94.31
399.044	89.31
399.268	85.31
399.492	76.31
399.717	77.31
399.941	78.31
400.165	113.31
400.389	81.31
400.613	80.31
400.837	89.31
401.062	88.31
401.286	90.31
401.51	87.31
401.734	88.31
401.958	98.31
402.182	104.31
402.406	162.31
402.63	120.31
402.854	88.31
403.078	90.31
403.302	81.31
403.526	100.31
403.75	85.31
403.974	79.31
404.198	85.31
404.422	87.31
404.645	95.31
404.869	85.31
405.093	85.31
405.317	114.31
405.541	103.31
405.765	105.31
405.988	113.31
406.212	184.31
406.436	215.31
406.66	143.31
406.883	106.31
407.107	103.31
407.331	101.31
407.555	104.31
407.778	95.31
408.002	97.31
408.226	88.31
408.449	92.31
408.673	84.31
408.896	88.31
409.12	109.31
409.344	95.31
409.567	85.31
409.791	91.31
410.014	93.31
410.238	86.31
410.461	87.31
410.685	83.31
410.908	104.31
411.132	101.31
411.355	100.31
411.578	87.31
411.802	75.31
412.025	80.31
412.249	97.31
412.472	97.31
412.695	107.31
412.919	102.31
413.142	103.31
413.365	85.31
413.589	82.31
413.812	77.31
414.035	88.31
414.258	77.31
414.482	85.31
414.705	78.31
414.928	86.31
415.151	107.31
415.374	102.31
415.597	88.31
415.821	77.31
416.044	74.31
416.267	82.31
416.49	101.31
416.713	78.31
416.936	86.31
417.159	81.31
417.382	100.31
417.605	91.31
417.828	99.31
418.051	82.31
418.274	84.31
418.497	77.31
418.72	76.31
418.943	88.31
419.166	94.31
419.389	106.31
419.611	99.31
419.834	89.31
420.057	95.31
420.28	88.31
420.503	84.31
420.726	95.31
420.948	87.31
421.171	90.31
421.394	87.31
421.617	78.31
421.839	81.31
422.062	90.31
422.285	90.31
422.507	102.31
422.73	100.31
422.953	86.31
423.175	88.31
423.398	84.31
423.621	85.31
423.843	86.31
424.066	81.31
424.288	107.31
424.511	102.31
424.733	105.31
424.956	104.31
425.178	100.31
425.401	107.31
425.623	105.31
425.846	89.31
426.068	84.31
426.291	92.31
426.513	94.31
426.735	72.31
426.958	91.31
427.18	101.31
427.402	153.31
427.625	205.31
427.847	180.31
428.069	153.31
428.292	101.31
428.514	83.31
428.736	79.31
428.958	88.31
429.181	84.31
429.403	81.31
429.625	85.31
429.847	87.31
430.069	94.31
430.292	103.31
430.514	93.31
430.736	70.31
430.958	86.31
431.18	76.31
431.402	86.31
431.624	100.31
431.846	77.31
432.068	82.31
432.29	88.31
432.512	89.31
432.734	82.31
432.956	70.31
433.178	96.31
433.4	89.31
433.622	97.31
433.844	87.31
434.066	82.31
434.287	92.31
434.509	82.31
434.731	84.31
434.953	97.31
435.175	83.31
435.397	89.31
435.618	100.31
435.84	103.31
436.062	138.31
436.284	120.31
436.505	98.31
436.727	88.31
436.949	99.31
437.17	88.31
437.392	84.31
437.614	95.31
437.835	103.31
438.057	118.31
438.278	126.31
438.5	110.31
438.721	132.31
438.943	101.31
439.165	99.31
439.386	88.31
439.608	105.31
439.829	103.31
440.05	148.31
440.272	142.31
440.493	85.31
440.715	94.31
440.936	85.31
441.158	75.31
441.379	78.31
441.6	99.31
441.822	92.31
442.043	92.31
442.264	94.31
442.486	98.31
442.707	81.31
442.928	98.31
443.149	139.31
443.371	138.31
443.592	100.31
443.813	110.31
444.034	118.31
444.255	101.31
444.476	79.31
444.698	80.31
444.919	75.31
445.14	125.31
445.361	118.31
445.582	115.31
445.803	171.31
446.024	148.31
446.245	119.31
446.466	108.31
446.687	91.31
446.908	98.31
447.129	80.31
447.35	82.31
447.571	95.31
447.792	89.31
448.013	100.31
448.234	98.31
448.455	100.31
448.675	118.31
448.896	125.31
449.117	96.31
449.338	116.31
449.559	135.31
449.779	160.31
450	93.31
450.221	86.31
450.442	78.31
450.662	92.31
450.883	102.31
451.104	100.31
451.324	110.31
451.545	75.31
451.766	83.31
451.986	85.31
452.207	82.31
452.428	95.31
452.648	102.31
452.869	96.31
453.089	93.31
453.31	112.31
453.53	87.31
453.751	84.31
453.971	86.31
454.192	110.31
454.412	81.31
454.633	95.31
454.853	81.31
455.073	79.31
455.294	88.31
455.514	98.31
455.734	102.31
455.955	90.31
456.175	81.31
456.395	77.31
456.616	88.31
456.836	72.31
457.056	78.31
457.276	75.31
457.497	83.31
457.717	77.31
457.937	87.31
458.157	81.31
458.377	96.31
458.598	109.31
458.818	152.31
459.038	163.31
459.258	128.31
459.478	96.31
459.698	64.31
459.918	87.31
460.138	84.31
460.358	77.31
460.578	93.31
460.798	78.31
461.018	82.31
461.238	83.31
461.458	93.31
461.678	82.31
461.898	85.31
462.118	75.31
462.338	84.31
462.558	88.31
462.777	93.31
462.997	89.31
463.217	93.31
463.437	102.31
463.657	79.31
463.876	89.31
464.096	90.31
464.316	91.31
464.536	90.31
464.755	97.31
464.975	104.31
465.195	163.31
465.414	160.31
465.634	107.31
465.854	85.31
466.073	91.31
466.293	86.31
466.512	78.31
466.732	82.31
466.951	88.31
467.171	78.31
467.391	97.31
467.61	107.31
467.829	124.31
468.049	180.31
468.268	248.31
468.488	115.31
468.707	88.31
468.927	90.31
469.146	65.31
469.365	75.31
469.585	76.31
469.804	96.31
470.023	93.31
470.243	84.31
470.462	104.31
470.681	104.31
470.901	78.31
471.12	71.31
471.339	78.31
471.558	95.31
471.777	99.31
471.997	129.31
472.216	347.31
472.435	666.31
472.654	212.31
472.873	106.31
473.092	106.31
473.311	68.31
473.53	77.31
473.749	80.31
473.968	103.31
474.187	116.31
474.406	101.31
474.625	71.31
474.844	80.31
475.063	78.31
475.282	93.31
475.501	97.31
475.72	81.31
475.939	102.31
476.158	79.31
476.377	81.31
476.596	80.31
476.814	93.31
477.033	97.31
477.252	89.31
477.471	87.31
477.69	73.31
477.908	95.31
478.127	94.31
478.346	82.31
478.564	83.31
478.783	90.31
479.002	76.31
479.22	91.31
479.439	84.31
479.658	107.31
479.876	114.31
480.095	101.31
480.313	103.31
480.532	104.31
480.751	133.31
480.969	336.31
481.188	1149.31
481.406	706.31
481.624	174.31
481.843	90.31
482.061	105.31
482.28	83.31
482.498	94.31
482.717	86.31
482.935	82.31
483.153	79.31
483.372	87.31
483.59	84.31
483.808	88.31
484.027	91.31
484.245	89.31
484.463	91.31
484.681	85.31
484.9	80.31
485.118	86.31
485.336	81.31
485.554	98.31
485.772	93.31
485.99	94.31
486.209	88.31
486.427	111.31
486.645	110.31
486.863	109.31
487.081	104.31
487.299	94.31
487.517	87.31
487.735	89.31
487.953	84.31
488.171	83.31
488.389	99.31
488.607	92.31
488.825	76.31
489.043	103.31
489.261	109.31
489.479	95.31
489.696	94.31
489.914	80.31
490.132	89.31
490.35	86.31
490.568	90.31
490.786	68.31
491.003	83.31
491.221	87.31
491.439	99.31
491.657	89.31
491.874	96.31
492.092	97.31
492.31	86.31
492.527	79.31
492.745	83.31
492.963	88.31
493.18	85.31
493.398	78.31
493.615	82.31
493.833	82.31
494.05	91.31
494.268	81.31
494.485	98.31
494.703	83.31
494.92	89.31
495.138	79.31
495.355	70.31
495.573	78.31
495.79	93.31
496.008	82.31
496.225	73.31
496.442	93.31
496.66	81.31
496.877	88.31
497.094	95.31
497.312	78.31
497.529	88.31
497.746	85.31
497.963	89.31
498.181	93.31
498.398	81.31
498.615	94.31
498.832	82.31
499.049	79.31
499.267	85.31
499.484	82.31
499.701	87.31
499.918	99.31
500.135	82.31
500.352	92.31
500.569	93.31
500.786	88.31
501.003	90.31
501.22	91.31
501.437	82.31
501.654	87.31
501.871	113.31
502.088	101.31
502.305	101.31
502.522	85.31
502.739	66.31
502.956	85.31
503.172	95.31
503.389	90.31
503.606	106.31
503.823	107.31
504.04	91.31
504.256	100.31
504.473	89.31
504.69	88.31
504.907	91.31
505.123	92.31
505.34	78.31
505.557	96.31
505.773	101.31
505.99	88.31
506.207	71.31
506.423	92.31
506.64	88.31
506.856	69.31
507.073	71.31
507.289	91.31
507.506	97.31
507.722	100.31
507.939	98.31
508.155	90.31
508.372	77.31
508.588	77.31
508.805	92.31
509.021	98.31
509.238	95.31
509.454	97.31
509.67	99.31
509.887	112.31
510.103	106.31
510.319	209.31
510.536	692.31
510.752	2237.31
510.968	639.31
511.184	150.31
511.401	109.31
511.617	106.31
511.833	100.31
512.049	85.31
512.265	88.31
512.481	93.31
512.698	93.31
512.914	93.31
513.13	87.31
513.346	100.31
513.562	89.31
513.778	100.31
513.994	96.31
514.21	89.31
514.426	120.31
514.642	128.31
514.858	117.31
515.074	165.31
515.29	455.31
515.506	1506.31
515.721	576.31
515.937	151.31
