Data from Circ_2010_H10_HRD10591_00026.txt Node
Date: Wed Jan 03 10:09:46 EST 2024
User: Yrep
Spectrometer: HR+D1059
Trigger mode: 1
Integration Time (sec): 1.000000E-1
Scans to average: 1
Electric dark correction enabled: true
Nonlinearity correction enabled: false
Boxcar width: 0
XAxis mode: Wavelengths
Number of Pixels in Spectrum: 2048
>>>>>Begin Spectral Data<<<<<
223.165	-3.81
223.4	-3.81
223.635	-3.81
223.869	-10.81
224.104	-21.81
224.338	-11.81
224.573	-16.81
224.808	-17.81
225.042	-7.81
225.277	-10.81
225.511	-22.81
225.746	-2.81
225.98	11.19
226.215	8.19
226.449	1.19
226.683	26.19
226.918	33.19
227.152	47.19
227.387	35.19
227.621	35.19
227.856	38.19
228.09	41.19
228.324	55.19
228.559	39.19
228.793	54.19
229.027	66.19
229.262	75.19
229.496	51.19
229.73	65.19
229.964	74.19
230.199	90.19
230.433	83.19
230.667	85.19
230.901	90.19
231.136	61.19
231.37	74.19
231.604	84.19
231.838	76.19
232.072	82.19
232.306	62.19
232.541	81.19
232.775	80.19
233.009	72.19
233.243	72.19
233.477	80.19
233.711	70.19
233.945	71.19
234.179	70.19
234.413	84.19
234.647	83.19
234.881	73.19
235.115	67.19
235.349	84.19
235.583	77.19
235.817	65.19
236.051	63.19
236.285	78.19
236.519	78.19
236.753	70.19
236.987	65.19
237.221	74.19
237.455	83.19
237.689	71.19
237.922	77.19
238.156	66.19
238.39	70.19
238.624	70.19
238.858	84.19
239.091	74.19
239.325	84.19
239.559	81.19
239.793	65.19
240.027	77.19
240.26	64.19
240.494	73.19
240.728	77.19
240.961	71.19
241.195	68.19
241.429	77.19
241.662	71.19
241.896	59.19
242.13	67.19
242.363	67.19
242.597	76.19
242.83	68.19
243.064	70.19
243.298	82.19
243.531	60.19
243.765	78.19
243.998	76.19
244.232	79.19
244.465	78.19
244.699	67.19
244.932	73.19
245.166	76.19
245.399	70.19
245.633	73.19
245.866	65.19
246.099	71.19
246.333	74.19
246.566	78.19
246.8	82.19
247.033	70.19
247.266	72.19
247.5	69.19
247.733	89.19
247.966	63.19
248.2	75.19
248.433	92.19
248.666	83.19
248.899	78.19
249.133	86.19
249.366	91.19
249.599	84.19
249.832	76.19
250.066	86.19
250.299	70.19
250.532	87.19
250.765	67.19
250.998	85.19
251.231	66.19
251.465	93.19
251.698	73.19
251.931	69.19
252.164	87.19
252.397	82.19
252.63	76.19
252.863	86.19
253.096	75.19
253.329	94.19
253.562	72.19
253.795	75.19
254.028	59.19
254.261	72.19
254.494	81.19
254.727	77.19
254.96	80.19
255.193	79.19
255.426	65.19
255.659	82.19
255.892	79.19
256.124	74.19
256.357	64.19
256.59	77.19
256.823	77.19
257.056	86.19
257.289	89.19
257.521	74.19
257.754	72.19
257.987	81.19
258.22	81.19
258.452	76.19
258.685	67.19
258.918	81.19
259.151	91.19
259.383	80.19
259.616	84.19
259.849	58.19
260.081	73.19
260.314	83.19
260.547	82.19
260.779	86.19
261.012	78.19
261.244	80.19
261.477	76.19
261.71	92.19
261.942	108.19
262.175	88.19
262.407	79.19
262.64	81.19
262.872	70.19
263.105	73.19
263.337	76.19
263.57	87.19
263.802	83.19
264.035	78.19
264.267	73.19
264.499	76.19
264.732	80.19
264.964	83.19
265.197	72.19
265.429	83.19
265.661	73.19
265.894	75.19
266.126	87.19
266.358	67.19
266.591	66.19
266.823	77.19
267.055	85.19
267.287	77.19
267.52	75.19
267.752	68.19
267.984	88.19
268.216	71.19
268.448	88.19
268.681	95.19
268.913	85.19
269.145	77.19
269.377	68.19
269.609	78.19
269.841	77.19
270.073	86.19
270.306	88.19
270.538	81.19
270.77	91.19
271.002	75.19
271.234	79.19
271.466	82.19
271.698	80.19
271.93	72.19
272.162	80.19
272.394	88.19
272.626	76.19
272.858	74.19
273.09	92.19
273.322	69.19
273.553	80.19
273.785	89.19
274.017	78.19
274.249	94.19
274.481	87.19
274.713	70.19
274.945	77.19
275.176	78.19
275.408	79.19
275.64	103.19
275.872	80.19
276.104	93.19
276.335	85.19
276.567	86.19
276.799	92.19
277.031	98.19
277.262	93.19
277.494	90.19
277.726	78.19
277.957	80.19
278.189	84.19
278.421	78.19
278.652	90.19
278.884	95.19
279.115	84.19
279.347	72.19
279.579	89.19
279.81	83.19
280.042	69.19
280.273	85.19
280.505	87.19
280.736	93.19
280.968	81.19
281.199	86.19
281.431	95.19
281.662	95.19
281.894	77.19
282.125	100.19
282.356	101.19
282.588	116.19
282.819	102.19
283.051	85.19
283.282	77.19
283.513	96.19
283.745	76.19
283.976	84.19
284.207	80.19
284.439	79.19
284.67	87.19
284.901	78.19
285.132	93.19
285.364	91.19
285.595	90.19
285.826	83.19
286.057	93.19
286.288	80.19
286.52	83.19
286.751	92.19
286.982	85.19
287.213	77.19
287.444	88.19
287.675	87.19
287.906	89.19
288.138	72.19
288.369	101.19
288.6	97.19
288.831	79.19
289.062	93.19
289.293	75.19
289.524	94.19
289.755	75.19
289.986	85.19
290.217	107.19
290.448	88.19
290.679	87.19
290.91	87.19
291.141	85.19
291.371	86.19
291.602	90.19
291.833	75.19
292.064	95.19
292.295	103.19
292.526	85.19
292.757	79.19
292.987	81.19
293.218	88.19
293.449	88.19
293.68	87.19
293.91	93.19
294.141	76.19
294.372	85.19
294.603	85.19
294.833	81.19
295.064	97.19
295.295	77.19
295.525	78.19
295.756	93.19
295.987	89.19
296.217	127.19
296.448	107.19
296.679	84.19
296.909	99.19
297.14	88.19
297.37	78.19
297.601	84.19
297.831	74.19
298.062	81.19
298.292	85.19
298.523	91.19
298.753	92.19
298.984	87.19
299.214	86.19
299.445	91.19
299.675	80.19
299.905	89.19
300.136	94.19
300.366	81.19
300.597	83.19
300.827	88.19
301.057	96.19
301.288	101.19
301.518	87.19
301.748	90.19
301.979	117.19
302.209	88.19
302.439	86.19
302.669	82.19
302.9	96.19
303.13	75.19
303.36	77.19
303.59	88.19
303.82	93.19
304.051	92.19
304.281	94.19
304.511	87.19
304.741	82.19
304.971	102.19
305.201	88.19
305.431	88.19
305.661	99.19
305.891	84.19
306.121	85.19
306.352	99.19
306.582	87.19
306.812	81.19
307.042	85.19
307.272	98.19
307.502	85.19
307.731	88.19
307.961	86.19
308.191	86.19
308.421	85.19
308.651	97.19
308.881	100.19
309.111	87.19
309.341	71.19
309.571	89.19
309.8	93.19
310.03	91.19
310.26	96.19
310.49	96.19
310.72	78.19
310.949	101.19
311.179	86.19
311.409	92.19
311.639	83.19
311.868	91.19
312.098	92.19
312.328	85.19
312.557	82.19
312.787	98.19
313.017	95.19
313.246	114.19
313.476	97.19
313.706	99.19
313.935	81.19
314.165	93.19
314.394	83.19
314.624	94.19
314.853	93.19
315.083	84.19
315.312	89.19
315.542	87.19
315.771	84.19
316.001	90.19
316.23	86.19
316.46	76.19
316.689	82.19
316.919	90.19
317.148	89.19
317.377	84.19
317.607	95.19
317.836	93.19
318.065	75.19
318.295	82.19
318.524	89.19
318.753	81.19
318.983	92.19
319.212	92.19
319.441	97.19
319.67	103.19
319.9	95.19
320.129	77.19
320.358	86.19
320.587	89.19
320.816	98.19
321.046	92.19
321.275	100.19
321.504	87.19
321.733	98.19
321.962	93.19
322.191	90.19
322.42	98.19
322.649	114.19
322.878	105.19
323.108	103.19
323.337	98.19
323.566	109.19
323.795	129.19
324.024	175.19
324.253	317.19
324.482	641.19
324.71	1243.19
324.939	1621.19
325.168	622.19
325.397	198.19
325.626	142.19
325.855	116.19
326.084	119.19
326.313	123.19
326.542	142.19
326.77	202.19
326.999	359.19
327.228	728.19
327.457	1313.19
327.686	1015.19
327.914	311.19
328.143	162.19
328.372	149.19
328.6	125.19
328.829	119.19
329.058	113.19
329.287	107.19
329.515	101.19
329.744	96.19
329.972	99.19
330.201	143.19
330.43	180.19
330.658	127.19
330.887	141.19
331.115	114.19
331.344	80.19
331.572	105.19
331.801	106.19
332.03	98.19
332.258	87.19
332.486	91.19
332.715	94.19
332.943	93.19
333.172	95.19
333.4	90.19
333.629	105.19
333.857	112.19
334.085	114.19
334.314	163.19
334.542	199.19
334.771	202.19
334.999	97.19
335.227	113.19
335.455	91.19
335.684	82.19
335.912	80.19
336.14	92.19
336.369	88.19
336.597	98.19
336.825	88.19
337.053	83.19
337.281	86.19
337.51	85.19
337.738	93.19
337.966	90.19
338.194	85.19
338.422	79.19
338.65	86.19
338.878	82.19
339.106	82.19
339.334	98.19
339.562	96.19
339.79	75.19
340.018	96.19
340.246	93.19
340.474	78.19
340.702	95.19
340.93	90.19
341.158	80.19
341.386	81.19
341.614	95.19
341.842	83.19
342.07	85.19
342.298	97.19
342.526	84.19
342.754	87.19
342.981	91.19
343.209	81.19
343.437	90.19
343.665	94.19
343.893	89.19
344.12	100.19
344.348	95.19
344.576	74.19
344.804	85.19
345.031	93.19
345.259	89.19
345.487	84.19
345.714	90.19
345.942	85.19
346.17	104.19
346.397	87.19
346.625	78.19
346.853	69.19
347.08	94.19
347.308	84.19
347.535	102.19
347.763	81.19
347.99	99.19
348.218	92.19
348.445	94.19
348.673	81.19
348.9	89.19
349.128	87.19
349.355	84.19
349.583	77.19
349.81	92.19
350.037	94.19
350.265	88.19
350.492	90.19
350.72	74.19
350.947	83.19
351.174	89.19
351.402	105.19
351.629	88.19
351.856	93.19
352.083	104.19
352.311	106.19
352.538	99.19
352.765	94.19
352.992	105.19
353.22	108.19
353.447	109.19
353.674	109.19
353.901	95.19
354.128	95.19
354.355	114.19
354.583	89.19
354.81	110.19
355.037	102.19
355.264	95.19
355.491	95.19
355.718	84.19
355.945	97.19
356.172	91.19
356.399	101.19
356.626	89.19
356.853	92.19
357.08	83.19
357.307	85.19
357.534	85.19
357.761	91.19
357.988	92.19
358.215	92.19
358.441	86.19
358.668	93.19
358.895	93.19
359.122	97.19
359.349	81.19
359.576	97.19
359.802	103.19
360.029	105.19
360.256	99.19
360.483	96.19
360.709	98.19
360.936	89.19
361.163	78.19
361.39	100.19
361.616	85.19
361.843	85.19
362.07	85.19
362.296	67.19
362.523	90.19
362.749	89.19
362.976	80.19
363.203	94.19
363.429	81.19
363.656	89.19
363.882	94.19
364.109	74.19
364.335	77.19
364.562	101.19
364.788	90.19
365.015	100.19
365.241	107.19
365.468	105.19
365.694	87.19
365.92	95.19
366.147	98.19
366.373	80.19
366.599	89.19
366.826	81.19
367.052	91.19
367.278	93.19
367.505	89.19
367.731	79.19
367.957	86.19
368.184	91.19
368.41	100.19
368.636	92.19
368.862	106.19
369.089	93.19
369.315	92.19
369.541	78.19
369.767	86.19
369.993	76.19
370.219	93.19
370.445	77.19
370.672	91.19
370.898	94.19
371.124	78.19
371.35	89.19
371.576	82.19
371.802	75.19
372.028	88.19
372.254	83.19
372.48	72.19
372.706	74.19
372.932	91.19
373.158	87.19
373.384	89.19
373.61	95.19
373.835	98.19
374.061	77.19
374.287	83.19
374.513	82.19
374.739	94.19
374.965	91.19
375.191	94.19
375.416	95.19
375.642	102.19
375.868	95.19
376.094	85.19
376.319	93.19
376.545	89.19
376.771	78.19
376.997	78.19
377.222	85.19
377.448	85.19
377.674	85.19
377.899	93.19
378.125	78.19
378.35	92.19
378.576	94.19
378.802	104.19
379.027	91.19
379.253	105.19
379.478	90.19
379.704	87.19
379.929	84.19
380.155	87.19
380.38	82.19
380.606	89.19
380.831	99.19
381.057	88.19
381.282	90.19
381.507	84.19
381.733	100.19
381.958	89.19
382.184	91.19
382.409	90.19
382.634	100.19
382.86	96.19
383.085	87.19
383.31	103.19
383.535	100.19
383.761	101.19
383.986	94.19
384.211	97.19
384.436	85.19
384.662	87.19
384.887	101.19
385.112	107.19
385.337	113.19
385.562	111.19
385.787	112.19
386.013	98.19
386.238	102.19
386.463	133.19
386.688	115.19
386.913	109.19
387.138	101.19
387.363	96.19
387.588	82.19
387.813	117.19
388.038	105.19
388.263	114.19
388.488	113.19
388.713	102.19
388.938	104.19
389.163	90.19
389.387	94.19
389.612	82.19
389.837	85.19
390.062	89.19
390.287	101.19
390.512	88.19
390.736	89.19
390.961	86.19
391.186	87.19
391.411	79.19
391.636	86.19
391.86	70.19
392.085	86.19
392.31	87.19
392.534	84.19
392.759	87.19
392.984	102.19
393.208	97.19
393.433	107.19
393.658	95.19
393.882	89.19
394.107	89.19
394.331	73.19
394.556	82.19
394.78	105.19
395.005	85.19
395.229	79.19
395.454	74.19
395.678	82.19
395.903	81.19
396.127	77.19
396.352	77.19
396.576	81.19
396.801	87.19
397.025	92.19
397.249	103.19
397.474	83.19
397.698	91.19
397.922	81.19
398.147	80.19
398.371	82.19
398.595	89.19
398.82	86.19
399.044	92.19
399.268	88.19
399.492	77.19
399.717	87.19
399.941	87.19
400.165	96.19
400.389	99.19
400.613	83.19
400.837	69.19
401.062	76.19
401.286	89.19
401.51	72.19
401.734	85.19
401.958	91.19
402.182	113.19
402.406	136.19
402.63	107.19
402.854	91.19
403.078	86.19
403.302	86.19
403.526	79.19
403.75	86.19
403.974	80.19
404.198	71.19
404.422	69.19
404.645	90.19
404.869	86.19
405.093	91.19
405.317	102.19
405.541	96.19
405.765	97.19
405.988	99.19
406.212	134.19
406.436	177.19
406.66	126.19
406.883	97.19
407.107	89.19
407.331	89.19
407.555	94.19
407.778	102.19
408.002	87.19
408.226	96.19
408.449	83.19
408.673	79.19
408.896	89.19
409.12	87.19
409.344	81.19
409.567	74.19
409.791	81.19
410.014	92.19
410.238	94.19
410.461	73.19
410.685	82.19
410.908	93.19
411.132	81.19
411.355	90.19
411.578	71.19
411.802	77.19
412.025	82.19
412.249	80.19
412.472	99.19
412.695	109.19
412.919	82.19
413.142	77.19
413.365	69.19
413.589	81.19
413.812	92.19
414.035	87.19
414.258	83.19
414.482	78.19
414.705	75.19
414.928	83.19
415.151	83.19
415.374	90.19
415.597	86.19
415.821	79.19
416.044	65.19
416.267	94.19
416.49	100.19
416.713	95.19
416.936	89.19
417.159	73.19
417.382	93.19
417.605	82.19
417.828	92.19
418.051	92.19
418.274	84.19
418.497	89.19
418.72	77.19
418.943	95.19
419.166	81.19
419.389	78.19
419.611	90.19
419.834	85.19
420.057	89.19
420.28	86.19
420.503	95.19
420.726	82.19
420.948	105.19
421.171	104.19
421.394	94.19
421.617	84.19
421.839	76.19
422.062	74.19
422.285	89.19
422.507	114.19
422.73	93.19
422.953	83.19
423.175	83.19
423.398	89.19
423.621	90.19
423.843	79.19
424.066	73.19
424.288	80.19
424.511	85.19
424.733	88.19
424.956	102.19
425.178	112.19
425.401	98.19
425.623	82.19
425.846	76.19
426.068	81.19
426.291	99.19
426.513	85.19
426.735	90.19
426.958	73.19
427.18	94.19
427.402	119.19
427.625	125.19
427.847	127.19
428.069	111.19
428.292	84.19
428.514	82.19
428.736	80.19
428.958	74.19
429.181	85.19
429.403	91.19
429.625	86.19
429.847	74.19
430.069	79.19
430.292	84.19
430.514	73.19
430.736	77.19
430.958	82.19
431.18	83.19
431.402	71.19
431.624	88.19
431.846	75.19
432.068	88.19
432.29	69.19
432.512	95.19
432.734	85.19
432.956	82.19
433.178	101.19
433.4	81.19
433.622	84.19
433.844	83.19
434.066	92.19
434.287	84.19
434.509	78.19
434.731	94.19
434.953	86.19
435.175	83.19
435.397	89.19
435.618	87.19
435.84	86.19
436.062	101.19
436.284	109.19
436.505	90.19
436.727	94.19
436.949	84.19
437.17	82.19
437.392	79.19
437.614	93.19
437.835	85.19
438.057	94.19
438.278	106.19
438.5	103.19
438.721	103.19
438.943	96.19
439.165	95.19
439.386	87.19
439.608	77.19
439.829	89.19
440.05	109.19
440.272	120.19
440.493	82.19
440.715	99.19
440.936	100.19
441.158	90.19
441.379	91.19
441.6	92.19
441.822	92.19
442.043	79.19
442.264	88.19
442.486	77.19
442.707	89.19
442.928	102.19
443.149	113.19
443.371	107.19
443.592	103.19
443.813	99.19
444.034	113.19
444.255	82.19
444.476	100.19
444.698	78.19
444.919	83.19
445.14	131.19
445.361	109.19
445.582	103.19
445.803	109.19
446.024	107.19
446.245	113.19
446.466	96.19
446.687	100.19
446.908	86.19
447.129	82.19
447.35	82.19
447.571	85.19
447.792	87.19
448.013	88.19
448.234	104.19
448.455	93.19
448.675	87.19
448.896	110.19
449.117	88.19
449.338	100.19
449.559	120.19
449.779	117.19
450	80.19
450.221	84.19
450.442	83.19
450.662	98.19
450.883	101.19
451.104	102.19
451.324	92.19
451.545	73.19
451.766	90.19
451.986	90.19
452.207	84.19
452.428	86.19
452.648	99.19
452.869	104.19
453.089	98.19
453.31	92.19
453.53	84.19
453.751	83.19
453.971	112.19
454.192	98.19
454.412	91.19
454.633	85.19
454.853	75.19
455.073	88.19
455.294	89.19
455.514	76.19
455.734	82.19
455.955	86.19
456.175	94.19
456.395	88.19
456.616	87.19
456.836	91.19
457.056	81.19
457.276	86.19
457.497	82.19
457.717	97.19
457.937	89.19
458.157	81.19
458.377	94.19
458.598	99.19
458.818	139.19
459.038	131.19
459.258	100.19
459.478	93.19
459.698	98.19
459.918	93.19
460.138	100.19
460.358	78.19
460.578	75.19
460.798	89.19
461.018	75.19
461.238	76.19
461.458	94.19
461.678	85.19
461.898	84.19
462.118	85.19
462.338	81.19
462.558	86.19
462.777	83.19
462.997	84.19
463.217	89.19
463.437	95.19
463.657	72.19
463.876	90.19
464.096	99.19
464.316	86.19
464.536	95.19
464.755	88.19
464.975	105.19
465.195	138.19
465.414	130.19
465.634	84.19
465.854	84.19
466.073	86.19
466.293	72.19
466.512	77.19
466.732	90.19
466.951	78.19
467.171	74.19
467.391	87.19
467.61	92.19
467.829	95.19
468.049	134.19
468.268	118.19
468.488	100.19
468.707	74.19
468.927	70.19
469.146	74.19
469.365	97.19
469.585	88.19
469.804	89.19
470.023	95.19
470.243	97.19
470.462	85.19
470.681	109.19
470.901	90.19
471.12	86.19
471.339	81.19
471.558	79.19
471.777	84.19
471.997	98.19
472.216	150.19
472.435	247.19
472.654	113.19
472.873	79.19
473.092	71.19
473.311	85.19
473.53	76.19
473.749	71.19
473.968	78.19
474.187	86.19
474.406	77.19
474.625	88.19
474.844	89.19
475.063	95.19
475.282	67.19
475.501	80.19
475.72	91.19
475.939	91.19
476.158	92.19
476.377	84.19
476.596	85.19
476.814	87.19
477.033	86.19
477.252	73.19
477.471	69.19
477.69	89.19
477.908	86.19
478.127	84.19
478.346	71.19
478.564	85.19
478.783	90.19
479.002	97.19
479.22	89.19
479.439	87.19
479.658	99.19
479.876	83.19
480.095	83.19
480.313	86.19
480.532	86.19
480.751	88.19
480.969	156.19
481.188	384.19
481.406	272.19
481.624	94.19
481.843	91.19
482.061	94.19
482.28	103.19
482.498	76.19
482.717	98.19
482.935	76.19
483.153	88.19
483.372	73.19
483.59	90.19
483.808	86.19
484.027	87.19
484.245	93.19
484.463	97.19
484.681	94.19
484.9	102.19
485.118	81.19
485.336	107.19
485.554	93.19
485.772	85.19
485.99	95.19
486.209	99.19
486.427	108.19
486.645	94.19
486.863	102.19
487.081	84.19
487.299	86.19
487.517	93.19
487.735	86.19
487.953	92.19
488.171	90.19
488.389	87.19
488.607	89.19
488.825	91.19
489.043	98.19
489.261	93.19
489.479	83.19
489.696	77.19
489.914	85.19
490.132	78.19
490.35	79.19
490.568	82.19
490.786	75.19
491.003	87.19
491.221	71.19
491.439	93.19
491.657	88.19
491.874	82.19
492.092	87.19
492.31	101.19
492.527	89.19
492.745	81.19
492.963	90.19
493.18	99.19
493.398	83.19
493.615	88.19
493.833	94.19
494.05	79.19
494.268	80.19
494.485	86.19
494.703	89.19
494.92	86.19
495.138	72.19
495.355	97.19
495.573	89.19
495.79	90.19
496.008	97.19
496.225	89.19
496.442	81.19
496.66	92.19
496.877	78.19
497.094	87.19
497.312	81.19
497.529	88.19
497.746	84.19
497.963	94.19
498.181	86.19
498.398	101.19
498.615	107.19
498.832	88.19
499.049	92.19
499.267	82.19
499.484	89.19
499.701	84.19
499.918	83.19
500.135	101.19
500.352	94.19
500.569	91.19
500.786	92.19
501.003	81.19
501.22	86.19
501.437	90.19
501.654	82.19
501.871	100.19
502.088	81.19
502.305	84.19
502.522	78.19
502.739	94.19
502.956	71.19
503.172	74.19
503.389	93.19
503.606	100.19
503.823	84.19
504.04	89.19
504.256	91.19
504.473	88.19
504.69	96.19
504.907	105.19
505.123	88.19
505.34	86.19
505.557	89.19
505.773	80.19
505.99	89.19
506.207	88.19
506.423	84.19
506.64	82.19
506.856	95.19
507.073	89.19
507.289	88.19
507.506	85.19
507.722	101.19
507.939	105.19
508.155	99.19
508.372	83.19
508.588	94.19
508.805	90.19
509.021	102.19
509.238	83.19
509.454	92.19
509.67	90.19
509.887	97.19
510.103	111.19
510.319	166.19
510.536	578.19
510.752	1823.19
510.968	553.19
511.184	137.19
511.401	110.19
511.617	91.19
511.833	73.19
512.049	89.19
512.265	90.19
512.481	93.19
512.698	85.19
512.914	80.19
513.13	102.19
513.346	78.19
513.562	98.19
513.778	85.19
513.994	86.19
514.21	98.19
514.426	110.19
514.642	111.19
514.858	109.19
515.074	135.19
515.29	338.19
515.506	1088.19
515.721	411.19
515.937	123.19
516.153	99.19
516.369	113.19
516.585	101.19
516.801	90.19
517.016	107.19
